Fp1;Fp2;O1;O2;POLY3;POLY4;A1;A2;Video;Audio;event;
-8126.037;-8119.657;2762.349;-8839.514;8.734555;-3.6379;-8066.977;-8103.223;-0.443597;0.3644668;0;13:28:32 Глаза закрыты;
-8330.28;-8326.296;1294.497;-7894.805;8.457358;-8.523877;-8270.857;-8311.628;-0.3781839;0.1042312;0;
-4689.111;-4681.102;902.799;-5061.137;9.119422;-8.582295;-4621.986;-4665.854;-0.1829019;0.2340612;0;
5273.985;5280.441;1746.717;4663.423;9.511424;-4.889671;5350.756;5302.903;0.1421186;0.2987933;0;
7362.602;7355.62;2511.702;7260.242;10.57359;-4.415939;7415.027;7375.343;0.2719105;-0.09131098;0;
3648.115;3635.439;3620.369;4019.884;2.927159;-4.210553;3674.516;3647.115;-0.05319947;-0.4160559;0;
3922.747;3912.021;5140.153;4113.937;1.786118;-4.474193;3950.136;3925.84;0.07678867;-0.4806052;0;
-69.7215;-86.07438;5496.026;834.652;-2.436211;-1.321621;-48.60629;-72.06615;0.3365809;-0.2852203;0;
-10169.23;-10181.26;4642.242;-10452.64;-7.189185;0.3542801;-10160.52;-10174.79;0.1413407;-0.09003167;0;
-12201.35;-12198.38;3743.184;-14665.29;9.89832;-9.224452;-12170.94;-12192.16;0.206166;0.3648302;0;
-8055.398;-8049.627;2647.096;-8819.255;12.2329;-12.02841;-7998.158;-8038.051;0.1409915;0.5593656;0;
-8379.199;-8375.996;1143.628;-7916.999;8.13477;-5.452114;-8323.767;-8363.541;-0.1839869;0.03906484;0;
-4889.358;-4882.175;701.3574;-5270.401;10.87229;-5.245687;-4827.344;-4868.421;-0.2487694;-0.1558764;0;
5134.3;5139.321;1533.89;4525.426;-5.147192;-7.852689;5206.278;5158.683;-0.3134868;0.1691169;0;
7286.119;7277.142;2295.871;7184.618;-10.36596;-8.246696;7334.818;7296.829;0.0766323;0.1039796;0;
3665.911;3651.274;3408.535;4030.465;-0.5762776;-5.961051;3689.417;3664.6;0.1415226;-0.2859289;0;
4073.896;4061.084;4937.028;4263.234;-1.513704;-4.816352;4096.645;4073.679;-0.6382276;-0.4155763;0;
70.6092;52.51682;5288.919;954.6113;-4.928434;-7.356803;85.49543;64.56776;-0.2477823;-0.090322;0;
-10045.58;-10058.67;4440.934;-10299.94;-6.061582;-6.813608;-10041.97;-10054.04;0.2722054;0.4944749;0;
-12093.76;-12091.18;3536.112;-14425.68;-5.654325;-7.677479;-12066.5;-12085.94;-0.3127742;0.4290107;0;
-8098.771;-8092.549;2415.933;-8789.422;-5.983437;-8.94244;-8042.794;-8079.287;-0.2474926;-0.09115916;0;
-8467.74;-8464.367;916.5078;-8013.257;-7.585015;-1.230601;-8412.023;-8450.618;-0.1173092;-0.02610023;0;
-4952.213;-4946.033;477.3696;-5326.536;-8.045908;-0.09065446;-4888.525;-4930.439;-0.442028;0.3637301;0;
5041.43;5045.995;1298.008;4438.426;-9.176899;-2.233956;5116.516;5069.288;-0.1167472;0.4932993;0;
7301.663;7293.792;2063.912;7195.406;-9.568844;-1.628926;7352.905;7315.156;-0.1166299;0.4278363;0;
3821.743;3807.899;3184.805;4186.982;-13.84614;-6.851836;3847.275;3822.371;-0.3114147;0.362439;0;
4292.336;4280.521;4719.613;4478.61;-17.44955;-7.514719;4319.295;4296.227;0.2086369;0.2321402;0;
315.6298;299.2973;5071.192;1197.616;-6.17888;-12.59775;336.1423;314.1598;0.338362;-0.02796248;0;
-9892.119;-9904.203;4208.965;-10004.25;-3.895496;-15.4653;-9882.403;-9896.789;0.01318527;-0.2228364;0;
-12034.96;-12031.96;3287.322;-14176.8;-16.14909;-7.813886;-12002.2;-12023.15;-0.3116647;-0.2226125;0;
-7954.409;-7947.478;2162.52;-8623.295;-17.67311;-6.868273;-7894.979;-7932.896;-0.4412862;-0.1574215;0;
-8274.033;-8269.264;658.2581;-7826.151;-20.26829;-4.851945;-8216.193;-8257.492;-0.2459408;-0.09229595;0;
-4840.55;-4832.818;206.4485;-5205.601;-23.12734;-2.368762;-4776.678;-4821.231;-0.4405957;0.1026988;0;
5196.224;5201.73;1022.206;4595.987;-18.81817;-5.447536;5270.886;5221.849;-0.2452509;-0.09230641;0;
7513.055;7506.53;1773.738;7411.686;-19.4015;-5.576028;7564.872;7527.253;-0.1150698;-0.4170504;0;
3964.535;3952.489;2864.157;4329.097;-18.51135;-1.28364;3991.656;3965.914;0.01498048;0.03814008;0;
4366.941;4354.501;4385.294;4585.319;-17.88953;-0.7464863;4393.535;4368.912;0.3398021;0.03810176;0;
406.0889;387.1956;4761.446;1248.277;-17.53677;-2.68818;423.6451;401.7636;0.3394607;-0.1568386;0;
-9681.171;-9695.548;3941.103;-9542.429;-15.57676;-3.15436;-9672.69;-9689.692;0.4040869;-0.02674628;0;
-11759.32;-11758.01;3039.657;-13345.94;-23.66641;-6.902112;-11726.65;-11751.82;0.07884421;0.1032153;0;
-7694.053;-7688.458;1921.569;-8211.963;-25.91981;-8.703716;-7635.514;-7674.65;-0.2460717;0.2330463;0;
-7934.088;-7931.06;435.7594;-7551.336;-16.51664;-10.3025;-7876.669;-7916.579;0.01404491;0.1678448;0;
-4420.659;-4414.401;-12.266;-4769.861;-15.36097;-12.70347;-4356.192;-4397.67;-0.05093655;0.03774141;0;
5558.722;5563.053;787.6567;4948.377;-17.08685;-9.609554;5633.15;5586.435;0.01408197;0.1026708;0;
7795.853;7787.186;1545.359;7696.599;-17.0033;-9.465933;7845.125;7807.203;0.3389045;-0.09233436;0;
4245.988;4232.176;2658.027;4598.747;-14.03848;-12.47059;4270.348;4244.333;0.07869463;-0.2871436;0;
4673.567;4661.424;4194.896;4900.128;-12.41679;-11.9222;4700.682;4676.848;-0.3111885;-0.4817571;0;
678.8451;661.6236;4578.798;1481.733;-19.16946;-15.19232;699.3271;677.938;0.2088629;-0.6112077;0;
-9447.403;-9460.079;3763.979;-9035.657;-20.08821;-16.31577;-9435.844;-9452.214;0.6634244;-0.09085484;0;
-11445.2;-11442.87;2883.513;-12445.61;-19.9343;-10.33801;-11409.55;-11434.81;0.01308442;0.4289752;0;
-7195.86;-7190.081;1788.352;-7566.941;-21.45451;-9.724779;-7136.668;-7175.954;-0.05189607;0.1037075;0;
-7343.099;-7340.168;295.8667;-7032.837;-14.40036;-6.968768;-7286.497;-7325.024;0.5978295;-0.1562661;0;
-3889.39;-3882.652;-171.3833;-4210.139;-11.90764;-5.287253;-3825.083;-3865.306;0.4023268;-0.09114178;0;
6035.188;6039.78;613.3945;5427.171;-15.57937;-9.434761;6108.066;6063.48;0.01211846;-0.3509196;0;
8185.665;8176.384;1351.063;8094.906;-14.22357;-9.693213;8233.67;8198.904;0.07707363;-0.4805016;0;
4473.895;4459.532;2449.528;4835.766;-12.87011;-11.22408;4498.957;4473.347;0.2718982;-0.2851168;0;
4834.466;4822.742;3985.137;5082.842;-12.18759;-11.88257;4861.221;4836.636;0.3365923;-0.1548956;0;
915.7473;899.2092;4380.557;1666.606;-8.223228;-12.40649;934.7292;914.2456;0.1413521;-0.02480531;0;
-9108.666;-9121.611;3576.839;-8348.223;-7.143239;-12.05911;-9099.073;-9113.789;0.07624274;0.1701217;0;
-11072.52;-11070.82;2688.97;-11378.92;-2.380639;-15.12815;-11038.36;-11063.02;-0.1837032;-0.08991867;0;
-6884.371;-6878.361;1576.17;-7096.146;1.306424;-17.72522;-6824.785;-6865.37;-0.05358397;-0.4796323;0;
-7016.773;-7013.44;88.86449;-6787.151;-10.61761;-3.775328;-6959.73;-7001.149;0.2713066;0.0405883;0;
-3456.494;-3450.603;-370.0879;-3760.927;-14.09054;-1.293227;-3393.417;-3434.857;-0.1187701;0.4303516;0;
6383.738;6387.093;380.688;5758.693;-2.755898;-6.18156;6454.981;6410.491;-0.4434874;-0.02485224;0;
8455.123;8446.325;1104.816;8371.013;-3.288993;-4.969656;8503.556;8467.075;-0.1182051;-0.2197293;0;
4932.612;4919.044;2230.577;5272.187;-2.950895;-15.34677;4958.664;4932.59;0.01184833;-0.1545412;0;
5477.567;5464.887;3771.498;5727.548;-1.742481;-18.41251;5503.062;5478.825;-0.1830656;-0.2843206;0;
1509.914;1492.062;4151.921;2213.229;-12.12321;-18.26004;1526.341;1505.283;0.01202037;-0.5439042;0;
-8666.676;-8680.2;3328.63;-7658.41;-13.31647;-19.98319;-8659.448;-8673.973;0.07697564;-0.6083251;0;
-10684.82;-10682.9;2423.457;-10405.86;-18.19224;-19.56121;-10654.41;-10676.43;-0.05303639;-0.2828771;0;
-6482.195;-6476.123;1304.458;-6527.787;-21.05435;-20.21138;-6426.576;-6461.897;0.07695159;-0.02272351;0;
-6628.932;-6625.928;-196.3797;-6468.082;-10.45062;-15.23446;-6573.433;-6611.201;0.3367436;0.1722014;0;
-3097.309;-3091.044;-680.7826;-3367.982;-8.161967;-14.68329;-3034.697;-3076.05;0.4663399;-0.02287371;0;
6823.333;6827.203;68.21284;6181.354;-5.005934;-8.640255;6894.238;6849.272;-0.05386736;0.107084;0;
8970.988;8961.923;792.0616;8888.201;-1.71935;-6.153265;9018.864;8982.564;-0.37865;0.6267151;0;
5323.022;5309.343;1886.09;5671.102;2.368214;-12.4433;5348.455;5322.061;0.4013386;0.6260854;0;
5844.19;5832.149;3414.145;6094.266;6.251576;-12.43079;5869.566;5845.667;0.4659027;0.4305543;0;
2031.856;2015.08;3813.106;2711.746;3.43128;-20.38909;2048.821;2028.271;0.2705325;0.300187;0;
-8129.391;-8142.372;2999.119;-7059.959;5.102771;-23.6507;-8119.534;-8136.643;0.5950974;0.3648527;0;
-10182.17;-10181.57;2084.158;-9719.088;2.95419;-23.42599;-10149.09;-10174.41;0.2046954;0.2995187;0;
-5915.798;-5911.697;956.3171;-5913.089;2.080566;-26.34964;-5861.257;-5897.204;-0.1853143;0.1692831;0;
-6005.041;-6004.066;-542.4847;-5881.255;8.174044;-20.49577;-5952.49;-5989.745;0.1397086;0.1041456;0;
-2462.659;-2458.75;-1023.479;-2729.13;9.102859;-20.20724;-2401.182;-2443.084;0.1395682;-0.09086104;0;
7407.699;7410.183;-272.6398;6758.735;11.17079;-17.64165;7478.766;7433.298;-0.1204414;0.1041323;0;
9527.593;9517.58;454.4875;9437.766;13.50409;-14.27484;9573.851;9539.017;0.07458165;0.2339623;0;
5959.964;5944.652;1570.189;6297.466;9.739481;-24.10674;5981.875;5958.258;0.4643108;-0.02614212;0;
6458.94;6444.956;3124.329;6709.506;9.997138;-24.88631;6481.579;6459.704;0.3339095;-0.0910832;0;
2492.784;2473.566;3517.959;3186.375;13.13492;-20.37357;2506.483;2487.519;0.5284761;-0.2209264;0;
-7657.245;-7673.304;2708.735;-6594.583;13.85866;-20.48707;-7652.212;-7668.47;0.2680756;-0.2207044;0;
-9614.595;-9615.817;1825.081;-9159.289;14.51432;-14.50512;-9583.907;-9610.066;-0.5118018;-0.09054793;0;
-5423.816;-5420.462;698.2192;-5416.682;14.43336;-12.5481;-5368.922;-5406.971;0.008451191;-0.2203916;0;
-5594.731;-5594.488;-807.757;-5473.208;16.56231;-10.25814;-5542.032;-5580.917;0.5931487;-0.2851375;0;
-2028.712;-2025.439;-1272.867;-2304.829;16.27725;-6.630813;-1969.038;-2009.82;0.1377814;-0.08994898;0;
7891.576;7892.596;-513.4383;7228.571;16.05983;-14.26002;7960.794;7915.946;0.0726756;0.2349781;0;
10069.05;10057.32;221.2086;9964.476;16.11104;-14.64759;10115.15;10079.74;0.527374;0.1697747;0;
6467.673;6451.244;1339.299;6803.641;9.128626;-8.939445;6489.05;6465.802;0.2020074;-0.1552326;0;
6977.446;6963.626;2878.242;7220.186;7.310792;-8.126729;6999.426;6976.951;-0.05806499;-0.220044;0;
3125.384;3106.939;3262.593;3799.459;1.744717;-4.769477;3139.095;3118.783;0.2018627;-0.02492088;0;
-7109.286;-7125.884;2437.509;-6048.551;-2.946085;-3.02319;-7104.021;-7120.175;0.3965619;-0.1548305;0;
-9219.891;-9222.573;1517.989;-8755.595;8.242659;-0.4748615;-9189.456;-9212.621;0.3311961;-0.08970761;0;
-5008.083;-5006.545;363.762;-4996.4;9.439825;2.137889;-4953.628;-4987.358;-0.1888754;0.3651539;0;
-5127.441;-5128.186;-1156.152;-5002.031;1.660808;-1.548198;-5074.182;-5110.423;-0.3186203;0.1049177;0;
-1549.241;-1545.347;-1636.842;-1820.742;0.3199686;-1.680609;-1488.523;-1527.805;-0.05843081;-0.2200245;0;
8369.097;8370.129;-884.1374;7717.466;-0.3509143;0.4644729;8439.748;8396.414;-0.1883068;0.1050333;0;
10570.83;10558.05;-140.9659;10479.04;-2.69411;-0.6077207;10618.67;10584.22;-0.05818288;0.2348625;0;
7024.981;7008.097;987.0776;7363.522;-1.151162;3.746719;7048.944;7025.521;0.2667123;0.1696591;0;
7537.755;7523.074;2530.622;7778.708;-0.8825614;4.54675;7563.318;7541.512;-0.3182618;0.03955397;0;
3679.445;3659.984;2915.478;4354.203;-11.79904;-2.423922;3696.455;3679.372;-0.2529747;-0.09042046;0;
-6525.515;-6542.738;2082.966;-5453.885;-14.80129;-4.229964;-6516.831;-6530.679;0.2670183;0.1695398;0;
-8641.859;-8645.37;1144;-8166.007;-10.70058;-4.024765;-8606.65;-8631.479;-0.1880214;0.2343368;0;
-4453.277;-4451.662;-30.21627;-4444.419;-11.15932;-4.22167;-4395.131;-4430.586;-0.3827345;0.1041666;0;
-4594.417;-4595.411;-1553.202;-4467.72;-9.205726;-8.906111;-4540.092;-4575.372;0.07242145;0.1690293;0;
-1012.193;-1009.437;-2012.94;-1278.816;-8.860707;-9.767941;-949.9423;-988.2002;-0.057586;0.1038921;0;
9000.448;9001.53;-1235.62;8338.479;-1.551763;-5.47134;9072.412;9030.772;-0.5122995;-0.09111432;0;
11231.93;11219.87;-490.5335;11130.82;2.736704;-4.862996;11280.4;11248.05;-0.3818501;-0.2209575;0;
7658.783;7641.229;640.5786;7994.173;-5.705163;2.241898;7683.556;7660.544;-0.2515317;-0.1557681;0;
8287.143;8271.324;2201.275;8519.123;-5.49836;4.985946;8312.266;8291.244;-0.446181;-0.09064423;0;
4491.157;4471.138;2576.748;5157.998;-3.081937;5.248868;4507.416;4491.351;-0.120896;-0.1555205;0;
-5825.813;-5843.704;1711.874;-4757.704;-3.480982;6.717096;-5818.722;-5831.695;0.1390949;0.1694725;0;
-7962.007;-7965.372;775.936;-7485.05;1.278914;6.509398;-7928.359;-7950.689;0.009020424;0.1693022;0;
-3678.328;-3676.458;-372.2045;-3666.101;2.148285;8.110448;-3618.571;-3653.012;0.138946;-0.220672;0;
-3766.461;-3769.262;-1890.692;-3642.817;3.016782;-3.284556;-3710.652;-3747.542;0.2687411;-0.09051555;0;
-175.9636;-175.3415;-2347.499;-445.1688;4.352921;-7.099161;-114.3233;-153.316;0.2035037;0.2344121;0;
9778.257;9777.363;-1571.404;9120.643;0.3974089;-1.532566;9849.346;9807.581;0.07336458;0.1692092;0;
11989.6;11975.52;-832.9146;11888.99;0.0612409;-4.344249;12036.5;12004.68;-0.2515458;0.1040719;0;
8433.081;8413.961;294.9809;8764.075;-2.952931;2.157278;8458.105;8436.062;-0.5111625;0.03899994;0;
8924.355;8906.442;1840.532;9159.191;-6.097795;2.423042;8951.573;8930.02;-0.3157468;0.1039281;0;
5066.854;5045.273;2231.454;5741.451;4.15611;-0.9284172;5084.112;5067.858;0.009407153;0.2337584;0;
-5121.884;-5140.601;1416.87;-4050.367;6.496459;0.01021572;-5112.936;-5126.971;0.1393324;0.03862145;0;
-7258.333;-7263.834;502.562;-6780.361;-4.09264;-13.05116;-7223.938;-7249.203;0.2041597;-0.0263847;0;
-3087.944;-3088.458;-638.1824;-3072.33;-5.361325;-16.52104;-3030.752;-3067.314;-0.05591478;-0.09132553;0;
-3185.322;-3188.194;-2130.666;-3062.356;-3.748348;-15.36579;-3131.264;-3169.586;0.009108742;-0.3511031;0;
379.2131;379.9675;-2568.835;106.4579;-4.548865;-17.82866;438.5736;399.947;-0.1858024;0.1040211;0;
10265.74;10264.07;-1772.153;9606.342;-2.40084;-10.64375;10334.36;10293.57;-0.5104524;0.1039165;0;
12475.59;12460.8;-1009.255;12369.83;-1.928937;-8.757534;12522.31;12488.78;0.009799189;-0.4159266;0;
8850.493;8830.695;120.9733;9182.773;-1.659555;-9.016666;8873.243;8851.144;0.2046914;-0.02570465;0;
9360.62;9342.498;1697.059;9596.179;-1.389468;-7.46706;9385.503;9365.83;-0.120351;0.2991579;0;
5591.573;5570.283;2134.134;6264.144;1.090175;-3.105789;5609.185;5591.468;-0.05526274;0.3638246;0;
-4786.582;-4805.148;1327.987;-3699.708;2.495599;-0.8252482;-4779.639;-4795.12;0.3995642;0.168557;0;
-7036.498;-7041.74;440.4732;-6550.853;-1.861166;-3.235805;-7004.31;-7029.145;0.1392933;-0.2214164;0;
-2674.835;-2675.606;-643.2686;-2675.355;-2.662602;-2.093843;-2616.348;-2653.231;-0.315618;-0.09125922;0;
-2699.009;-2703.23;-2103.138;-2583.603;0.153112;-8.053099;-2642.861;-2682.112;-0.1853662;0.1037345;0;
825.8545;825.776;-2541.21;555.3544;0.8225434;-10.38935;887.8335;848.076;-0.1202126;-0.1562391;0;
10745.88;10743.76;-1751.583;10083.74;-1.455459;-3.546772;10818.26;10776.48;0.009842861;0.03881992;0;
12964.78;12948.75;-979.2731;12858.21;-1.252925;-2.739474;13016.09;12980.85;-0.1201017;-0.02618643;0;
9405.563;9384.185;179.7538;9734.54;0.2885749;-5.081063;9433.778;9408.35;-0.2499157;-0.2860295;0;
9998.809;9979.327;1779.144;10231.19;0.6904265;-5.075957;10026.59;10004.22;0.01020477;0.2339967;0;
6260.574;6238.112;2231.191;6929.972;3.570121;-2.324618;6278.769;6259.354;0.2700639;0.2987289;0;
-4014.29;-4034.589;1448.622;-2938.394;4.102397;-1.451504;-4005.686;-4023.613;0.1398578;-0.09137534;0;
-6281.255;-6289.165;563.0799;-5795.441;9.389561;-2.521772;-6247.548;-6275.296;-0.3800214;0.1036185;0;
-2103.962;-2107.195;-549.1771;-2088.744;12.46159;-2.385273;-2044.021;-2082.267;-0.4446069;-0.156355;0;
-2185.104;-2190.331;-2025.602;-2059.752;3.205663;-2.315893;-2128.174;-2165.303;-0.1842908;-0.4160672;0;
1379.427;1378.983;-2462.283;1114.161;2.063366;-2.045634;1441.391;1402.283;-0.1841056;-0.02584512;0;
11205.94;11202.13;-1679.67;10556.73;2.597156;-6.129416;11279.09;11233.81;-0.05398596;-0.09078649;0;
13282.42;13264.33;-927.5157;13186.11;-0.2858418;-8.668548;13332.53;13295.2;0.2059377;0.1691741;0;
9614.438;9591.466;198.0072;9951.448;9.427337;-1.425863;9639.734;9613.337;0.3356654;0.2339715;0;
10096.5;10075.49;1771.798;10339.75;11.96248;-0.6206964;10123.36;10098.93;-0.05447592;-0.5458717;0;
6330.023;6306.002;2226.476;7003.734;-0.03862736;-6.78232;6348.021;6328.452;-0.1843559;-0.5453233;0;
-4013.156;-4035.171;1440.976;-2927.658;-2.383113;-7.914215;-4005.157;-4021.364;0.1406661;-0.1549713;0;
-6358.756;-6367.691;569.4658;-5862.021;1.101906;-10.18362;-6325.995;-6352.836;-0.1193446;-0.08984821;0;
-2070.847;-2074.229;-488.9185;-2060.758;0.09642066;-12.38376;-2013.74;-2051.612;0.2705793;0.04017676;0;
-2126.971;-2133.177;-1940.166;-2007.572;2.508197;-10.02698;-2073.139;-2110.504;0.3352748;0.1700711;0;
1255.701;1253.453;-2386.897;991.0324;5.251367;-9.68199;1314.914;1275.056;-0.7045395;-0.02500184;0;
11026.22;11021.19;-1594.49;10378.13;-7.882076;-14.22698;11094.61;11050.42;-0.7687989;-0.2198787;0;
13118.89;13100.72;-813.7794;13033.99;-12.49586;-14.34665;13165.04;13130.55;-0.2482877;-0.2846251;0;
9344.693;9322.043;335.7421;9698.029;6.740435;-14.4662;9367.843;9343.909;-0.3130056;0.2353996;0;
9769.555;9747.957;1925.793;10018.18;9.078187;-15.12149;9793.462;9770.021;-0.1177891;0.4300651;0;
6034.423;6009.568;2403.242;6707.056;7.728919;-6.331717;6047.874;6028.954;0.2721334;0.1697636;0;
-4252.191;-4274.742;1654.109;-3171.721;11.60592;-3.579116;-4250.342;-4264.449;0.5966966;0.2345604;0;
-6634.267;-6644.034;786.6943;-6137.277;-5.217605;-3.977417;-6606.104;-6629.957;0.5311297;0.10439;0;
-2499.863;-2504.202;-296.6146;-2481.554;-9.700341;-1.562096;-2444.804;-2480.424;0.4006613;-0.2205516;0;
-2517.591;-2524.112;-1737.03;-2397.96;0.4234627;-4.842629;-2465.602;-2502.592;0.2053567;-0.2852974;0;
1000.531;998.827;-2158.447;738.8111;0.1555935;-4.703798;1058.824;1017.905;-0.1196863;-0.2200434;0;
10739.75;10735.71;-1366.331;10102.94;-1.18471;-1.617917;10807.5;10763.2;-0.05459873;-0.02492023;0;
12831.5;12813.5;-589.1921;12746.11;-0.8487265;0.1252036;12875.28;12841.9;0.1403582;-0.2197972;0;
9140.394;9118.349;567.9749;9484.843;-1.115317;-3.558861;9161.145;9137.913;0.1402171;-0.02467434;0;
9592.978;9572.984;2167.225;9837.067;-1.583687;-3.957183;9615.581;9593.186;0.01014155;0.4301219;0;
5876.92;5852.855;2652.021;6547.66;3.441746;3.280767;5891.474;5872.224;0.07509871;0.494657;0;
-4451.078;-4472.729;1907.636;-3368.219;5.44802;4.148248;-4446.253;-4463.531;0.4648273;0.5591273;0;
-6892.079;-6900.574;1056.302;-6396.28;0.2176327;8.162934;-6862.412;-6889.324;0.3993929;0.2337288;0;
-2711.346;-2715.053;-0.9159422;-2697.943;0.6869046;9.159476;-2654.051;-2692.789;-0.2506818;0.3634286;0;
-2795.5;-2801.39;-1439.13;-2665.856;-3.132179;7.743631;-2739.527;-2778.96;-0.5102993;0.4929982;0;
612.4415;612.226;-1861.814;359.7715;-5.071414;7.668867;673.371;633.3055;-0.3148845;-0.02723597;0;
10411.71;10409.64;-1055.473;9767.228;2.703213;-0.845427;10482.45;10437.52;0.01026857;-0.2221106;0;
12493.23;12476.73;-275.6474;12406.05;3.772224;-3.858748;12539.82;12503.27;0.4000623;0.1029493;0;
8700.702;8679.126;889.3254;9053.796;4.63909;-8.342606;8722.223;8697.49;0.2697256;-0.1570235;0;
9119.526;9100.096;2499.622;9373.908;6.443089;-11.61633;9143.461;9118.91;-0.5101535;-0.3517678;0;
5350.003;5327.093;2976.057;6034.069;3.824647;-9.729193;5365.637;5344.796;-0.2497715;-0.09154498;0;
-4985.29;-5006.13;2233.095;-3896.365;4.155597;-9.853382;-4980.182;-4996.145;0.4651202;-0.02648565;0;
-7430.986;-7438.859;1373.844;-6928.58;3.548209;-7.231208;-7400.24;-7427.025;0.2047835;-0.1563937;0;
-3366.933;-3369.504;281.3873;-3342.323;2.875058;-5.080549;-3311.559;-3350.718;-0.3801284;-0.09126923;0;
-3403.14;-3407.864;-1171.447;-3283.43;4.212316;-1.52541;-3350.367;-3390.36;-0.3797464;-0.09117753;0;
81.23309;81.09002;-1626.759;-185.7803;3.805942;0.8874472;140.0439;99.16908;-0.05452812;-0.1560533;0;
9723.789;9721.522;-882.1539;9083.794;4.13691;7.048802;9790.708;9745.908;0.205396;-0.1558965;0;
11748.78;11732.61;-124.7103;11666.61;3.730612;9.988969;11793.14;11754.6;0.3351243;-0.3506418;0;
7999.694;7979.08;1026.586;8355.05;1.449688;7.969444;8021.274;7993.237;0.07491823;-0.4802242;0;
8353.817;8335.941;2616.349;8610.771;-0.5615008;8.29635;8376.938;8351.209;-0.05509172;0.1049644;0;
4568.541;4546.747;3085.608;5249.196;0.3770684;5.139938;4583.392;4562.124;0.2698003;0.299761;0;
-5776.898;-5797.015;2320.453;-4687.462;-0.8961082;3.259252;-5771.761;-5789.478;-0.05530747;-0.220279;0;
-8313.972;-8320.435;1431.286;-7806.072;-4.377832;-1.030809;-8284.664;-8311.608;-0.3800886;-0.3499923;0;
-4237.444;-4238.059;318.9062;-4214.655;-4.841948;-4.512825;-4183.443;-4221.012;-0.249772;-0.1547386;0;
-4285.098;-4288.539;-1156.392;-4161.585;-12.54024;-5.044153;-4233.307;-4272.29;-0.1195863;-0.02464844;0;
-899.5074;-898.666;-1621.558;-1157.271;-14.26895;-7.651358;-841.1933;-881.6367;0.07543584;-0.02462367;0;
8837.877;8838.28;-863.4337;8190.506;-11.44158;-6.03608;8907.049;8863.289;-0.2494767;0.04036841;0;
10915.45;10901.83;-114.0361;10826.88;-11.49743;-5.226281;10960.78;10925.47;-0.3141933;-0.02463949;0;
7044.483;7024.285;1010.326;7402.393;-4.787096;-12.12009;7063.565;7038.468;-0.1189756;-0.08958208;0;
7428.396;7410.654;2582.301;7675.673;-3.040973;-12.84472;7450.27;7425.042;-0.1838234;0.04044262;0;
3722.275;3701.256;3021.984;4388.25;4.664266;-9.549713;3736.428;3716.067;-0.248606;-0.02456536;0;
-6610.117;-6628.928;2227.845;-5533.502;8.276901;-9.808049;-6607.223;-6623.487;-0.3782909;-0.08950802;0;
-9154.583;-9160.414;1314.346;-8657.947;3.244743;-0.5547323;-9127.127;-9153.416;-0.5728129;0.2354186;0;
-5166.9;-5167.212;175.7222;-5147.992;3.643624;3.196747;-5115.217;-5151.257;-0.05249853;0.4300841;0;
-5132.708;-5134.049;-1289.999;-5023.301;-4.665432;-0.7583358;-5081.545;-5119.767;0.4672929;0.1048153;0;
-1533.404;-1531.059;-1734.635;-1809.882;-9.216072;1.452802;-1473.25;-1515.853;0.07701936;-0.02522476;0;
8161.093;8160.094;-983.6435;7513.438;-2.77645;-2.031709;8228.464;8183.827;-0.1829274;0.03976793;0;
10207.61;10193.31;-224.2239;10117.11;-1.367141;-2.565531;10249.68;10214.67;0.07712577;-0.2201414;0;
6436.931;6418.362;924.1743;6789.641;-17.17325;2.259696;6455.591;6429.931;0.4668523;-0.08998551;0;
6786.347;6770.857;2506.2;7036.097;-21.24183;2.927254;6807.799;6783.82;0.2065139;0.2349416;0;
3063.599;3044.892;2968.573;3724.767;-8.82828;4.464921;3077.924;3058.873;-0.1185303;0.1047709;0;
-7217.766;-7233.237;2201.131;-6148.078;-9.556344;4.862332;-7213.966;-7228.906;0.3363602;-0.09023644;0;
-9717.691;-9718.731;1312.74;-9220.712;1.772764;7.536641;-9690.313;-9714.562;0.3360222;-0.2850478;0;
-5717.636;-5714.333;194.8567;-5692.794;5.723098;8.198897;-5664.642;-5701.594;0.01084782;-0.02489201;0;
-5767.097;-5766.937;-1276.912;-5650.732;-2.052185;4.171805;-5714.953;-5754.007;0.1407716;0.1050677;0;
-2154.881;-2150.66;-1704.007;-2435.48;-0.2424377;2.02416;-2096.635;-2136.26;0.07566281;-0.1549073;0;
7679.858;7681.497;-912.0048;7021.714;-13.23664;2.557989;7746.899;7703.848;0.2704888;-0.08978426;0;
9734.292;9722.499;-162.6521;9638.371;-16.03638;1.349787;9779.652;9744.202;0.4001517;-0.08969405;0;
5949.846;5934.223;961.3839;6293.519;-17.22571;-5.751577;5972.047;5949.095;-0.3148911;0.04033076;0;
6440.961;6427.134;2547.526;6678.795;-20.42359;-7.755285;6462.172;6442.054;-0.2496074;0.365127;0;
2838.313;2818.705;3013.262;3492.886;-8.078204;-12.70411;2850.6;2832.393;0.2054148;0.2348254;0;
-7359.696;-7377.3;2250.648;-6300.031;-6.261426;-15.9064;-7355.792;-7371.451;0.2052084;-0.09024728;0;
-9804.146;-9807.459;1352.93;-9317.571;0.7101144;-5.709257;-9777.414;-9801.631;0.1400349;0.03977808;0;
-5825.119;-5822.634;200.5243;-5808.953;4.996309;-2.756393;-5774.706;-5810.003;-0.5097792;0.1696728;0;
-5809.083;-5808.959;-1287.148;-5703.947;1.240244;-6.035666;-5758.112;-5795.794;-0.5742344;-0.2852691;0;
-2082.445;-2078.885;-1723.885;-2372.684;2.378074;-4.087157;-2023.81;-2064.203;0.07601605;-0.4798844;0;
7810.52;7812.233;-961.3163;7137.046;-3.451465;-0.06419586;7877.388;7834.975;-0.1839297;0.04033646;0;
9998.443;9987.317;-213.4445;9882.429;-6.060941;1.476476;10042.47;10009.35;0.01115715;0.1052633;0;
6350.506;6334.363;922.699;6680.837;-7.2603;6.498529;6371.13;6349.126;0.07611328;0.04019016;0;
6822.385;6808.663;2478.302;7050.732;-9.061666;8.568471;6843.52;6823.817;-0.3137673;0.3000191;0;
3266.72;3249.358;2908.563;3902.664;-17.22423;6.684339;3278.916;3261.311;0.2712541;0.4296524;0;
-6839.546;-6855.049;2116.037;-5802.584;-22.36449;7.950298;-6837.28;-6852.587;0.4009162;0.1693513;0;
-9275.759;-9278.033;1191.531;-8813.081;-9.079155;1.110234;-9249.444;-9273.106;-0.1192254;-0.415525;0;
-5148.633;-5145.064;43.37902;-5161.776;-7.32872;-0.967292;-5097.889;-5131.101;-0.1840729;-0.2202054;0;
-5016.055;-5014.614;-1464.5;-4931.874;-14.08651;0.3732776;-4966.642;-5000.492;0.1409488;0.1048526;0;
-1285.513;-1280.668;-1945.005;-1591.938;-13.87128;-2.172388;-1228.981;-1265.749;0.1408072;-0.09015483;0;
8724.404;8726.901;-1204.703;8034.761;-15.26387;3.322273;8789.922;8749.786;0.205633;0.1048378;0;
10951.79;10941.01;-502.1579;10823.66;-15.4496;2.314191;10993.54;10962.88;0.01052436;-0.02520224;0;
7225.939;7209.86;578.7098;7542.175;-17.51018;3.919456;7243.342;7223.892;-0.3792903;-0.02517691;0;
7779.459;7765.864;2124.788;7989.773;-18.49794;5.054228;7799.687;7780.538;0.2707643;0.2996851;0;
4347.145;4330.534;2554.78;4966.558;-14.59459;-7.007535;4360.73;4343.756;0.6602963;0.4293187;0;
-5745.542;-5760.31;1745.556;-4718.411;-13.17243;-8.808971;-5742.419;-5755.566;0.3347961;0.4938546;0;
-8127.194;-8129.594;814.644;-7669.106;-12.22216;-14.56053;-8101.148;-8123.199;0.399427;0.1685217;0;
-4007.313;-4005.463;-334.7222;-4019.465;-9.396843;-17.29214;-3957.79;-3990.938;-0.1856804;0.2333197;0;
-3895.169;-3895.976;-1836.193;-3819.571;-10.12336;-11.58134;-3848.116;-3883.23;-0.5752979;0.8177913;0;
-52.21655;-48.52431;-2309.453;-383.4587;-8.439224;-11.23479;1.692611;-36.35356;-0.2498831;0.4921329;0;
9947.935;9949.03;-1573.72;9241.433;-2.603595;-1.980096;10010.43;9970.31;-0.1846647;0.1018344;0;
12088.98;12075.55;-857.2171;11955.53;-0.9933885;1.772877;12126.58;12096.53;-0.3144138;-0.02820266;0;
8370.636;8352.098;238.6251;8681.936;8.653152;6.05782;8384.863;8364.683;-0.4440326;-0.158109;0;
8868.783;8852.794;1777.174;9078.602;13.46723;10.27166;8885.026;8863.272;-0.5085537;0.03695188;0;
5352.197;5332.726;2207.609;5973.317;5.951608;6.912191;5358.523;5339.509;-0.05327137;-0.287922;0;
-4732.989;-4750.958;1406.73;-3707.728;6.950982;8.177921;-4737.071;-4750.553;0.1416842;-0.6774366;0;
-7142.786;-7148.086;491.6504;-6684.66;4.331053;3.815935;-7120.876;-7144.527;0.2714765;-0.02708259;0;
-3090.064;-3089.658;-628.812;-3105.068;2.51804;2.271493;-3044.204;-3079.544;0.2712037;0.1678467;0;
-3064.657;-3066.408;-2117.213;-2988.052;7.740423;-0.3430623;-3024.388;-3058.974;-0.2488075;-0.09219137;0;
632.3776;634.7363;-2584.912;314.3235;6.861989;-4.160623;677.9633;642.1312;-0.5084269;-0.02713139;0;
10601.7;10601.98;-1824.883;9897.753;11.67787;4.350207;10658.03;10618.31;-0.4429487;0.03786321;0;
12757.11;12743.93;-1097.539;12615.87;13.40744;4.479802;12791.18;12758.35;-0.3125689;-0.1570769;0;
8887.703;8869.661;-9.638503;9201.907;5.289647;-0.749246;8896.249;8875.19;-0.2472875;0.1679177;0;
9266.797;9250.74;1543.903;9479.454;3.676741;-1.954186;9273.772;9256.232;-0.1171043;0.4925857;0;
5774.455;5755.697;2004.401;6391.648;2.466622;-5.368291;5774.333;5758.498;0.20785;0.03731932;0;
-4381.901;-4397.813;1224.09;-3348.163;0.05324592;-7.171375;-4390.457;-4405.276;0.2726085;-0.1576202;0;
-6925.468;-6929.386;325.3113;-6455.735;4.005307;-11.18302;-6911.979;-6937.043;-0.1174694;-0.09249449;0;
-2941.165;-2940.503;-778.3359;-2951.6;6.278459;-12.91334;-2904.45;-2938.72;-0.1173514;0.1025005;0;
-3059.445;-3060.064;-2258.747;-2970.592;-4.847261;-15.98146;-3024.97;-3058.409;0.2076032;0.2972995;0;
522.252;526.584;-2718.058;213.669;-6.516354;-17.90791;562.0338;526.614;0.01249259;-0.02783593;0;
10463.23;10464.65;-1937.311;9767.168;2.465175;-11.66062;10512.4;10473.08;-0.05248731;0.03715939;0;
12522.89;12509.64;-1206.387;12397.75;2.462698;-10.17534;12549.69;12516.75;0.1424675;-0.15778;0;
8621.985;8603.586;-128.7476;8940.707;14.38294;-7.418879;8624.138;8601.57;-0.4423818;-0.2875561;0;
8969.736;8954.167;1422.633;9183.659;18.85647;-3.928373;8972.824;8953.84;-0.5069046;0.1025369;0;
5327.643;5309.185;1882.128;5961.234;14.01475;-7.541443;5322.763;5306.953;0.3381802;-0.02750085;0;
-4894.637;-4911.203;1109.094;-3845.33;17.21585;-7.19895;-4909.616;-4924.021;0.077971;-0.1574079;0;
-7497.236;-7501.073;201.8721;-7016.636;4.137732;-0.4935456;-7488.15;-7513.207;-0.7666828;0.03765229;0;
-3655.552;-3654.075;-932.9792;-3646.776;0.6499738;1.248446;-3622.503;-3657.701;-0.4410757;0.1675491;0;
-3882.498;-3883.412;-2434.162;-3767.502;7.213404;-0.561287;-3852.167;-3887.268;0.07910622;-0.2224233;0;
-367.4394;-363.7924;-2902.948;-658.4022;5.130051;-0.3598353;-330.2213;-367.8482;-0.05090795;-0.6769711;0;
9566.999;9568.909;-2123.327;8871.22;12.02377;-0.02455903;9614.347;9573.774;-0.3756935;-0.2864869;0;
11613.04;11601.11;-1392.404;11487.36;12.68128;0.3773632;11636.63;11605.41;-0.5052507;-0.091297;0;
7620.685;7604.176;-323.7601;7950.528;13.2044;-4.177733;7619.673;7598.507;-0.1799063;0.2336315;0;
7900.57;7886.546;1217.853;8127.759;14.73235;-5.848048;7901.152;7880.632;-0.1147582;0.4932661;0;
4248.838;4231.205;1652.504;4887.404;6.211078;-2.761079;4241.205;4223.173;-0.3745123;0.2978684;0;
-6019.568;-6034.998;830.2559;-4969.664;4.529897;-3.160141;-6037.392;-6050.658;-0.1792339;0.03769973;0;
-8667.451;-8669.653;-94.23903;-8180.663;0.9753723;-2.018317;-8661.754;-8681.019;0.01584821;-0.09227283;0;
-4793.654;-4790.091;-1217.174;-4780.726;-1.370132;-1.413442;-4762.24;-4794.683;0.01583229;-0.2870821;0;
-4999.965;-4998.749;-2725.473;-4893.504;-0.6991704;-2.215817;-4969.583;-5005.819;0.01581638;-0.156859;0;
-1478.553;-1473.448;-3190.406;-1782.461;-1.836568;-1.74471;-1442.032;-1479.371;-0.1141342;0.1681353;0;
8479.288;8482.294;-2405.405;7775.871;4.595639;-3.551435;8526.642;8484.842;0.08088251;0.03803169;0;
10554.03;10543.57;-1692.814;10425.22;7.605132;-4.083731;10577.13;10544.43;0.0158339;-0.2218759;0;
6571.831;6557.135;-649.2932;6902.777;4.717102;-4.414542;6568.858;6547.654;-0.1141167;-0.2866203;0;
6822.254;6810.197;868.0344;7045.875;5.71674;-6.218584;6821.346;6800.757;0.08089999;-0.4812343;0;
3246.631;3230.869;1313.563;3872.653;11.20335;-1.121755;3238.164;3222.687;-0.1140833;-0.2208814;0;
-6849.527;-6862.681;528.918;-5810.826;12.19745;-0.1829277;-6866.684;-6878.538;-0.1139687;0.1041773;0;
-9414.648;-9414.124;-385.373;-8943.301;13.99288;-5.87611;-9408.081;-9429.169;0.2759499;-0.09082945;0;
-5510.568;-5505.25;-1504.767;-5518.5;14.64938;-5.669257;-5481.706;-5512.814;0.1457379;-0.02577084;0;
-5655.331;-5653.032;-2997.566;-5564.008;8.941233;-11.55794;-5628.106;-5662.463;-0.04931054;-0.02574495;0;
-2092.545;-2086.735;-3452.667;-2404.721;7.056238;-13.42178;-2057.696;-2096.11;-0.244163;-0.09068643;0;
7944.029;7947.991;-2636.138;7231.369;1.958933;-7.848897;7987.62;7947.309;-0.308885;0.1692741;0;
10130.29;10122.03;-1879.368;9988.416;-1.391938;-7.573079;10150.19;10120.1;0.01626205;0.169104;0;
6160.724;6147.792;-800.7088;6482.481;0.01598023;-1.269196;6157.275;6136.711;-0.2436237;-0.22087;0;
6496.331;6485.504;766.8707;6707.023;-0.5198993;1.74625;6494.916;6474.779;-0.1784115;-0.6104521;0;
3095.993;3081.165;1259.196;3702.166;-3.600836;0.6057857;3086.662;3069.918;0.4064738;-0.4149367;0;
-7029.467;-7042.547;495.2204;-6000.617;-3.93201;2.480638;-7049.44;-7062.762;0.4060654;0.1701863;0;
-9655.705;-9654.92;-391.7066;-9190.637;-1.11502;0.7366503;-9652.889;-9674.974;0.2757227;0.2349827;0;
-5625.524;-5618.383;-1468.928;-5646.882;-1.516042;0.6019442;-5597.785;-5631.702;0.145511;-0.1550575;0;
-5735.142;-5730.179;-2932.746;-5650.188;10.94406;0.4673735;-5709.445;-5744.53;0.2752994;-0.1549017;0;
-2187.003;-2179;-3351.369;-2505.791;16.22533;-0.8057108;-2154.977;-2191.775;0.3399902;-0.08977873;0;
8007.196;8012.474;-2488.121;7276.889;5.023242;0.7356452;8049.795;8009.41;0.01481183;-0.2196232;0;
10302.37;10293.9;-1708.387;10149.52;5.41936;0.3999914;10321.28;10290.93;-0.0501704;-0.1544352;0;
6399.816;6386.356;-601.6006;6713.138;3.806324;-4.021162;6393.846;6375.115;-0.245022;-0.2842147;0;
6783.689;6772.992;995.7638;6986.97;1.726394;-5.892583;6779.599;6761.949;-0.3097432;-0.4788311;0;
3259.531;3244.269;1476.552;3873.901;7.418087;-3.408354;3246.887;3231.582;0.08037212;-0.4133826;0;
-6859.659;-6873.547;696.8973;-5825.774;7.276911;-3.270964;-6883.956;-6895.951;0.01532403;-0.2830326;0;
-9367.643;-9366.962;-198.6031;-8906.509;8.4077;-7.95636;-9368.88;-9388.891;-0.114626;-0.08784619;0;
-5420.865;-5414.579;-1305.41;-5440.454;9.136186;-9.087075;-5397.255;-5428.63;-0.2444456;-0.2176926;0;
-5544.494;-5540.494;-2784.073;-5467.58;7.251971;-7.269466;-5522.047;-5556.545;-0.3091673;-0.4773432;0;
-1919.789;-1911.545;-3208.404;-2249.358;7.914269;-7.798026;-1890.993;-1927.206;0.01598008;-0.3469289;0;
8195.774;8201.246;-2366.196;7469.222;1.342234;-4.909985;8232.726;8195.347;0.1458987;-0.3465803;0;
10469.55;10460.99;-1586.709;10309.41;-1.874295;-3.766342;10482.85;10453.44;0.01581742;-0.4761667;0;
6554.679;6540.757;-471.6432;6855.798;6.634054;-7.312592;6543.01;6522.377;-0.1791005;-0.1508516;0;
6819.832;6807.891;1117.688;7022.291;7.096879;-8.242944;6807.955;6789.499;-0.2438879;0.1091694;0;
3305.898;3289.284;1585.267;3908.843;1.998557;-3.880893;3287.224;3272.128;0.01622655;0.2389944;0;
-6822.522;-6837.479;786.8248;-5801.706;0.5226803;-2.135498;-6850.422;-6862.161;-0.1137244;0.3037215;0;
-9433.96;-9434.315;-117.9489;-8978.62;1.996024;-10.57296;-9439.53;-9458.957;-0.1785775;0.1734817;0;
-5414.106;-5408.729;-1215.966;-5447.587;2.463509;-12.37087;-5395.699;-5426.756;0.1464386;0.3032421;0;
-5514.097;-5511.896;-2705.776;-5439.568;-3.568163;-6.263118;-5497.786;-5532.028;0.08132415;-0.0868667;0;
-2064.444;-2058.622;-3157.641;-2382.511;-3.698299;-5.653978;-2041.511;-2078.203;-0.04869225;-0.6714855;0;
8022.264;8026.284;-2316.327;7291.162;-8.784798;-4.978529;8055.965;8015.688;0.01632402;-0.08610471;0;
10311.21;10302.32;-1543.731;10145.52;-12.52701;-3.9018;10322.54;10289.64;0.08127496;0.3037859;0;
6275.868;6262.276;-466.2202;6585.207;4.565854;-3.629947;6261.36;6241.052;0.1461606;-0.02135609;0;
6460.591;6449.043;1088.498;6671.543;7.374305;-2.956471;6445.754;6429.027;0.08104643;-0.2162367;0;
2914.066;2899;1546.393;3518.905;7.500617;-2.350714;2892.357;2876.849;-0.113937;-0.151052;0;
-7170.154;-7182.784;755.017;-6159.877;12.78534;-1.745506;-7201.898;-7214.58;0.08107948;0.2389038;0;
-9732.018;-9731.641;-166.4351;-9281.162;-4.040342;-3.686196;-9740.819;-9762.593;0.4708021;0.3685984;0;
-5799.742;-5794.337;-1302.572;-5826.709;-6.581878;-4.486288;-5783.22;-5816.699;0.08052494;0.04339134;0;
-5941.809;-5939.017;-2809.286;-5870.298;1.462687;-2.807206;-5926.583;-5960.748;-0.04949065;-0.281489;0;
-2482.746;-2476.084;-3276.758;-2804.516;1.059076;-2.938352;-2460.696;-2497.731;0.5352651;0.04363058;0;
7554.876;7559.907;-2467.714;6827.493;5.679712;-4.007126;7585.822;7546.747;0.46976;0.3034561;0;
9856.125;9847.532;-1706.366;9693.61;5.674005;-4.338014;9862.208;9834.354;0.1444512;-0.08665285;0;
5858.569;5844.738;-630.0357;6167.091;16.72037;-3.663826;5840.096;5822.078;0.07933877;-0.02159845;0;
6050.74;6039.358;915.9768;6254.972;22.12955;-2.990315;6034.19;6015.971;-0.05067564;0.0433906;0;
2546.168;2530.676;1371.483;3144.17;5.562894;-6.001482;2522.576;2507.343;0.3391793;-0.2814897;0;
-7589.266;-7602.384;568.0396;-6578.323;3.280129;-6.799246;-7622.61;-7633.689;0.6636752;-0.2162395;0;
-10221.91;-10220.68;-348.4145;-9774.524;4.749725;-1.768817;-10232.51;-10253.03;0.2732043;-0.02112022;0;
-6175.273;-6168.593;-1437.579;-6214.457;1.329677;-0.6283295;-6161.691;-6193.432;0.07802777;-0.1510337;0;
-6312.481;-6308.947;-2918.421;-6242.133;4.878315;-0.6946811;-6299.975;-6333.432;-0.1169527;-0.2158493;0;
-2959.945;-2953.572;-3385.44;-3280.706;3.666988;0.243717;-2940.564;-2977.658;-0.2467698;0.04423699;0;
7175.561;7179.538;-2566.635;6436.037;2.256784;0.5783867;7204.027;7165.706;-0.1165872;0.1741272;0;
9509.611;9500.81;-1806.968;9343.776;2.589309;1.783498;9513.749;9486.117;0.273334;0.1739523;0;
5411.174;5398.258;-726.2574;5726.92;-2.637229;-1.031516;5390.07;5372.617;0.01319;0.3686795;0;
5609.697;5598.2;841.3722;5816.258;-2.367136;-1.365394;5590.27;5572.865;-0.2466926;0.173407;0;
2132.836;2116.541;1318.724;2731.665;-7.588694;1.516183;2106.994;2090.263;0.3382613;-0.08663659;0;
-7902.654;-7916.435;552.0023;-6901.958;-10.46146;1.782591;-7939.043;-7952.415;0.3379214;0.1083525;0;
-10418.02;-10418.84;-349.0372;-9986.828;4.418534;6.067647;-10432.07;-10453.48;-0.05222215;0.368113;0;
-6452.512;-6448.802;-1470.154;-6493.653;7.093411;8.673762;-6441.702;-6473.795;0.07776501;0.1728411;0;
-6588.629;-6587.453;-2968.142;-6523.735;8.492804;4.914124;-6579.032;-6612.639;0.1426542;-0.02223462;0;
-3171.129;-3165.972;-3454.039;-3497.713;12.57011;5.712982;-3154.702;-3191.946;-0.1173585;-0.02221228;0;
6858.377;6862.748;-2678.081;6122.827;1.640112;7.31471;6884.267;6844.109;-0.4420773;-0.3470267;0;
9280.608;9271.95;-1910.619;9101.143;-0.6396875;7.30736;9282.734;9252.581;-0.1167964;-0.2817106;0;
5330.701;5316.118;-809.6575;5630.004;2.911905;12.85948;5305.839;5288.241;0.4030597;-0.2164602;0;
5430.979;5418.159;745.3436;5636.325;0.09496361;14.6551;5408.204;5390.841;0.01285067;-0.3461774;0;
1961.451;1944.302;1231.412;2551.975;4.917639;13.56864;1935.278;1917.855;-0.2470316;-0.02099286;0;
-8058.438;-8073.148;469.4638;-7056.167;5.448562;15.22958;-8096.172;-8107.69;-0.1168487;-0.1509064;0;
-10664.82;-10665.54;-435.8969;-10216.77;-1.790582;11.32927;-10679.75;-10699.49;-0.05176395;-0.2157222;0;
-6571.862;-6567.708;-1516.915;-6614.962;-1.186546;11.18404;-6558.772;-6592.763;-0.441516;0.3042333;0;
-6658.977;-6657.466;-2979.093;-6596.134;-12.63858;12.04346;-6647.306;-6683.387;-0.571007;0.368895;0;
-3386.396;-3381.654;-3457.764;-3703.269;-17.24758;10.95976;-3368.85;-3407.72;-0.3755313;0.2385896;0;
6750.131;6752.901;-2660.469;6004.527;1.859762;19.85723;6778.265;6735.748;-0.4401213;0.3682846;0;
9275.389;9265.568;-1905.737;9083.287;6.545966;22.58345;9281.036;9247.058;0.01509236;0.2379799;0;
5167.816;5153.82;-850.0703;5471.846;-0.09204354;17.20225;5148.127;5125.801;0.3399139;0.107806;0;
5208.632;5196.493;695.6636;5413.281;1.047125;16.78307;5189.119;5169.814;0.1446703;0.1726651;0;
1792.581;1775.582;1188.217;2378.27;9.686261;19.5125;1765.701;1748.649;-0.05037706;0.3024262;0;
-8216.175;-8230.33;437.6182;-7223.685;11.81998;19.76083;-8252.929;-8266.028;-0.05032644;0.4320571;0;
-10779.8;-10779.67;-468.4601;-10351.73;11.67438;16.45881;-10792.87;-10813.39;0.07965881;0.2367209;0;
-6699.715;-6694.694;-1602.95;-6746.303;13.0028;16.30831;-6687.522;-6721.218;0.2095135;-0.02338634;0;
-6804.38;-6802.066;-3119.201;-6740.992;5.420297;11.87117;-6792.73;-6831.078;0.404205;-0.08833019;0;
-3470.903;-3465.467;-3619.752;-3795.383;3.405118;9.849874;-3453.377;-3493.575;0.0789621;0.04169326;0;
6575.506;6578.608;-2842.035;5834.607;-0.6841398;16.33708;6599.557;6560.352;-0.3109213;0.2365534;0;
9063.207;9053.595;-2091.649;8865.265;-4.903011;17.45937;9063.809;9035.138;0.07919518;0.1713484;0;
5134.758;5120.532;-1031.61;5417.195;2.470282;19.71925;5111.246;5093.005;0.2740176;0.1062089;0;
5233.203;5221.958;511.8388;5428.759;2.668871;22.91449;5210.87;5193.116;-0.05109442;0.1710695;0;
1749.74;1734.118;1018.039;2339.12;-1.219553;18.67167;1722.135;1704.399;0.338761;0.2358649;0;
-8306.839;-8320.118;279.9174;-7323.874;-1.284701;19.18877;-8343.474;-8357.055;0.5982899;0.3005953;0;
-10882.71;-10881.83;-611.822;-10483;-4.632312;23.72421;-10896.8;-10917.52;0.1429174;0.1703586;0;
-6794.011;-6788.927;-1705.688;-6852.226;-6.972182;23.63338;-6783.182;-6816.467;0.01283911;-0.02471467;0;
-6995.564;-6993.484;-3200.41;-6924.691;-1.47282;29.03513;-6986.151;-7021.215;-0.3120105;-0.4144939;0;
-3779.726;-3773.478;-3705.251;-4097.947;-1.136548;29.67579;-3763.623;-3801.462;-0.506599;-0.4790447;0;
6343.142;6347.946;-2920.608;5594.254;-6.29297;27.50251;6369.287;6327.127;0.2735181;-0.218694;0;
8919.376;8910.683;-2163.709;8718.388;-6.621439;27.87678;8923.256;8889.291;0.5980799;-0.02357226;0;
4898.836;4884.53;-1104.254;5192.286;-12.77673;15.12238;4877.975;4855.726;0.207675;0.1713535;0;
4913.654;4902.454;439.2682;5104.704;-15.5779;10.28453;4893.188;4874.429;0.07753164;0.1711813;0;
1481.627;1466.034;957.285;2089.072;-9.13189;12.28356;1453.592;1437.787;0.2723558;0.04107459;0;
-8535.655;-8549.452;236.841;-7616.712;-8.252058;8.78823;-8575.578;-8586.197;0.4669841;-0.1538687;0;
-11228.5;-11227.89;-672.2527;-10990.87;-11.32425;11.25765;-11245.82;-11264.19;0.2716129;-0.02377942;0;
-7239.329;-7233.747;-1800.916;-7331.618;-11.64766;11.11237;-7230.843;-7261.985;0.1414053;0.1061792;0;
-7361.193;-7358.505;-3293.886;-7277.274;-6.07723;8.823905;-7354.387;-7387.122;0.2062305;-0.1537969;0;
-4128.042;-4121.657;-3789.169;-4437.995;-4.128741;9.618834;-4112.67;-4150.12;-0.1837808;-0.2835771;0;
5834.896;5839.714;-3015.437;5097.158;-6.736561;7.1308;5861.982;5817.714;-0.3135308;-0.1533574;0;
8395.337;8387.5;-2242.387;8190.792;-5.524343;6.989669;8399.032;8363.273;0.206523;0.1716334;0;
4491.016;4478.096;-1154.368;4801.292;-7.728619;10.86753;4469.283;4446.647;0.0763808;0.366363;0;
4433.499;4422.747;378.5224;4587.354;-7.854575;11.92834;4412.038;4392.391;-0.118598;0.04115812;0;
884.6694;868.9304;873.7366;1589.983;-5.368436;15.19852;855.4366;838.1684;-0.05351146;-0.2187526;0;
-9160.937;-9174.005;144.8497;-8656.777;-5.430391;17.72848;-9200.197;-9211.139;-0.3133271;-0.02363078;0;
-11832.59;-11830.6;-749.284;-12666.07;-1.94231;16.03609;-11848.77;-11867.34;-0.3779796;0.171295;0;
-7792.644;-7785.477;-1857.474;-8227.838;-1.87301;17.82852;-7784.357;-7816.774;-0.1826978;-0.02377915;0;
-8017.166;-8012.864;-3368.597;-7801.546;3.688578;16.33698;-8010.027;-8043.755;0.01238785;-0.1536899;0;
-4868.095;-4860.471;-3883.202;-5217.768;7.301218;15.71772;-4852.125;-4888.629;0.4021794;0.1063339;0;
5196.13;5201.67;-3100.785;4461.987;-6.035356;23.60579;5222.408;5182.098;0.336808;-0.02370767;0;
7756.276;7748.629;-2334.428;7556.181;-7.435811;25.18966;7758.165;7726.891;0.07660021;-0.2835532;0;
3810.384;3798.2;-1247.846;4138.818;-7.227269;25.29831;3786.533;3767.207;-0.1183788;0.3014378;0;
3823.172;3813.874;312.4992;3936.915;-9.965697;26.88036;3800.485;3784.067;-0.2481945;0.1712002;0;
253.6541;239.5706;802.4075;1060.637;1.698615;21.09294;225.7582;209.7475;0.2717936;-0.7385146;0;
-9841.026;-9851.785;36.42342;-9937.791;3.907711;19.59825;-9880.217;-9889.105;0.5963572;-0.4779032;0;
-12484.01;-12479.47;-877.4351;-14731.73;2.832057;22.72663;-12501.58;-12515.22;-0.05391543;-0.1525863;0;
-8462.964;-8453.413;-2002.144;-9329.968;4.771595;23.10569;-8453.59;-8481.821;-0.1837959;-0.347335;0;
-8652.86;-8645.865;-3519.931;-8274.479;1.685341;19.26457;-8644.714;-8675.104;-0.2485786;-0.346986;0;
-5427.782;-5417.843;-4029.792;-5834.902;1.952068;18.64236;-5410.868;-5447.13;-0.5731655;-0.1517353;0;
4568.415;4576.471;-3261.283;3869.086;0.141445;21.43679;4591.669;4554.506;0.01211645;0.1732539;0;
7148.557;7143.486;-2492.61;6941.012;-0.05976791;21.14732;7148.268;7120.95;0.142039;0.3679818;0;
3394.242;3384.35;-1386.723;3713.422;-2.404233;27.42235;3372.995;3353.373;-0.2479078;0.2376774;0;
3380.305;3373.672;147.1194;3471.669;-4.076756;29.73919;3355.004;3342.788;0.077178;-0.08739814;0;
-300.1023;-311.9919;607.7712;568.7635;2.022909;24.61873;-319.8811;-341.7517;-0.05283424;0.04262436;0;
-10291.33;-10299.96;-142.0567;-10784.18;1.351291;23.92417;-10356.64;-10336.96;-0.2476832;-0.02238581;0;
-12907.2;-12900.75;-1054.58;-16128.18;5.904285;23.96711;-12986.91;-12937.84;0.2073371;-0.08733065;0;
-8934.154;-8924.26;-2198.664;-10128.31;6.769008;22.67035;-8937.089;-8955.056;0.07719408;0.1076591;0;
-9111.053;-9104.058;-3730.027;-8630.26;2.006784;21.17395;-9103.411;-9135.337;-0.05281817;0.0425836;0;
-5936.021;-5926.096;-4245.831;-6369.782;2.540632;20.08107;-5916.799;-5955.127;0.2071043;0.1075082;0;
4098.856;4107.006;-3459.895;3409.55;-9.719432;14.6354;4118.465;4085.938;0.4017982;0.1723675;0;
6781.949;6777.191;-2680.996;6577.295;-11.7194;11.53947;6785.671;6753.302;0.4663618;0.3670963;0;
3048.164;3038.539;-1577.199;3367.062;-17.93691;15.61372;3032.049;3004.866;0.01112181;0.3017601;0;
3134.197;3127.283;-19.86499;3191.563;-23.67869;15.19613;3086.27;3094.206;-0.3137261;0.1065549;0;
-508.3257;-521.7923;451.4181;427.1967;1.663431;14.91305;-480.1024;-553.196;-0.05354147;0.04148046;0;
-10677.52;-10686.06;-325.8638;-11678.68;7.087743;16.77347;-11036.41;-10724.31;-0.118455;0.04143877;0;
-13326.95;-13318.06;-1243.481;-17596.46;2.726365;10.72827;-13981.54;-13355.88;-0.5731074;0.04139714;0;
-9207.747;-9196.479;-2370.727;-10673.22;6.073504;10.91844;-9330.442;-9227.587;-0.3776295;0.1063229;0;
-9341.018;-9333.914;-3904.604;-8746.477;2.583801;13.58679;-9264.673;-9366.818;-0.2473154;0.3011181;0;
-6177.951;-6167.56;-4421.356;-6672.585;2.246412;13.17124;-6195.246;-6200.509;-0.3770016;0.4307502;0;
3851.937;3861.224;-3621.282;3186.823;1.440848;24.67882;3886.977;3836.382;0.01318131;0.36535;0;
6526.173;6521.162;-2833.975;6317.577;1.17098;27.4002;6524.603;6496.375;0.01316807;0.1700809;0;
2833.781;2822.028;-1734.179;3156.252;-9.547465;28.37741;2814.455;2789.115;-0.1167798;-0.08995936;0;
2950.967;2942.786;-188.0565;3028.69;-14.22595;31.29603;2915.122;2909.563;0.01327218;0.04006571;0;
-702.2884;-716.0048;272.3699;232.1602;-4.164944;20.34661;-681.3601;-748.9922;0.2081609;0.2349275;0;
-10774.3;-10782.58;-494.4247;-11844.61;-3.624895;18.04887;-11163.52;-10823.44;0.2729191;0.1047568;0;
-13330.93;-13321.67;-1401.191;-17738.34;-2.683248;17.22693;-13993.79;-13363.14;-0.05219189;0.03968414;0;
-9245.68;-9234.88;-2528.653;-10757.14;-0.1349562;14.93221;-9346.966;-9269.626;0.0128279;-0.2202251;0;
-9350.926;-9343.511;-4043.849;-8750.676;-2.881487;14.64939;-9280.306;-9377.986;0.4675864;-0.2200038;0;
-6176.59;-6165.293;-4529.134;-6660.445;-2.543799;13.09406;-6190.639;-6198.079;0.07731251;-0.08984808;0;
3804.868;3814.717;-3684.442;3153.427;0.7412869;18.03752;3839.074;3790.397;-0.5074713;-0.2196925;0;
6509.512;6505.404;-2864.557;6296.271;0.6058441;18.89018;6504.953;6480.296;-0.3120593;-0.02456971;0;
2849.401;2839.082;-1775.1;3174.854;4.222558;21.61737;2840.1;2805.879;-0.2467784;0.1053897;0;
2993.698;2987.06;-230.0918;3051.818;6.026976;24.141;2945.16;2954.764;-0.1815631;0.2352185;0;
-652.4315;-666.9656;256.9572;316.0161;-2.419173;18.82522;-607.952;-699.0881;0.4682927;0.2999495;0;
-10841.37;-10845.29;-506.0738;-11985.06;-3.22005;18.33742;-11325.49;-10885.83;0.4678222;0.104746;0;
-13450.38;-13431.54;-1412.359;-18166.87;-4.08747;20.73026;-14362.96;-13471.35;-0.2472886;0.2995428;0;
-9263.339;-9250.231;-2504.828;-10903.97;-4.887646;21.04434;-9439.28;-9282.6;0.07779656;0.2342745;0;
-9396.491;-9390.627;-3994.749;-8749.018;-2.002347;18.87987;-9294.02;-9423.322;0.4025551;-0.350667;0;
-6344.485;-6334.02;-4506.038;-6834.794;-2.402477;18.52598;-6368.444;-6365.589;0.01234656;-0.2853473;0;
3618.729;3628.168;-3723.339;2972.054;6.910687;19.91389;3658.699;3604.08;-0.1825679;-0.09015856;0;
6342.16;6338.159;-2934.617;6138.49;9.381989;19.75991;6341.173;6313.814;-0.05244974;-0.2200027;0;
2699.974;2688.871;-1820.196;3040.454;9.105119;23.22317;2693.491;2657.585;-0.05239704;0.04008777;0;
2853.339;2845.902;-259.2758;2915.133;11.37315;24.27156;2796.278;2814.866;0.07759029;0.4298516;0;
-810.7348;-825.3013;199.1607;189.853;1.381383;24.18019;-742.5352;-856.8682;0.4673164;0.299485;0;
-11007.36;-11001.92;-589.9866;-12319.41;-1.701464;25.83035;-11632.75;-11041.2;0.07704277;-0.09062003;0;
-13610.45;-13583.28;-1495.22;-18744.45;5.26647;18.90539;-14848.1;-13621.27;-0.377806;-0.09052897;0;
-9435.555;-9423.824;-2598.662;-11219.22;8.141566;16.14009;-9709.504;-9454.47;-0.05258971;0.03949668;0;
-9564.191;-9555.206;-4108.072;-8858.032;-3.320817;22.88903;-9422.98;-9586.508;-0.2474389;-0.155445;0;
-6533.444;-6525.202;-4638.082;-7011.883;-2.245754;21.52637;-6566.068;-6555.753;-0.6369943;-0.4801255;0;
3374.831;3386.36;-3884.08;2779.947;0.2347493;21.63871;3420.95;3363.741;-0.2465502;-0.2847411;0;
6119.809;6112.492;-3114.812;5966.91;-2.176384;20.61222;6119.936;6089.583;0.4033709;0.1053491;0;
2481.532;2468.897;-2013.983;2859.551;37.2103;13.02269;2474.553;2437.454;0.2080636;-0.02469148;0;
2671.083;2670.47;-462.8947;2764.271;50.77057;10.06235;2610.997;2638.902;-0.2469168;-0.02466667;0;
-967.1489;-998.9012;-28.74131;99.55043;30.29037;4.492779;-880.6232;-1029.891;0.01320062;-0.3494786;0;
-11401.13;-11265.89;-870.4144;-12801.02;32.80553;1.943035;-12191.88;-11304.94;0.143122;-0.4790621;0;
-14062.63;-13823.08;-1810.848;-19475.58;32.37043;-3.953293;-15621.79;-13861.57;-0.05192379;-0.0887767;0;
-9645.153;-9609.253;-2942.458;-11505.8;30.46189;-6.494612;-10002.64;-9641.024;-0.1818063;0.1062145;0;
-9775.984;-9785.363;-4509.275;-9012.189;30.03012;-0.3927609;-9603.367;-9817.946;-0.1816236;0.3659772;0;
-6804.51;-6789.11;-5083.454;-7256.074;27.72179;0.4783509;-6847.005;-6820.708;-0.05150644;0.1707074;0;
3101.961;3111.426;-4316.822;2531.707;24.07759;9.587305;3155.757;3086.06;0.01351265;-0.4141702;0;
5784.994;5782.674;-3498.987;5615.221;21.37408;14.53429;5783.139;5757.583;0.6631725;-0.08891732;0;
2170.292;2148.656;-2354.358;2544.26;24.63416;12.64428;2177.965;2117;0.7924408;0.4309108;0;
2362.357;2381.254;-783.9988;2440.067;25.01155;14.64094;2291.984;2349.162;0.01203647;0.2355758;0;
-1249.64;-1324.965;-317.414;-173.4626;23.84734;16.7027;-1138.159;-1356.931;-0.05294297;0.3003064;0;
-11949.11;-11588.47;-1083.741;-13596.78;24.29287;16.61894;-12870.87;-11629.64;0.01207757;0.2350373;0;
-14948.45;-14192.45;-1953.839;-20960.44;26.7467;17.33905;-16918.28;-14233.37;-0.3127713;0.0398991;0;
-10189.88;-10013.13;-3014.717;-12362.92;27.32304;17.92447;-10728.14;-10045.53;-0.1825223;0.1697937;0;
-9976.088;-10040.67;-4488.664;-9293.082;30.37607;6.98849;-9753.03;-10075.29;0.1424978;0.1046558;0;
-7026.932;-6990.832;-5006.953;-7593.5;31.95314;4.302151;-7084.816;-7025.692;0.2722893;0.03958324;0;
2810.656;2814.736;-4233.746;2223.871;26.2276;2.757342;2866.554;2788.391;0.01214633;0.1045108;0;
5496.98;5497.152;-3435.735;5320.391;24.79473;-0.5945138;5499.521;5469.708;-0.1827679;-0.02552889;0;
1860.079;1833.374;-2330.024;2222.1;27.04699;8.917477;1861.867;1797.93;0.1422525;-0.09047058;0;
1993.439;2031.868;-765.7177;2062.15;27.28823;9.645206;1927.041;1996.523;0.7268155;0.03955501;0;
-1419.927;-1544.705;-263.6691;-360.6275;21.36632;12.71673;-1308.473;-1580.53;0.4012486;0.16945;0;
-12493.18;-11809.13;-1016.744;-14279.27;19.33512;15.31616;-13435.14;-11851.81;0.07600869;-0.02562234;0;
-15920.46;-14477.59;-1888.128;-22136.96;20.92328;10.34416;-17938.73;-14519.41;0.205867;-0.0255966;0;
-10572.48;-10221.55;-2932.33;-12847.13;17.55335;11.67342;-11123.78;-10258.15;0.07572547;-0.1555056;0;
-10115.76;-10258.4;-4401.206;-9638.764;29.12364;1.815448;-9883.358;-10294.66;0.2055841;-0.285284;0;
-7318.844;-7253.174;-4915.71;-8061.773;31.70634;-2.607127;-7374.684;-7286.899;0.2053775;0.1697741;0;
2625.796;2616.579;-4135.692;2051.639;18.34525;8.313466;2689.172;2589.524;-0.379535;0.1046361;0;
5310.463;5312.406;-3352.303;5158.249;18.12574;8.23813;5315.679;5285.128;-0.1192842;0.03956364;0;
1661.599;1628.948;-2242.865;2024.529;5.983743;6.823211;1666.42;1594.296;0.4005744;0.3643606;0;
1815.258;1863.661;-658.4384;1899.494;0.6864446;6.816354;1753.903;1828.138;0.4001719;-0.02580956;0;
-1592.292;-1759.188;-171.7711;-542.7189;9.795434;4.264154;-1478.501;-1795.035;0.2048678;-0.3506203;0;
-13057.51;-12099.68;-954.986;-15149.28;7.775859;3.724128;-14020.62;-12142.45;0.07472721;0.03953602;0;
-16763.86;-14730.44;-1835.708;-23295.24;18.2169;-0.6334437;-18839.43;-14771.66;-0.05528256;0.169431;0;
-10941.2;-10431.59;-2880.65;-13285.37;21.68219;-2.30738;-11525.82;-10466.94;-0.250129;0.1042934;0;
-10251.89;-10455.23;-4354.263;-10041.44;15.43111;-3.376728;-10010.98;-10491.65;-0.1849104;-0.02574609;0;
-7548.537;-7464.348;-4894.771;-8511.943;16.55469;-4.712994;-7601.657;-7498.893;-0.1847246;-0.1556549;0;
2354.403;2335.293;-4140.479;1826.292;10.50885;-2.765753;2417.746;2307.998;0.01036307;0.1043709;0;
5000.081;5003.104;-3352.181;4862.321;8.69061;-2.89694;5008.497;4975.555;0.1402873;0.4291027;0;
1382.81;1339.635;-2246.492;1730.897;8.480807;-1.554431;1387.626;1304.742;-0.314625;0.2987369;0;
1536.093;1605.358;-675.2424;1647.933;7.400558;-1.887784;1477.123;1569.672;-0.1843742;0.363404;0;
-1761.279;-1985.451;-193.2434;-753.8129;9.80402;3.606652;-1650.118;-2022.022;-0.05425425;0.3630389;0;
-13662.62;-12355.76;-981.1843;-16034.22;11.93762;6.416189;-14610.29;-12401.04;-0.4440038;-0.0920973;0;
-17854.79;-15043.56;-1863.161;-24554.16;10.65283;-0.5562996;-19895.9;-15087.58;-0.3785903;-0.1569721;0;
-11483.47;-10759.17;-2912.823;-13888.04;11.71385;1.855584;-12058.32;-10793.32;0.01159415;-0.02687969;0;
-10518.05;-10811.8;-4398.929;-10680.16;23.02256;-8.126493;-10278.37;-10845.3;-0.05338484;0.103082;0;
-7961.979;-7846.044;-4939.922;-9162.076;26.48206;-10.86457;-8009.696;-7879.329;-0.3781679;0.1029784;0;
2047.338;2013.137;-4177.089;1565.118;30.54128;4.685963;2113.143;1986.758;-0.4427553;-0.2219618;0;
4705.038;4708.977;-3414.773;4577.999;33.12256;5.619016;4718.865;4682.125;-0.3123757;0.103098;0;
1065.434;1013.132;-2348.532;1417.953;30.34359;20.5502;1074.953;978.217;0.07774223;0.3628637;0;
1213.929;1294.503;-788.2057;1364.742;29.84361;27.09375;1160.829;1258.561;0.4025008;-0.2222069;0;
-2001.659;-2272.427;-306.9677;-1033.971;22.51358;17.22028;-1884.651;-2308.989;-0.1176423;-0.481853;0;
-14225.41;-12622.25;-1098.73;-16942.44;19.07471;19.27933;-15188.19;-12664.79;-0.4423608;0.1683046;0;
-18784.54;-15294.99;-1993.863;-25729.33;12.42411;8.944951;-20853.48;-15334.93;0.2077571;0.8178089;0;
-11961.3;-11042;-3063.04;-14439.11;8.057371;5.720782;-12549.96;-11076.13;0.532385;0.2972484;0;
-10680.71;-11048.11;-4551.65;-11264.48;9.188351;5.112188;-10440.62;-11084.35;-0.247758;-0.3527237;0;
-8176.611;-8042.891;-5095.863;-9672.522;8.040042;0.6193166;-8221.085;-8078.747;-0.4424111;-0.1574673;0;
1749.338;1702.577;-4353.27;1320.176;8.635176;13.01029;1816.353;1674.425;-0.05216252;-0.09234169;0;
4385.504;4391.233;-3577.939;4279.767;8.961292;14.9396;4405.023;4362.766;0.07782458;-0.1572163;0;
824.1201;750.5392;-2477.395;1160.095;17.25866;10.90574;834.5144;714.9946;0.01277903;0.3626805;0;
854.8386;966.5823;-915.1587;1050.531;21.12608;11.96651;809.235;932.2291;-0.05220115;0.2323814;0;
-2246.852;-2603.829;-446.7554;-1361.313;18.9614;9.677063;-2128.508;-2639.538;-0.3120181;-0.09268886;0;
-15051.49;-12988.85;-1250.715;-18299.76;20.1478;9.265442;-16097.74;-13024.35;-0.4416392;-0.02762838;0;
-20440.14;-15779.72;-2149.006;-27741.01;23.20901;7.916595;-22597.97;-15810.48;-0.3112608;-0.4174047;0;
-12793.39;-11462.88;-3210.749;-15438.86;24.19007;7.238811;-13392.87;-11496.6;-0.116046;-0.4169852;0;
-10882.62;-11391.75;-4702.178;-12122.1;18.40499;6.092828;-10636.99;-11425.56;0.2089073;-0.1566969;0;
-8618.628;-8443.473;-5232.778;-10503.26;16.57881;5.885756;-8659.137;-8478.23;0.07876272;-0.02660477;0;
1426.909;1360.557;-4451.41;1075.132;16.4948;5.946826;1492.419;1333.736;-0.5709898;-0.1565127;0;
4090.058;4086.444;-3670.64;4003.907;15.4065;6.074816;4116.912;4059.275;-0.5054488;-0.09138811;0;
432.3941;359.5681;-2576.156;775.4583;12.64435;9.216788;435.9048;323.135;0.01479784;0.1685731;0;
541.5295;646.9528;-988.1146;775.0071;11.4262;9.542441;509.8826;615.382;0.01478297;0.1034364;0;
-2454.821;-2837.024;-511.4233;-1622.38;11.281;17.30275;-2359.563;-2883.665;-0.1151666;0.1033324;0;
-15615.52;-13326.26;-1328.155;-19253.28;8.857788;21.3712;-16890.75;-13311.9;0.2097859;-0.2865755;0;
-21271.2;-16139.35;-2233.271;-28808.45;18.76285;11.36952;-23589.05;-16075.78;0.3395098;-0.4162222;0;
-13256.01;-11801.61;-3310.047;-16239.24;20.68638;10.82223;-13840.52;-11824.53;0.01433191;-0.1559346;0;
-11216.71;-11779.79;-4803.656;-13482.18;11.62326;11.61515;-11006.5;-11823.29;-0.05064984;-0.3506799;0;
-8897.867;-8709.064;-5323.035;-11319.07;10.27144;9.727956;-8957.138;-8747.158;0.0143684;0.03947647;0;
1190.491;1109.49;-4547.604;961.3562;7.38073;15.74652;1265.978;1084.974;-0.05061338;0.2343388;0;
3760.987;3754.249;-3766.55;3685.552;6.703728;15.93165;3791.248;3725.775;-0.05056252;-0.09073334;0;
187.9708;104.1998;-2669.284;524.0763;-5.827962;13.37041;188.5916;61.21533;-0.1804464;0.1692272;0;
292.1982;397.0573;-1096.735;587.1115;-12.25247;11.95034;273.8123;383.8041;-0.05033041;0.2340245;0;
-2658.753;-3070.083;-620.3405;-1931.478;4.035842;11.06755;-2584.963;-3161.753;0.2095895;0.2337894;0;
-16412.1;-13883.75;-1428.467;-20402.19;4.165509;9.783753;-17907.43;-13612.96;-0.05049043;0.1036198;0;
-22676.85;-17007.05;-2332.608;-30327.21;4.764536;3.745581;-25155.17;-16435;-0.2453417;-0.6760924;0;
-13858.48;-12205.9;-3385.796;-17076.68;6.835854;2.134349;-14441.55;-12126.8;-0.2450952;-0.2206417;0;
-11291.82;-11917.33;-4858.839;-14209.95;-5.361177;-4.699933;-11153.59;-12015.62;-0.3098163;0.2343514;0;
-9234.272;-9040.144;-5388.032;-11888.99;-8.570971;-7.508432;-9347.756;-9054.743;-0.3744723;-0.1556882;0;
831.576;739.9976;-4615.129;684.9581;-10.37102;-3.348007;916.4199;702.3301;-0.568998;-0.2854664;0;
3505.583;3486.592;-3832.008;3433.2;-14.04429;-3.94749;3544.24;3462.612;-0.308557;-0.3501469;0;
-121.8361;-205.4168;-2743.297;234.0916;-14.1639;4.764014;-125.2752;-258.5926;0.08155712;-0.2198604;0;
-92.24414;-2.187466;-1163.802;249.5203;-15.15503;7.773459;-88.51148;5.440865;0.3413445;-0.0897048;0;
-2835.897;-3248.444;-679.2188;-2190.645;-17.75177;8.368495;-2808.665;-3388.921;-0.04880249;-0.2195494;0;
-17046.82;-14366.4;-1497.937;-21255.92;-16.46113;11.44118;-18792.28;-13823.29;-0.6984268;0.04054062;0;
-23829.98;-17961.5;-2414.189;-31504.42;-18.45432;6.874966;-26416.1;-16723.02;-0.1779864;0.3653366;0;
-14401.31;-12718.15;-3483.225;-18037.62;-17.96727;7.403921;-14977.68;-12424.29;0.2769639;0.1051001;0;
-11477.79;-12116.72;-4957.232;-15363.66;-3.146107;4.382249;-11537.81;-12289.23;0.08178356;-0.0899075;0;
-9426.936;-9229.675;-5462.213;-12495.85;2.751553;2.971327;-9654.561;-9218.796;-0.0482333;0.1700522;0;
718.5512;614.6248;-4668.059;649.171;4.088934;8.594786;837.6523;573.9088;-0.2430869;0.3647834;0;
3289.99;3259.021;-3865.582;3227.878;8.304384;9.992669;3326.247;3233.557;-0.04794058;0.1695148;0;
-354.3612;-441.3949;-2766.748;23.29104;12.58295;10.31754;-354.7781;-498.4111;0.1470096;-0.02555755;0;
-302.1562;-231.2287;-1193.664;81.16041;15.98656;11.98175;-286.159;-211.7104;0.01692722;-0.3503686;0;
-3039.789;-3442.851;-705.959;-2424.412;10.8793;13.84511;-3035.989;-3626.734;0.08187755;-0.4149839;0;
-17773.15;-14894.13;-1516.81;-22050.42;9.73027;14.43404;-19615.04;-14055.03;0.08179528;0.1051719;0;
-24881.18;-18794.57;-2427.297;-32595.63;10.05529;20.7828;-27511.85;-16948.43;-0.1131889;-0.02486852;0;
-14730.68;-13006.29;-3478.672;-18740.03;7.031073;23.03934;-15323.88;-12570.05;-0.1130752;-0.8044516;0;
-11531.04;-12174.51;-4957.775;-16073.12;11.37729;16.51896;-11767.86;-12414.62;0.2118751;-0.6737086;0;
-9684.236;-9491.308;-5495.083;-13021.84;11.90172;15.22969;-10051.77;-9455.029;0.01676021;-0.02335827;0;
554.8841;440.4448;-4721.948;541.6692;1.30719;15.34835;692.5629;381.9844;-0.3080933;0.3664693;0;
3156.753;3116.048;-3952.369;3118.205;-0.7038558;14.6631;3203.932;3094.456;-0.1778491;0.171199;0;
-594.5038;-690.7963;-2890.429;-216.6914;-3.115022;7.414454;-601.282;-758.9995;-0.3076051;0.1060596;0;
-561.4853;-502.0717;-1318.532;-122.2554;-6.661866;3.655959;-519.0939;-470.5533;-0.4372307;0.4307898;0;
-3131.863;-3537.229;-824.1115;-2619.908;4.464239;10.68537;-3190.042;-3764.752;0.4077841;0.1704876;0;
-18257.58;-15233.33;-1644.277;-22789.09;6.067344;10.27274;-20288.26;-14179.98;0.4073744;-0.3494225;0;
-25834.65;-19568.85;-2575.718;-33689.95;2.979789;10.26241;-28544.07;-17167.16;-0.5025777;0.1706674;0;
-15314.87;-13520.56;-3646.997;-20042.97;4.048521;11.12288;-15934.43;-12904.5;-0.1122687;0.3653979;0;
-11849.61;-12387.19;-5119.777;-17532.01;-0.7783179;6.15509;-12246.16;-12696.23;0.3426155;-0.154708;0;
-9941.251;-9675.617;-5645.679;-13659.41;-2.184055;5.546059;-10394.21;-9622.758;-0.2424348;-0.3494546;0;
335.8276;201.5977;-4880.356;406.2241;-1.71237;3.932896;496.7456;128.4681;-0.04728922;-0.2841361;0;
2853.865;2799.823;-4110.15;2829.395;-1.979069;2.723374;2900.335;2774.259;0.5374644;-0.2188833;0;
-811.6772;-905.2695;-3040.774;-404.9803;-8.340094;4.730003;-813.0737;-983.2506;0.4069896;-0.2186633;0;
-750.517;-710.7697;-1470.007;-283.0407;-11.81531;4.792233;-706.1537;-668.4516;0.4065807;-0.283411;0;
-3355.141;-3742.844;-960.1602;-2827.321;1.12463;6.395009;-3410.225;-4010.959;0.2762375;-0.1531915;0;
-18862.36;-15646.58;-1744.582;-23377.57;4.673474;7.527293;-20898.57;-14390.51;0.01609055;0.04186445;0;
-26704.47;-20323.77;-2650.279;-34657.46;-8.66046;6.381019;-29432.22;-17379.76;-0.1138603;0.2367244;0;
-15798.67;-13995.48;-3705.647;-21142.01;-11.80057;6.374608;-16459.92;-13188.89;0.01618879;0.4963559;0;
-12293.33;-12650.18;-5163.033;-18818.17;1.340434;9.114381;-12824.25;-13021.25;0.08113986;0.4308898;0;
-10396.66;-10012.54;-5680.52;-14429.55;3.482542;9.641086;-10941.65;-9949.513;0.01609099;0.1056202;0;
143.1162;-20.17225;-4900.482;266.3317;-5.228495;9.89933;325.5033;-99.16479;-0.04889252;-0.28429;0;
2701.733;2632.827;-4119.511;2698.732;-5.08952;11.42999;2759.203;2605.388;-0.2437454;-0.4789064;0;
-1050.269;-1139.955;-3050.126;-632.9939;-8.568007;2.844934;-1052.124;-1230.444;0.08133621;-0.2835231;0;
-942.1111;-937.9258;-1458.141;-428.7258;-9.295355;-0.239139;-875.6394;-873.808;0.01628714;0.04159845;0;
-3437.628;-3767.482;-930.4401;-2972.063;-7.544703;8.669587;-3537.202;-4097.809;-0.3085659;0.301426;0;
-19882.11;-16255.98;-1727.104;-24394.29;-7.871914;8.861825;-22042.33;-14619.62;0.08154816;0.2361558;0;
-28341.49;-21630.15;-2640.784;-36360.32;-0.4292654;9.187835;-31068.49;-17782.46;0.2763683;-0.02395086;0;
-16502.27;-14636.29;-3690.851;-22800.52;0.7766147;11.05412;-17261.89;-13532.7;0.6009272;-0.02392679;0;
-12661.79;-12815.44;-5123.015;-20350.69;9.483372;3.875966;-13601.37;-13292.11;0.6652908;-0.02390275;0;
-10804.53;-10266.62;-5601.03;-15143.16;14.49768;2.934433;-11556.35;-10166.72;-0.2449205;0.04108861;0;
-82.35483;-272.118;-4835.94;120.3637;0.2158746;4.739901;154.7541;-366.9277;-0.5045437;0.2359494;0;
2359.391;2265.286;-4103.853;2379.67;-1.794074;3.931343;2419.976;2235.883;-0.1792001;0.1057776;0;
-1381.21;-1462.633;-3036.42;-933.1357;-0.6531957;9.419871;-1377.283;-1555.974;-0.1140527;0.1056713;0;
-1255.572;-1293.263;-1434.798;-692.5685;-3.5993;11.35291;-1170.877;-1230.152;-0.1139381;0.2354998;0;
-3878.491;-4150.355;-910.8686;-3457.873;0.3554552;9.19805;-3998.919;-4498.882;0.2110131;0.04036114;0;
-20795.88;-16780.01;-1699.525;-25333.1;0.489796;10.12657;-22985.04;-14974.06;0.01589907;0.3651573;0;
-29281.15;-22383.51;-2608.266;-37567.32;-3.26174;12.52778;-31992.99;-18113.7;-0.6337903;0.6896271;0;
-16839.42;-15009.26;-3653.369;-23992.06;-3.124741;14.32361;-17684.09;-13750.23;-0.3732841;-0.1556413;0;
-12962.1;-12867.31;-5102.437;-21278.38;-3.18895;10.08941;-14086.37;-13394.8;0.08186235;-0.6752236;0;
-11071.86;-10387.64;-5632.384;-15508.63;-2.716255;8.136892;-11858.43;-10279.57;0.2117148;-0.02487175;0;
-166.0874;-407.3345;-4881.662;40.85275;0.1658858;17.57307;98.20335;-512.9446;0.1465347;0.3649573;0;
2208.433;2113.886;-4128.102;2275.829;1.438517;19.09589;2266.031;2081.033;0.01645278;0.1696886;0;
-1602.481;-1696.98;-3080.385;-1119.455;6.259842;13.91914;-1588.622;-1796.532;0.08140359;0.03958337;0;
-1478.354;-1534.543;-1508.109;-879.9817;9.335011;14.30705;-1390.5;-1473.357;-0.1785476;0.0395436;0;
-3920.422;-4162.882;-968.7394;-3491.909;6.847385;9.470029;-4032.118;-4529.98;0.3413706;-0.5452022;0;
-21249.3;-17050.61;-1740.627;-25727.25;7.577439;8.522753;-23440.65;-15197.02;0.6008968;-0.6096217;0;
-30110.69;-23078.77;-2654.98;-38517.49;12.92748;8.04543;-32795.7;-18614.82;-0.04938028;0.2355663;0;
-17232.14;-15335.24;-3716.684;-25035.69;15.46009;6.76467;-18212.39;-13987.06;0.01563668;0.2353296;0;
-13433.12;-13015.1;-5186.303;-22372.22;6.603296;13.45592;-14901.82;-13573.06;0.210523;-0.4145803;0;
-11614.28;-10691.67;-5720.789;-16264.76;2.778268;14.38016;-12539.03;-10583.37;-0.1794926;-0.1542944;0;
-347.8741;-624.4624;-4961.763;-141.658;17.11007;18.85345;-43.10772;-732.9817;-0.3092469;0.5605015;0;
2128.575;2010.122;-4194.91;2239.772;18.90154;21.37986;2192.843;1969.506;0.01590052;0.1701342;0;
-1626.459;-1716.057;-3138.193;-1136.205;12.05004;17.74142;-1609.419;-1817.242;0.08085189;-0.6746122;0;
-1559.108;-1646.538;-1579.353;-902.2583;14.24874;18.86218;-1450.928;-1593.981;0.145738;-0.3490977;0;
-4173.102;-4380.087;-1064.305;-3738.941;-2.309999;10.8725;-4288.542;-4755.165;0.2105589;-0.08887751;0;
-21887.41;-17444.46;-1845.499;-26318.58;-7.801011;7.512551;-24064.76;-15496.2;-0.04952204;-0.4785922;0;
-30764.89;-23634.83;-2763.464;-39271.24;8.952317;15.27478;-33420.79;-19018.18;0.01549506;-0.413144;0;
-17748.57;-15707.11;-3838.583;-26292.42;10.41719;15.79529;-19081.93;-14323.05;0.3403162;-0.2827942;0;
-14265.73;-13255.92;-5304.081;-23889.95;12.41646;12.16247;-16170.44;-13829.54;0.08010488;-0.4124447;0;
-12028.42;-10830.32;-5819.614;-16826;15.21702;11.88231;-12951.6;-10724.18;-0.3097797;-0.347063;0;
-356.6942;-723.501;-5053.743;-139.5642;16.74197;14.01371;-3.696948;-843.2413;0.08033565;-0.08684488;0;
1905.496;1787.652;-4284.673;2062.329;19.80661;14.33454;1953.307;1741.354;0.5999936;0.3030464;0;
-1883.14;-1985.218;-3217.09;-1340.909;10.5433;16.73152;-1837.922;-2091.204;0.6643581;0.497644;0;
-1687.018;-1800.003;-1623.032;-1003.231;6.647943;18.38916;-1570.693;-1748.696;0.3388539;0.4321766;0;
-4051.165;-4243.652;-1078.331;-3652.453;10.59338;13.41407;-4170.683;-4624.727;0.2085787;0.3018076;0;
-22417.25;-17775.69;-1868.849;-26824.99;4.353444;12.39597;-24588.02;-15766.85;0.07843444;-0.08829967;0;
-31782.16;-24603.98;-2782.449;-40410.57;11.24794;15.39762;-34408.02;-19851.73;-0.2464811;-0.283113;0;
-18334.47;-16139.9;-3837.34;-27278.05;10.16492;14.98025;-19806.16;-14702.49;-0.3112007;-0.08792647;0;
-15221.18;-13417.65;-5316.676;-25240.73;-8.935311;14.89822;-17366.21;-14006.38;-0.3758554;-0.02287078;0;
-12886.79;-11249.41;-5838.444;-18072.31;-9.796989;14.41437;-13903.04;-11140.98;-0.05064103;0.04211954;0;
-458.3777;-932.2348;-5053.125;-352.0378;-44.95209;14.93575;-99.16158;-1054.784;0.3392139;0.3669139;0;
1879.861;1763.223;-4273.719;2130.849;-60.64803;15.65755;1944.942;1715.212;-0.05093098;0.49648;0;
-1823.277;-1939.704;-3192.403;-1281.828;-19.25923;8.340802;-1770.13;-2050.666;-0.2457818;0.106177;0;
-1600.618;-1739.949;-1590.218;-861.8438;-15.75725;5.787192;-1469.955;-1692.597;0.07930183;-0.2187664;0;
-4030.428;-4219.188;-1052.015;-3582.454;-16.07621;10.87196;-4133.857;-4603.776;0.4040589;-0.1535792;0;
-22326.95;-17680.26;-1846.339;-26600.03;-10.03184;10.1912;-24450.5;-15690.79;0.4686202;0.04147713;0;
-31803.27;-24604.6;-2779.639;-40495.98;-14.70983;12.72632;-34429.45;-19837.58;-0.0515894;0.2363375;0;
-18715.45;-16303.19;-3861.145;-28108.96;-12.01574;14.45496;-20354.17;-14838.79;-0.2464396;0.1711327;0;
-15731.86;-13493.24;-5326.495;-25872.34;-16.42527;9.148908;-17955.55;-14090.7;0.07864475;-0.02394132;0;
-12937.59;-11131.07;-5809.96;-17994.45;-16.20769;9.675578;-13889.09;-11030.57;0.2085004;-0.08888461;0;
-361.901;-894.1194;-5017.861;-236.708;-22.68814;6.517781;10.96227;-1018.904;0.1433236;-0.3486647;0;
1803.765;1674.551;-4245.268;2104.931;-25.88053;4.367778;1876.186;1618.091;-0.2466245;-0.478249;0;
-1898.563;-2022.774;-3153.236;-1308.313;-16.67847;15.48231;-1829.229;-2135.758;-0.2463767;-0.2828664;0;
-1773.42;-1949.012;-1549.403;-976.5552;-15.99115;17.74417;-1626.991;-1906.679;-0.3110965;-0.08768018;0;
-4228.309;-4379.065;-1020.362;-3785.724;-10.14793;15.91781;-4337.493;-4767.543;-0.5056859;0.0423426;0;
-22922.97;-18075.86;-1815.093;-27195.23;-6.587762;18.24609;-25013.35;-16027.67;0.01456094;-0.02266729;0;
-32688.93;-25395.33;-2738.523;-41418.94;-7.117006;12.80226;-35265.22;-20534.01;0.07951365;0.3671595;0;
-19085.92;-16607.13;-3807.857;-28712.54;-4.296816;11.98573;-20822.98;-15108.31;0.01446641;0.1718886;0;
-15822.98;-13415.32;-5281.601;-26081.71;-8.846849;15.79159;-18108.47;-14015.75;0.4042559;-0.3480228;0;
-12982.81;-11164.7;-5770.264;-18035.77;-10.71397;15.90969;-13890.02;-11061.99;0.07901302;-0.2177385;0;
-218.3335;-791.8742;-4955.061;-96.98331;-2.531531;18.03703;164.9765;-914.9844;-0.1809357;-0.2175197;0;
1954.841;1811.629;-4182.405;2304.548;-1.859402;18.95667;2043.038;1753.922;-0.05081925;-0.2822685;0;
-1898.094;-2039.288;-3118.516;-1267.63;-6.612956;20.54521;-1809.501;-2149.285;-0.2456702;-0.4119195;0;
-1770.656;-1982.969;-1527.337;-938.9269;-6.136821;22.53406;-1615.045;-1942.9;-0.2454234;-0.02170158;0;
-4352.61;-4467.055;-991.8524;-3878.084;-14.16861;19.16227;-4445.467;-4852.891;0.274562;0.5630263;0;
-23332.22;-18264.8;-1763.936;-27573.63;-16.90104;19.61189;-25391.08;-16168.87;0.2742861;-0.08721285;0;
-32737.54;-25384.49;-2670.488;-41442.91;-9.649409;19.32425;-35280.61;-20491.94;0.01414112;-0.1520926;0;
-19049.29;-16475.69;-3749.199;-28622.58;-8.903755;17.76423;-20764.41;-14990.81;0.2090289;0.172897;0;
-16200;-13428.04;-5235.433;-26411.54;-6.482935;28.32944;-18478.7;-14026.02;0.07888422;-0.2170808;0;
-13104.58;-11152.64;-5736.417;-18196.92;-4.400316;31.11426;-14028.52;-11049;-0.3109991;-0.3467973;0;
-180.6967;-805.9993;-4936.803;-41.56374;-3.860031;24.98767;207.0551;-936.9089;0.01415011;-0.4763836;0;
1889.335;1736.908;-4161.979;2286.027;-2.918148;25.90032;1993.371;1679.327;0.2090379;-0.8007416;0;
-1837.785;-2005.473;-3082.931;-1191.164;0.6347581;19.24311;-1738.492;-2124.574;-0.1160088;-0.410133;0;
-1698.897;-1926.293;-1481.387;-839.7214;2.308084;15.74078;-1529.63;-1888.666;-0.05092492;-0.08488417;0;
-4215.097;-4359.79;-943.0433;-3707.248;-1.444304;23.29379;-4290.001;-4755.717;0.01409359;-0.3446682;0;
-23186.46;-18127.25;-1722.203;-27366.69;-0.9069891;22.1318;-25216.01;-16082.51;0.01407943;-0.4742566;0;
-32765.68;-25391.08;-2645.383;-41588.03;-8.94403;21.9756;-35318.66;-20548.8;-0.1158694;-0.1489433;0;
-19440.58;-16550.69;-3736.55;-29195.69;-13.49037;21.75257;-21174.16;-15063.62;0.1441164;0.370945;0;
-17076.09;-13647.62;-5233.667;-27489.22;0.7240548;15.90332;-19380.7;-14199.03;0.6637103;0.1756703;0;
-13724.46;-11472.9;-5738.495;-19218.98;3.134225;14.94958;-14713.65;-11342.8;0.1433047;0.04555909;0;
-214.6129;-909.8743;-4909.986;-206.4034;-2.629701;6.96383;170.3934;-1045.014;-0.181676;0.3053827;0;
1939.052;1767.976;-4122.665;2431.978;0.5217496;2.870874;2068.534;1705.264;0.2083106;-0.01976088;0;
-1868.312;-2050.648;-3072.891;-1201.016;-10.86563;8.896331;-1762.401;-2166.285;0.07816658;-0.08470837;0;
-1709.014;-1967.628;-1479.072;-795.0906;-14.6731;7.748682;-1519.424;-1930.742;0.1430554;0.1102788;0;
-4104.904;-4257.062;-923.5207;-3575.878;5.101238;11.82686;-4178.325;-4653.073;0.5327157;-0.08473406;0;
-23333.92;-18293.3;-1701.358;-27399.92;7.77543;14.69512;-25335.21;-16110.17;0.3372784;-0.08464892;0;
-33248.03;-25910.35;-2634.74;-42072.71;7.098032;5.369967;-35793.46;-20910.01;0.1420375;-0.2144985;0;
-20009.06;-16835.21;-3726.574;-29922.39;8.965934;4.359827;-21794.04;-15306.7;0.3367968;0.1105537;0;
-17728.4;-13819.17;-5216.36;-28065.91;3.799361;9.579992;-20031.84;-14223.84;0.466393;0.2403773;0;
-13974.84;-11630.84;-5725.485;-19404.89;2.590094;9.972264;-14943.09;-11367.33;0.07612035;-0.3445703;0;
-160.2347;-926.9922;-4924.039;-165.6797;-0.1591745;12.10558;226.3722;-1088.543;0.07604387;-0.2142894;0;
1931.016;1762.635;-4146.26;2474.613;-0.02431663;13.63402;2075.372;1691.467;0.5307388;-0.01917207;0;
-1812.825;-2025.796;-3085.844;-1120.084;-14.89475;14.02222;-1696.288;-2144.837;0.1404015;0.04581454;0;
-1723.532;-2004.223;-1502.694;-771.4609;-20.908;16.41951;-1527.324;-1980.185;0.07529309;0.5005399;0;
-4161.792;-4313.297;-952.6783;-3594.095;-2.131771;13.38878;-4217.639;-4709.963;0.4000542;0.3701023;0;
-23622.51;-18458.43;-1731.548;-27644.64;0.3486172;13.91119;-25583.54;-16343.18;-0.1850539;-0.1500084;0;
-33643.57;-26181.04;-2665.9;-42343.01;2.692791;17.98305;-36117.77;-21239.63;-0.3148026;-0.2797923;0;
-19799.9;-16771.38;-3731.434;-29553.7;7.043366;18.23291;-21513.16;-15252.6;0.01035038;-0.4094459;0;
-17315.88;-13604.1;-5216.218;-27703.61;4.424321;26.05148;-19591.16;-14079.56;0.3351767;-0.3440671;0;
-13882.17;-11544.01;-5739.68;-19546.04;5.960117;28.3026;-14842.86;-11346.31;0.3348399;-0.08385201;0;
-27.20695;-795.133;-4933.596;-92.87415;5.284543;24.85815;373.2071;-954.0795;-0.0553006;0.04616693;0;
2054.665;1847.916;-4182.451;2676.483;4.274855;24.63222;2208.456;1769.214;-0.1202124;0.04612054;0;
-1887.904;-2101.129;-3167.694;-1152.829;6.414013;20.38767;-1763.018;-2230.492;0.0098431;0.2409762;0;
-1779.513;-2108.981;-1599.735;-777.2029;6.473941;17.9558;-1572.763;-2094.224;0.1397679;0.2407341;0;
-4364.534;-4431.006;-1065.083;-3760.016;0.6402871;14.11985;-4413.863;-4837.146;0.2695621;-0.4091812;0;
-24013.21;-18636.58;-1843.028;-27992.68;-0.4994321;11.15854;-25972.93;-16456.43;-0.1205128;-0.6686394;0;
-33788.92;-26295.23;-2743.285;-42425.44;-1.771728;9.137837;-36244.47;-21254.38;-0.185359;-0.2131962;0;
-19853.66;-16780.61;-3810.459;-29598.38;-2.975397;7.387099;-21523.4;-15234.1;-0.05523809;0.1118548;0;
-17370.74;-13545.87;-5309.25;-27628.33;0.8459863;6.308072;-19594.83;-14034.5;0.009784758;0.1767097;0;
-13731.55;-11420.65;-5828.808;-19107.14;0.8451363;5.029058;-14653;-11227.27;-0.1201598;-0.08333724;0;
-69.29824;-872.9979;-5048.715;24.76771;5.131195;10.78441;346.1719;-1034.963;-0.05507168;-0.2131882;0;
1822.055;1603.463;-4303.545;2460.909;5.795624;12.31406;1979.034;1514.311;0.009950999;-0.1480066;0;
-2004.275;-2242.966;-3269.114;-1222.167;5.722452;12.03376;-1868.021;-2377.208;-0.184961;-0.01792323;0;
-1978.351;-2333.322;-1714.234;-914.8583;6.118844;13.49529;-1764.539;-2322.846;-0.2497425;-0.1478399;0;
-4633.106;-4684.435;-1163.881;-4054.47;1.156202;11.87414;-4682.673;-5096.147;-0.1195569;-0.2126587;0;
-24434.9;-18892.02;-1899.779;-28460.41;1.422484;12.26411;-26382.73;-16650.06;-0.4442735;0.04742435;0;
-34199.26;-26610.1;-2795.95;-42989.93;-13.71587;10.7113;-36687.36;-21545.41;-0.7036964;0.3072461;0;
-19816.09;-16838.69;-3849.953;-29802.82;-20.66831;10.16467;-21554.64;-15303.75;-0.3131853;0.3069374;0;
-17469.44;-13624.62;-5338.647;-27875.86;-4.103125;10.95825;-19747.13;-13954.16;0.0119661;0.1766943;0;
-14083.68;-11681.28;-5868.951;-19696.31;-3.697837;10.47836;-15057.75;-11359.08;-0.2479153;-0.01838532;0;
-34.39142;-854.9131;-5061.925;-74.16962;-2.957187;12.41022;376.1486;-1046.142;-0.5725029;0.1765352;0;
2093.042;1845.558;-4305.435;2803.708;0.5293851;12.5987;2269.662;1752.706;-0.2470909;0.3062925;0;
-1858.622;-2110.45;-3297.77;-1063.057;-8.246033;14.59552;-1718.74;-2248.904;-0.1818753;-0.08381934;0;
-1869.077;-2240.966;-1738.394;-780.0058;-8.036676;16.12147;-1643.268;-2243.833;-0.3116272;-0.2786371;0;
-4347.983;-4452.039;-1178.178;-3747.168;-8.363394;11.28262;-4394.952;-4867.508;0.273392;-0.08345514;0;
-24335.53;-18846.89;-1925.025;-28291.39;-9.962581;10.46749;-26244.39;-16690.58;0.4030519;0.1115308;0;
-34401.35;-26810.94;-2816.891;-43116.06;-0.6427968;13.53806;-36822.45;-21831.04;-0.1170918;0.2413534;0;
-19950.39;-16853.95;-3862.659;-29991.8;0.6979958;14.19429;-21681.43;-15325.65;-0.05200679;-0.01875852;0;
-17600.33;-13531.69;-5341.907;-28040.28;2.639678;13.57718;-19901.31;-13909.06;0.07798015;-0.01873967;0;
-14129.55;-11628.1;-5861.619;-19764;5.718484;14.36733;-15115.39;-11370.9;0.1428691;0.1761812;0;
27.87971;-831.0432;-5060.567;-24.35427;-4.000153;15.02273;438.9219;-1025.858;0.01279089;-0.2787672;0;
2098.389;1829.861;-4278.935;2857.753;-5.536375;15.40953;2285.427;1726.227;-0.182124;-0.4733891;0;
-1762.046;-2021.215;-3226.724;-938.2746;-4.9276;19.61385;-1615.987;-2167.52;-0.0520063;0.04682525;0;
-1719.483;-2139.701;-1666.671;-588.757;-8.071456;21.00078;-1482.805;-2151.755;-0.1818887;-0.08315649;0;
-4506.26;-4530.146;-1117.272;-3844.185;2.050711;21.38158;-4549.272;-4951.622;-0.376608;-0.08307293;0;
-24657.02;-18979.59;-1846.563;-28623.66;4.594245;22.69963;-26586.43;-16716.67;-0.4411969;0.2418473;0;
-34457.81;-26834.64;-2719.612;-43147.62;-6.596155;20.19857;-36886.31;-21762.12;-0.3757862;-0.08323247;0;
-19972.15;-16810.03;-3764.134;-29870.48;-7.929673;20.1113;-21683.14;-15291.5;-0.245474;-0.08314884;0;
-17649.8;-13495.57;-5246.886;-27993.91;-7.519564;18.34953;-19936.7;-13832.87;0.07960938;-0.01809795;0;
-13948.56;-11517.21;-5763.102;-19535.45;-9.520764;16.79049;-14930.31;-11217.22;0.1444967;-0.01807976;0;
255.6497;-632.7292;-4956.807;271.8863;-5.291639;21.32845;675.335;-839.8623;0.2093189;0.5016772;0;
2250.421;1970.208;-4205.107;3035.583;-5.1526;21.44099;2443.892;1859.609;0.4040106;0.1763363;0;
-1727.92;-2022.922;-3191.171;-865.4139;-7.55832;20.28074;-1573.951;-2176.481;-0.1811014;-0.1486776;0;
-1729.119;-2156.337;-1622.783;-555.9807;-8.153938;20.26036;-1483.43;-2177.308;-0.5057562;0.2412759;0;
-4366.586;-4453.889;-1071.241;-3706.854;-7.810952;15.41735;-4404.799;-4882.182;0.1444254;0.3060008;0;
-24670.4;-19090.57;-1824.036;-28566.04;-6.731377;12.58858;-26580.3;-16799.02;0.3391823;0.04582396;0;
-34634.87;-27052.17;-2703.416;-43289.45;-13.69084;16.25999;-37053.99;-21975.12;-0.05096253;-0.1491241;0;
-20186.77;-16883.21;-3743.925;-30137.23;-14.94988;15.77477;-21902.7;-15352.84;-0.2458134;-0.2139416;0;
-18122.21;-13676.81;-5215.297;-28460.07;-9.040359;8.859798;-20399.73;-13860.67;-0.180599;-0.1487593;0;
-14262.09;-11694.12;-5729.389;-19882.45;-7.691129;7.10934;-15242.22;-11286.46;0.01448448;-0.1486098;0;
228.6513;-699.7293;-4932.936;237.1333;-5.942089;4.757915;656.9076;-927.4415;-0.05049742;0.1114089;0;
2238.474;1936.071;-4153.962;3082.246;-4.998113;2.743647;2445.317;1813.894;-0.115414;0.1762643;0;
-1611.997;-1920.046;-3107.219;-713.9288;2.64272;7.295608;-1448.684;-2069.759;-0.1802654;0.1760872;0;
-1644.064;-2104.414;-1554.313;-417.2508;5.453103;8.895867;-1385.275;-2145.046;-0.1151169;0.1759102;0;
-4469.226;-4540.73;-1024.673;-3784.389;3.571614;7.279338;-4506.345;-4952.088;0.01493343;-0.2140706;0;
-25008.25;-19388.72;-1777.296;-28855.15;6.047247;9.080563;-26899.04;-16936.29;0.5996245;-0.1488881;0;
-35128.77;-27481.11;-2669.654;-43823.79;-4.80982;9.942217;-37577.37;-22278.52;0.5340546;-0.0837712;0;
-20578.9;-17036.23;-3746.46;-30674.13;-7.820073;10.40111;-22383.48;-15507.9;-0.05118804;-0.4085237;0;
-18395.59;-13704.47;-5252;-28820.43;-1.381854;18.83026;-20715.72;-13865.33;0.2087328;-0.0183092;0;
-14408.46;-11804.27;-5762.307;-20188.84;-2.317494;21.08876;-15414.37;-11388.77;0.208523;0.3065459;0;
268.4932;-687.1033;-4922.749;190.9482;2.506629;21.53633;689.7634;-931.5886;-0.5712946;0.1763032;0;
2396.888;2079.103;-4114.019;3291.791;4.17905;23.92607;2620.756;1952.211;-0.4407859;0.2410934;0;
-1489.225;-1825.602;-3056.477;-575.0587;3.103124;14.85958;-1321.585;-1985.757;0.01442842;-0.01901822;0;
-1528.395;-2008.456;-1481.352;-272.086;4.976016;12.83516;-1258.85;-2055.709;0.07938126;-0.2788685;0;
-4302.902;-4376.762;-945.6636;-3594.143;-2.732143;13.35813;-4333.695;-4791.096;0.01433416;-0.4734903;0;
-25083.08;-19428.2;-1720.48;-28901.31;-6.948956;10.53155;-26977.41;-16941.8;0.0792871;-0.5379819;0;
-35252.97;-27602.98;-2611.396;-43919.81;8.59709;15.14266;-37693.84;-22386.15;0.3390768;0.1122321;0;
-20403.15;-16951.68;-3668.677;-30480.17;12.27312;14.5246;-22177.71;-15427.41;0.1438341;0.1770867;0;
-18386.94;-13708.88;-5180.697;-28819.53;-6.226986;15.38079;-20686.26;-13781.25;-0.5059839;-0.34283;0;
-14590.46;-11914.19;-5710.879;-20454.47;-8.966419;16.9728;-15600.35;-11425.06;-0.3755408;-0.08261614;0;
274.7091;-695.6779;-4895.142;181.7393;-8.154103;9.453901;698.8898;-955.7274;-0.1802614;-0.2124678;0;
2448.044;2095.712;-4101.869;3408.263;-11.69588;9.712334;2682.518;1957.66;-0.0501456;-0.4721237;0;
-1371.888;-1717.947;-3035.469;-424.9085;-0.6984421;3.942165;-1196.385;-1878.599;-0.1150626;-0.4716493;0;
-1333.934;-1843.703;-1472.109;-50.21659;1.846879;0.05331545;-1056.877;-1911.6;-0.699653;-0.211306;0;
-4273.615;-4368.674;-970.9128;-3496.231;-5.723438;16.66454;-4288.737;-4770.726;-0.504048;-0.08115902;0;
-25014.91;-19393.37;-1755.667;-28753.85;-6.320899;18.72427;-26890.42;-16829.07;0.3410339;-0.6008162;0;
-35011.32;-27393.4;-2649.922;-43600.32;-2.429782;19.91115;-37420.25;-22127.4;0.08082189;-0.4702778;0;
-20346.88;-16818.79;-3716.034;-30321.93;-1.355614;23.84301;-22080.5;-15316.14;-0.438998;0.1149008;0;
-18401.39;-13619.55;-5225.54;-28759.81;-7.047679;11.69539;-20695.25;-13744.76;-0.04875289;-0.2100514;0;
-14520.62;-11849.18;-5771.355;-20326.22;-8.580839;11.21475;-15535.79;-11397.66;-0.1786386;-0.2748076;0;
266.0925;-736.5139;-4976.266;229.4323;-4.419031;7.921443;702.3699;-1001.081;-0.2434264;0.1802399;0;
2567.84;2198.642;-4173.979;3531.526;-3.745005;5.301271;2808.824;2052.656;0.4064916;0.5048955;0;
-1243.56;-1616.526;-3116.158;-270.8784;-6.018418;14.20443;-1064.303;-1788.368;0.4060831;0.3094862;0;
-1332.141;-1864.307;-1564.056;-4.130766;-5.677578;14.65904;-1049.506;-1943.586;-0.5038677;-0.08062889;0;
-4154.258;-4258.042;-1046.837;-3354.974;-3.595768;21.14141;-4167.431;-4649.881;-0.438394;0.2442888;0;
-25239.36;-19617.15;-1838.793;-28904.09;-2.453079;23.46457;-27109.52;-16999.98;0.3416545;0.5039127;0;
-35590.48;-27962.98;-2739.398;-44192.27;-1.378888;24.31177;-37997.89;-22655.35;0.08144189;0.1136024;0;
-20512.52;-16955.92;-3787.555;-30602.78;-0.6405678;27.03352;-22248.5;-15429.08;0.1463274;0.04852086;0;
-18351.39;-13567.7;-5304.766;-28787.57;3.713356;16.0214;-20629.77;-13640.58;0.3410824;0.1784068;0;
-14511.12;-11876.76;-5872.584;-20441.34;5.719357;13.728;-15510.03;-11388.96;-0.04906438;0.2431949;0;
367.7538;-661.0803;-5082.141;288.6047;3.8376;13.17835;810.6891;-934.2532;-0.1139824;0.3728852;0;
2591.094;2203.145;-4290.648;3625.309;4.570678;10.61975;2842.416;2043.346;0.08103413;0.2425758;0;
-1228.84;-1623.678;-3256.823;-230.2411;3.226915;14.56108;-1036.852;-1800.167;0.2758547;0.2423321;0;
-1262.775;-1814.84;-1720.415;104.1036;2.353017;14.61343;-968.3593;-1903.384;0.4055122;-0.2776501;0;
-4143.308;-4267.501;-1201.509;-3331.634;4.225687;16.47414;-4149.458;-4679.247;0.1452354;-0.4722732;0;
-25223.06;-19612.56;-1984.158;-28882.16;3.551855;17.46233;-27084.65;-16965.96;0.01515479;-0.01702725;0;
-35456.91;-27837.08;-2883.773;-44013.79;6.093882;19.99014;-37873.18;-22511.24;-0.1797625;-0.2768795;0;
-20464.16;-16853.17;-3935.908;-30532.63;7.962792;21.77847;-22220.92;-15342.53;-0.1146145;-0.08169927;0;
-18557.67;-13599.49;-5450.533;-28925.25;-0.9538165;20.14912;-20838.99;-13604.27;0.01543536;0.1132849;0;
-14639.5;-11878.12;-6009.429;-20474.03;-2.627797;21.53539;-15640.33;-11339.64;-0.1794822;-0.1466984;0;
426.1809;-621.8806;-5210.165;403.3684;2.868176;17.42792;874.4241;-916.6688;-0.04936715;-0.0815836;0;
2707.746;2291.671;-4409.298;3784.107;2.999015;16.94152;2970.929;2126.067;0.2105518;-0.4713057;0;
-1053.898;-1466.104;-3362.298;-15.31835;6.545975;21.27827;-852.8703;-1647.096;0.01543823;-0.3408974;0;
-1103.282;-1682.24;-1818.912;299.8667;8.146988;22.66353;-796.2913;-1783.356;0.01542272;0.04924916;0;
-4000.592;-4135.113;-1304.124;-3175.672;7.602939;23.04266;-4003.347;-4544.082;0.2752766;0.1791344;0;
-25290.54;-19690.09;-2091.417;-28906.36;8.465956;22.81855;-27146.06;-17013.18;0.4049347;0.2439217;0;
-35780.66;-28131.41;-2987.333;-44306.09;6.112924;33.24472;-38202.13;-22766.39;0.2745931;-0.1461274;0;
-20507.46;-16901.28;-4028.9;-30607.96;4.968682;36.42637;-22283.67;-15377.84;0.07941517;-0.40585;0;
-18278.15;-13435.15;-5542.714;-28694.98;4.69527;31.16523;-20557.75;-13471.98;-0.1155666;-0.3404748;0;
-14482.23;-11802.54;-6113.011;-20418.3;2.614447;32.54055;-15478.99;-11300.9;-0.1154505;-0.08026335;0;
464.0073;-597.2488;-5320.077;396.8766;3.683547;22.59463;915.2332;-899.7403;0.01460016;0.04975197;0;
2760.59;2320.838;-4525.971;3890.378;3.746218;18.68703;3035.279;2144.134;-0.1153492;-0.1452;0;
-1016.974;-1449.288;-3495.002;53.36431;-3.558563;23.8928;-809.0123;-1639.057;-0.44007;-0.1450541;0;
-1109.796;-1709.075;-1969.349;333.3574;-4.290946;21.52439;-795.815;-1822.958;-0.1147911;0.04999363;0;
-4050.843;-4212.239;-1452.973;-3181.086;-6.83223;24.85191;-4046.084;-4624.623;0.08022626;-0.1449586;0;
-25207.11;-19630.75;-2209.538;-28812.61;-8.098163;24.96091;-27051.17;-16911.8;-0.04978903;-0.4696497;0;
-35529.26;-27928.27;-3077.255;-44051.24;0.6848609;21.25176;-37942.22;-22552.71;0.08019568;-0.1443411;0;
-20436.08;-16815.44;-4103.177;-30529.81;2.425485;21.16343;-22219.68;-15317.03;-0.1147869;-0.01426135;0;
-18396.88;-13426.03;-5592.179;-28769.49;10.52737;14.5111;-20683.45;-13466.82;-0.1796389;-0.1441817;0;
-14528.5;-11785.06;-6144.311;-20366.26;15.40691;12.08513;-15520.44;-11291;-0.04952374;0.4406693;0;
438.3488;-655.1378;-5354.468;440.8961;8.090416;13.6136;897.6799;-967.7408;-0.3743107;0.5701612;0;
2788.211;2329.458;-4549.365;3924.452;7.612796;12.19327;3070.388;2147.666;0.01586947;0.1797842;0;
-864.4744;-1323.173;-3485.264;222.508;10.01702;14.39146;-648.6882;-1521.055;0.4706249;-0.01529848;0;
-971.3798;-1591.239;-1932.228;498.4581;8.734158;14.7789;-650.379;-1714.585;0.2102827;-0.2101851;0;
-3892.732;-4077.468;-1401.178;-3000.503;5.57755;12.68758;-3876.557;-4479.924;-0.2447;-0.2099739;0;
-25236.23;-19689.1;-2166.104;-28796.61;3.428492;12.33991;-27074.31;-16934.82;-0.5043235;0.1150738;0;
-35760.3;-28165.01;-3040.924;-44256.88;-1.531446;14.80588;-38168.83;-22763.8;-0.3089148;0.3748275;0;
-20239.03;-16737.26;-4043.019;-30271.85;-4.342947;15.86261;-22003.52;-15229.44;0.01623237;0.1795489;0;
-18048.02;-13220.98;-5535.735;-28452.37;-6.147244;10.01928;-20329.24;-13251.04;0.0811834;-0.275403;0;
-14540.64;-11801.98;-6119.314;-20645.22;-8.218148;7.999844;-15536.46;-11300.29;-0.1787675;-0.2101589;0;
457.5643;-642.1927;-5331.184;319.0771;-5.395875;13.55127;923.4595;-967.5192;-0.3085226;-0.0150457;0;
2917.259;2424.974;-4530.071;4128.232;-4.453424;14.07351;3208.945;2231.689;-0.1133106;-0.4048346;0;
-756.64;-1231.642;-3486.292;355.6191;-8.467438;8.834826;-534.7119;-1437.32;-0.178164;-0.5343625;0;
-815.1;-1457.712;-1948.997;673.7891;-9.799076;7.48629;-491.6491;-1592.156;0.01691699;-0.1440216;0;
-3755.568;-3977.589;-1419.803;-2786.196;-1.482858;8.751444;-3722.203;-4392.179;0.211802;-0.01394216;0;
-24932.62;-19446.33;-2163.908;-28462.21;-0.07484892;7.938855;-26763.32;-16744.15;0.1466219;-0.07889549;0;
-35279.23;-27718.53;-3033.983;-43660.7;-0.744359;8.265793;-37646.94;-22342.16;0.4063439;-0.2087509;0;
-19960.24;-16485.67;-4071.349;-29789.04;1.667286;8.927317;-21624.96;-14978.76;0.01613155;-0.2735085;0;
-17820.23;-13070.09;-5583.184;-28062.03;-10.99404;4.363629;-20049.26;-13184.09;-0.243754;-0.143299;0;
-14179.17;-11516.47;-6155.314;-19993.63;-14.66669;3.823381;-15160.66;-11077.94;0.4061643;0.1816817;0;
708.6836;-423.0778;-5379.267;778.2179;-5.676971;6.565717;1189.381;-743.1675;0.08091949;0.05156448;0;
3072.08;2565.361;-4592.004;4275.631;-5.335498;6.760069;3364.155;2359.739;0.01587084;-0.3382914;0;
-522.7482;-1022.336;-3534.795;632.4136;-6.268142;11.64291;-291.3274;-1241.261;0.3406916;-0.2080168;0;
-574.6653;-1237.841;-1989.299;954.7877;-5.592259;13.30578;-239.6543;-1377.866;-0.1793895;-0.07787309;0;
-3521.95;-3762.968;-1476.713;-2534.715;-4.917054;12.9575;-3484.72;-4204.498;-0.04927453;0.05213984;0;
-24706.87;-19249.59;-2251.152;-28177.14;-4.711043;13.54733;-26525.01;-16595.9;0.08070967;0.2469895;0;
-35257.87;-27730.29;-3134.851;-43621.56;-0.6204723;12.93087;-37634.81;-22389.53;-0.3091755;-0.01312806;0;
-19713.18;-16456.06;-4154.655;-29566.77;1.657327;12.58296;-21432.99;-14983.21;-0.1789301;0.05185247;0;
-17158.94;-12775.12;-5645.323;-27461.06;-5.578007;9.623188;-19430.28;-12976;-0.2437177;0.2467024;0;
-13858.41;-11340.1;-6213.394;-19799.98;-6.911573;8.340843;-14847.72;-10974.62;0.2112986;0.2464545;0;
763.4853;-358.3803;-5418.141;777.4277;-5.498108;3.509813;1248.615;-687.1749;0.341021;0.1162722;0;
3254.825;2717.247;-4617.659;4514.33;-7.904458;0.1571398;3556.809;2506.052;-0.04912575;-0.338616;0;
-402.687;-917.0333;-3579.413;786.6345;-1.265083;6.185324;-165.1774;-1148.365;0.210793;-0.2083411;0;
-445.6199;-1131.176;-2035.091;1115.194;-0.1920848;7.049887;-104.9948;-1275.413;0.4054832;0.1167049;0;
-3398.11;-3649.179;-1502.001;-2379.686;-8.162495;1.349376;-3355.63;-4102.147;0.4700431;-0.01334701;0;
-24611.7;-19136.3;-2254.144;-28096.01;-8.958576;1.013105;-26421.63;-16522.94;0.4046035;0.05163374;0;
-34974.77;-27465.22;-3128.032;-43333.14;-14.44193;4.093302;-37348.61;-22161.57;-0.1805092;0.1165492;0;
-19441.96;-16197.56;-4160.962;-29278.17;-17.44153;5.495709;-21165.35;-14752.39;-0.5701318;0.05146475;0;
-17012.5;-12615.37;-5663.649;-27232.17;-9.720845;5.423204;-19274.92;-12884.73;0.01514712;0.1163804;0;
-13657.72;-11153.83;-6243.289;-19371.77;-7.232831;6.69043;-14634.17;-10835.95;-0.04983544;0.1812308;0;
936.7055;-210.4923;-5471.682;1086.62;-16.00045;10.23368;1427.393;-538.8096;-0.17972;0.1160813;0;
3370.119;2817.479;-4670.677;4633.167;-18.1942;11.89797;3681.012;2599.686;0.2752319;0.05099736;0;
-160.0885;-696.9936;-3595.397;1057.119;-5.047751;16.10582;86.44695;-939.6174;0.209988;0.3757828;0;
-121.6812;-824.1664;-2033.63;1458.761;-4.172023;19.23783;226.2897;-975.0456;0.2747444;0.4403726;0;
-3152.067;-3425.437;-1522.686;-2070.26;2.396253;14.9316;-3094.534;-3895.394;0.1445336;-0.339678;0;
-24242.13;-18799.72;-2299.265;-27649.57;8.220994;14.84961;-26039.84;-16228.84;-0.1804483;-0.4692714;0;
-34460.29;-27007.32;-3178.043;-42682.19;-15.23056;18.58573;-36780.59;-21719.27;-0.1152996;-0.3388652;0;
-18911.85;-15875.75;-4210.86;-28472.03;-18.76523;18.29913;-20542.05;-14439.95;-0.3100858;-0.2735573;0;
-16470.8;-12347.97;-5726.24;-26605.44;-13.65616;19.68726;-18692.15;-12689.42;-0.3747416;0.05155424;0;
-13368.88;-10964.11;-6299.977;-19234.3;-15.58482;19.2657;-14334.93;-10695.76;-0.179463;-0.2083669;0;
1110.499;-39.15523;-5484.022;1206.164;-8.133446;18.2416;1617.763;-367.5447;-0.1792827;-0.2081576;0;
3648.654;3072.617;-4656.113;4964.109;-7.523037;18.35723;3964.426;2848.739;-0.04916787;0.3767577;0;
64.02225;-490.884;-3581.909;1311.377;2.665928;11.84157;317.9291;-744.99;0.08081622;0.5063138;0;
117.6184;-602.2095;-2014.596;1730.567;7.083879;10.75794;474.89;-752.0812;0.2106697;0.5707724;0;
-2878.775;-3184.978;-1507.951;-1753.032;1.11589;9.005698;-2813.106;-3671.982;0.4703274;0.5701989;0;
-23963.42;-18570.26;-2286.231;-27340.36;2.051797;7.924922;-25750.51;-16088.97;0.1450181;0.0498872;0;
-34282.93;-26832.91;-3157.526;-42508.52;-2.906757;15.08389;-36619.68;-21609.55;-0.504801;-0.2100323;0;
-18965.08;-15877.16;-4200.452;-28631.52;-4.511427;17.41314;-20630.68;-14442.13;-0.4393265;-0.4047233;0;
-16460.56;-12302.2;-5706.878;-26515.43;-9.73083;23.15605;-18681.77;-12666.56;0.08085369;-0.4043166;0;
-13178.8;-10779.39;-6259.083;-18634.02;-13.67317;27.82146;-14125.81;-10530.46;0.1457398;-0.2739757;0;
1205.75;31.26107;-5460.223;1520.712;-9.908385;25.78402;1717.352;-305.0113;-0.04930867;-0.5985371;0;
3645.14;3055.381;-4632.275;4940.417;-11.90816;27.03079;3967.666;2824.379;-0.3740958;-0.468001;0;
191.8672;-388.3966;-3517.147;1469.118;-7.007051;34.63956;455.5367;-653.5095;-0.4386873;0.1821427;0;
222.2215;-509.2579;-1944.683;1866.738;-5.124001;37.21697;586.6222;-666.7834;0.08149225;0.246927;0;
-2813.257;-3150.934;-1461.471;-1670.002;-10.81228;31.48615;-2738.983;-3651.269;0.1463777;-0.2080925;0;
-23715.17;-18362.21;-2251.011;-27084.49;-9.662339;30.78468;-25505.33;-15989.51;-0.1136387;-0.5327201;0;
-34195.36;-26676.92;-3129.307;-42422.2;-13.67209;29.94995;-36540.05;-21516.62;-0.1784919;-0.2723155;0;
-18808.41;-15796.08;-4154.333;-28457.56;-14.12687;28.24541;-20454.48;-14357.34;-0.5681166;0.4425989;0;
-15931.41;-11995.29;-5635.631;-25991.27;-9.357254;29.55656;-18111.42;-12517.21;-0.3076764;0.1173175;0;
-12975.8;-10614.72;-6196.964;-18500.5;-9.079432;29.59385;-13891.48;-10498.2;0.1474041;-0.3375718;0;
1195.555;25.33815;-5407.881;1474.012;2.717711;26.21508;1720.686;-295.0403;-0.04764598;0.1825061;0;
3790.143;3161.408;-4604.723;5134.269;8.408407;25.31796;4116.424;2916.345;0.01736923;0.1823228;0;
128.4858;-451.3603;-3541.91;1458.47;1.098941;28.57469;397.7642;-720.5242;-0.1775502;-0.1426972;0;
205.0525;-560.6484;-1959.925;1878.918;2.839149;28.67994;577.4146;-729.3735;-0.1124045;-0.07758644;0;
-2743.203;-3055.206;-1443.839;-1575.25;3.238438;31.66524;-2671.22;-3549.629;0.4724145;0.1823609;0;
-24036.09;-18620.95;-2255.48;-27330.11;1.962386;32.70514;-25828.14;-16073.11;0.08213579;0.05224296;0;
-34446.63;-26976.23;-3144.672;-42651.45;13.74941;31.66754;-36803.54;-21715.88;-0.1778161;-0.5974829;0;
-18924.66;-15821.94;-4168.933;-28675.14;18.08985;32.43951;-20604.76;-14400.52;0.01726459;-0.1421112;0;
-16251.92;-12107.7;-5666.896;-26325.2;4.005503;28.18712;-18455.66;-12484.93;-0.0477201;0.2478357;0;
-12964.95;-10581.76;-6229.728;-18381.95;1.991746;27.28802;-13896.99;-10356.37;0.2771645;-0.07725009;0;
1381.281;175.1719;-5437.457;1751.38;8.754899;27.52853;1905.211;-174.3903;0.08198404;0.05276221;0;
3757.729;3120.39;-4624.243;5132.513;8.343961;26.965;4094.117;2873.316;-0.3079024;-0.2721275;0;
221.1514;-383.2667;-3531.269;1575.969;11.9529;27.33981;496.9972;-658.4852;0.1471784;-0.4017888;0;
345.7883;-440.6338;-1940.675;2065.014;13.34741;26.70949;730.6614;-612.4869;-0.2427736;-0.07654833;0;
-2743.6;-3058.156;-1437.039;-1570.219;8.779645;32.51004;-2677.141;-3568.292;-0.502399;0.3133326;0;
-24116.66;-18678.71;-2242.221;-27387.77;7.095884;34.28579;-25904.59;-16160.28;0.1477792;0.4429525;0;
-34680.64;-27163.61;-3143.014;-42943.14;10.8398;30.70137;-37056.13;-21891.44;0.3425328;0.05270335;0;
-19300.5;-15992.48;-4190.234;-29185.21;10.69518;30.80449;-21043.72;-14534.31;0.4721233;-0.07728429;0;
-16572.79;-12194.42;-5685.208;-26717.6;4.254076;28.49624;-18782.98;-12506.39;0.4066815;0.1176954;0;
-13114.1;-10697.23;-6263.015;-18705.69;2.574862;26.39113;-14030.14;-10426.57;0.08143621;-0.01235755;0;
1326.313;87.59124;-5489.045;1593.65;-0.3081128;28.44109;1854.241;-272.0508;-0.2434823;-0.07731248;0;
3726.742;3076.579;-4693.396;5163.379;-1.915394;27.47475;4076.573;2813.047;-0.113303;-0.01226745;0;
76.45506;-545.9432;-3640.363;1457.051;-2.047191;24.23196;361.2325;-813.8641;0.08171288;-0.01225513;0;
220.4621;-591.106;-2061.434;1978.199;-2.447275;23.60476;617.0065;-794.6181;-0.1132713;-0.07721015;0;
-2784.874;-3087.554;-1550.993;-1613.375;1.038784;17.82076;-2716.204;-3539.533;0.1467119;0.1177695;0;
-24733.6;-19283.29;-2365.681;-27982.22;2.109467;15.52543;-26500.96;-16448.77;0.5363685;0.1176511;0;
-35613.11;-28078.81;-3261.915;-43882.08;6.394255;19.8636;-38021.57;-22590.89;-0.1138438;-0.2722712;0;
-19805.84;-16245.75;-4291.836;-29838.41;8.196491;19.64269;-21656.2;-14782.7;-0.4385661;-0.1420629;0;
-16851.41;-12196.11;-5778.399;-27054.29;9.058911;21.76641;-19099.4;-12440.91;0.1465806;0.4427859;0;
-13189.89;-10756.94;-6352.521;-18771.7;10.25526;22.61532;-14108.72;-10441.67;-0.1784034;0.3773737;0;
1348.393;73.10699;-5587.019;1636.785;5.623253;22.92751;1871.335;-302.2712;-0.2431914;-0.0777769;0;
3654.956;2992.941;-4795.894;5137.88;4.211083;23.70815;4018.812;2721.856;0.2118243;0.1172033;0;
117.013;-531.8119;-3735.324;1514.411;1.05902;22.41177;406.3533;-806.5908;-0.1781926;0.3769549;0;
329.2262;-501.1677;-2159.767;2111.182;-1.68871;23.52784;732.8275;-712.5459;-0.2429809;0.3116088;0;
-2722.586;-3037.467;-1636.797;-1530.188;-0.4142155;17.67693;-2649.943;-3505.082;0.3419693;0.376263;0;
-24857.58;-19414.67;-2430.783;-28039.17;-0.8159409;16.3195;-26616.75;-16518.44;0.2116911;0.2459503;0;
-35865.15;-28329.36;-3328.482;-44111.67;-7.379204;20.05403;-38288.68;-22792.66;-0.04839102;-0.07913359;0;
-20021.19;-16328.95;-4351.653;-30108.39;-10.58697;18.96215;-21923.25;-14868.78;-0.2432444;-0.07905408;0;
-17203.27;-12305.53;-5828.661;-27485.39;1.8149;28.18662;-19481.39;-12448.47;-0.3729347;0.05096004;0;
-13477.29;-10921.51;-6407.729;-19272.03;5.229328;31.17241;-14408.07;-10531.95;-0.1776579;-0.01405851;0;
1353.462;58.38767;-5643.453;1531.619;-1.07159;25.38068;1875.305;-337.3307;-0.2424468;-0.01404438;0;
3682.305;2993.354;-4849.116;5233.625;1.742526;26.025;4056.402;2713.35;-0.04730114;0.1159044;0;
-9.243993;-676.1392;-3784.214;1421.092;-4.221072;22.11396;284.8915;-956.4082;0.2126158;-0.4039508;0;
278.9173;-575.7599;-2177.092;2088.563;-5.556002;20.35019;691.0572;-802.3991;0.08246744;-0.4685122;0;
-2563.981;-2894.031;-1630.897;-1359.991;9.051617;20.32974;-2490.445;-3360.885;0.08238458;0.1166646;0;
-24933.38;-19506.58;-2448.034;-28096.47;12.52515;17.76408;-26704.52;-16534.01;0.2122365;-0.0133873;0;
-36075.18;-28562.19;-3336.689;-44291.03;15.05816;21.16224;-38497.67;-22972.45;0.3419579;-0.2732432;0;
-19941.18;-16289.33;-4326.712;-30046.4;19.19523;20.20322;-21822.77;-14834.38;0.276647;-0.2080013;0;
-17090.57;-12243.86;-5806.119;-27337.76;16.02812;18.70929;-19338.67;-12334.13;-0.04846772;0.1820118;0;
-13401.96;-10871.62;-6389.801;-19104.07;16.88267;18.62351;-14308.17;-10451.82;-0.1133864;0.5066656;0;
1447.005;134.7311;-5627.104;1678.546;16.32984;11.57183;1983.467;-281.2519;0.1465969;0.1813198;0;
3755.546;3040.307;-4830.753;5334.037;14.23733;10.35451;4137.468;2763.391;0.2763843;-0.07873181;0;
177.1008;-502.2188;-3751.565;1642.983;19.44793;5.052579;479.6159;-792.9431;0.08120458;0.05128198;0;
408.2753;-473.3378;-2155.189;2263.191;19.36104;1.497529;829.8483;-704.0656;0.1460903;0.2461325;0;
-2615.802;-2948.102;-1624.664;-1376.395;10.96884;12.88276;-2542.619;-3425.006;0.4707803;-0.1439189;0;
-24808.5;-19375.85;-2414.915;-27959.48;8.211157;15.08025;-26567.55;-16491.84;0.7951439;-0.468611;0;
-35923.12;-28421.81;-3293.577;-44143;8.069184;12.05099;-38356.29;-22871.58;0.4695082;-0.3382054;0;
-20122.02;-16319.54;-4299.635;-30242.2;7.793633;13.37841;-22061.78;-14857.85;-0.1156696;-0.3378656;0;
-17118.79;-12125.27;-5765.732;-27387.89;-1.592297;13.96782;-19396.86;-12295.97;0.2092833;-0.3375261;0;
-13153.24;-10678.81;-6331.808;-18856.77;-5.274393;14.55663;-14064.54;-10304.72;0.3390077;-0.0773176;0;
1614.026;264.317;-5562.797;1877.481;5.247106;14.542;2145.261;-146.8867;-0.1161043;0.2475968;0;
3878.578;3161.798;-4782.378;5495.291;5.040762;14.59437;4271.442;2866.684;-0.2459223;-0.01252136;0;
195.7953;-520.9201;-3752.62;1691.538;11.13127;13.441;503.1358;-815.3475;-0.1807079;-0.4023128;0;
353.0819;-537.5912;-2176.858;2230.52;13.93312;13.0256;777.2579;-784.715;0.1443104;-0.4019086;0;
-2516.221;-2879.858;-1615.358;-1238.385;6.751825;11.60599;-2428.584;-3343.218;0.01423072;-0.3365374;0;
-24730.67;-19329.49;-2385.409;-27835.19;7.615697;10.65656;-26492.2;-16384.88;-0.3106203;-0.2062646;0;
-35921.71;-28452.79;-3257.573;-44056.79;-2.707083;11.98552;-38327.9;-22877.66;-0.2453408;0.05381206;0;
-19743.57;-16199.43;-4247.644;-29741.95;-6.053266;11.77252;-21602.14;-14760.24;-0.5049637;-0.01120935;0;
-16560.22;-11892.02;-5707.578;-26747.13;-2.095068;13.03325;-18801.31;-12107.36;-0.3095543;-0.1411328;0;
-12889.68;-10500.86;-6269.557;-18495.5;-3.566832;14.09188;-13796.6;-10169.82;0.01559348;-0.01105628;0;
1745.236;395.2556;-5501.359;2092.108;4.207261;10.3268;2293.199;-24.71088;-0.4391936;-0.01104517;0;
4017.636;3268.711;-4719.753;5649.482;7.149794;9.445643;4415.67;2975.931;-0.1788829;0.1189006;0;
408.9266;-318.4128;-3658.51;1928.485;6.941539;13.05311;727.1945;-642.9764;0.6009049;0.2487158;0;
658.9523;-247.4253;-2055.263;2558.027;9.681231;13.10698;1092.92;-469.1049;0.3404318;-0.0763708;0;
-2045.866;-2462.719;-1494.51;-713.1346;10.9443;13.8976;-1938.014;-3018.289;0.2751224;0.118608;0;
-24074.78;-18724.46;-2285.516;-27086.36;13.00941;14.48648;-25787.52;-16092.01;0.2098786;0.1834562;0;
-35423.75;-27985.28;-3188.202;-43564.4;11.72354;11.1229;-37816.96;-22581.54;0.01476567;-0.01163023;0;
-19861.55;-16154.59;-4195.834;-29864.54;11.44431;10.4419;-21742.7;-14658.74;0.1446855;0.1183162;0;
-17310.78;-12254.53;-5668.376;-27455.25;14.44693;9.024763;-19558.03;-12237.97;-0.05036189;0.2481319;0;
-13417.77;-10849.01;-6240.109;-19106.08;14.23134;7.408104;-14330.38;-10321.4;0.1445907;0.3778173;0;
1744.068;349.3611;-5461.571;2034.465;11.93986;10.14696;2290.427;-99.78684;0.3393475;0.1825356;0;
4079.906;3319.095;-4670.822;5768.23;9.850785;10.67263;4491.409;3008.845;0.07913714;-0.2074518;0;
528.4023;-221.3056;-3613.001;2077.818;11.91797;7.245897;853.8939;-538.6314;0.01409028;0.1175933;0;
889.2366;-37.86285;-1997.931;2810.408;11.97237;7.104651;1333.701;-282.3593;-0.3107606;0.4423119;0;
-1734.167;-2177.406;-1427.74;-374.1607;2.248421;9.776708;-1620.312;-2735.327;-0.1805137;0.05206339;0;
-23787.17;-18481.8;-2231.526;-26747.32;0.1027076;12.0443;-25517.89;-15885.23;0.2094718;-0.2078583;0;
-35302.21;-27891.15;-3139.42;-43352.92;-3.246298;7.745294;-37689.68;-22503.58;-0.1155754;0.1171873;0;
-19582.8;-16001.38;-4147.57;-29510.81;-6.79301;7.20177;-21429.2;-14544.14;-0.05049194;0.05210219;0;
-16789.89;-11916.26;-5627.125;-26927.81;3.126802;19.58601;-19024.33;-12078.01;0.2094282;-0.07788485;0;
-13095.13;-10583.76;-6192.622;-18843.37;4.663901;23.18329;-14001.19;-10189.86;0.01431571;0.2470301;0;
1944.346;542.3506;-5396.171;2208.993;4.258049;20.4808;2503.891;99.19209;-0.245568;0.05187988;0;
4328.458;3544.14;-4595.243;6050.716;6.79839;21.53194;4743.716;3228.535;-0.3102886;-0.1430743;0;
696.4792;-73.04194;-3531.533;2270.549;3.510006;22.38109;1026.972;-403.2289;0.2097619;0.3768082;0;
939.7192;-8.594653;-1916.857;2896.686;4.84565;21.9567;1391.99;-255.1167;0.2095511;0.1815276;0;
-1724.199;-2186.382;-1349.621;-350.4687;2.027741;21.06386;-1613.789;-2764.193;-0.1154962;-0.2734262;0;
-23508.08;-18250.13;-2142.209;-26495.07;0.4181136;20.90873;-25236.07;-15702.88;0.469326;-0.3381188;0;
-35096.89;-27617.88;-3057.908;-43092.95;11.5371;11.64432;-37498.45;-22258.7;0.1440177;-0.07790971;0;
-19559.26;-15939.11;-4089.534;-29476.41;14.20385;8.149507;-21458.79;-14492.56;-0.5058004;0.37694;0;
-16223.02;-11615.64;-5562.808;-26285.13;8.831923;10.88762;-18454.75;-11928.62;-0.2454229;0.2466265;0;
-12467.02;-10173.09;-6118.53;-17851.74;8.487279;8.331326;-13318.9;-9915.97;-0.2451763;-0.07845799;0;
2096.942;690.5034;-5333.273;2566.52;11.0917;13.81543;2670.997;256.6671;-0.1799626;-0.2083138;0;
4455.117;3653.929;-4543.652;6153.262;11.0132;14.4044;4874.08;3327.428;-0.04984704;-0.3380392;0;
765.7895;-27.7999;-3484.679;2395.824;7.988026;10.17012;1109.056;-360.2822;0.2750398;-0.2727322;0;
955.518;-0.1296095;-1867.614;2941.516;7.243065;9.557056;1408.275;-268.5598;0.3397307;-0.2724582;0;
-1650.539;-2165.073;-1303.52;-198.0037;1.743431;6.600327;-1509.033;-2702.192;-0.310284;-0.3371517;0;
-23814.14;-18635.57;-2113.771;-26621.4;-1.674573;5.454985;-25488.24;-15827.14;-0.3749396;-0.2068783;0;
-35519.18;-28094.74;-3036.901;-43464.81;4.221608;-0.1099579;-37902.01;-22573.73;0.01524117;-0.07673572;0;
-19509.05;-15938.46;-4064.706;-29434.01;4.284715;-2.856148;-21381.08;-14514.43;-0.04974148;0.05327607;0;
-16130.26;-11545.65;-5543.47;-26188.96;-1.413018;-1.178705;-18326.28;-11820.05;-0.1796262;0.1181899;0;
-12506.45;-10197.86;-6097.869;-17987.67;-2.952815;-2.78511;-13362.51;-9901.355;-0.244413;0.4429078;0;
2222.13;797.5067;-5288.551;2644.445;0.7348231;0.9687322;2798.038;349.8989;-0.04926543;0.6373648;0;
4569.935;3742.974;-4481.172;6314.895;2.274326;2.039364;5000.993;3415.756;-0.1141833;0.181953;0;
821.6151;21.47275;-3427.228;2462.873;-6.100704;0.4298462;1168.595;-328.8581;-0.3089705;-0.3379686;0;
993.2653;0.8365362;-1827.337;3013.667;-7.903235;1.903039;1460.258;-260.5462;-0.6984642;-0.1427269;0;
-1712.967;-2179.225;-1271.841;-280.9875;-3.742108;-4.261181;-1590.068;-2760.293;-0.5028603;-0.01264885;0;
-23702.43;-18390.28;-2064.258;-26636.79;-6.015523;-6.802251;-25424.24;-15795.97;0.1473184;-0.1425708;0;
-35194.51;-27786.39;-2969.291;-43164.12;3.702436;2.447985;-37571.68;-22385.46;-0.2426337;0.1824092;0;
-19361.4;-15837.33;-3992.291;-29266.38;5.574726;3.316303;-21203.95;-14399.16;-0.4372919;0.3771279;0;
-16039.43;-11423.12;-5459.291;-26053.97;-3.942696;-0.3039855;-18224.74;-11743.75;0.1478536;-0.2079571;0;
-12261.85;-9985.189;-6010.494;-17526.73;-4.608319;-0.1027313;-13101.04;-9721.432;0.08273765;-0.5975522;0;
2381.073;925.3177;-5214.289;2957.651;-17.12962;-6.398901;2966.473;475.0598;-0.1772149;-0.01224573;0;
4661.143;3825.273;-4407.734;6415.72;-23.27435;-9.406643;5094.905;3490.145;0.08283257;0.3775706;0;
995.5179;166.1266;-3352.708;2676.619;-16.68688;-4.842413;1349.276;-194.4493;0.2776514;0.1822892;0;
1122.188;119.7173;-1756.484;3179.082;-18.41142;-5.105479;1593.937;-140.1405;0.08247036;0.1821061;0;
-1449.413;-1969.056;-1193.563;7.854637;-19.06251;-8.918315;-1320.138;-2581.397;0.01742015;0.05198839;0;
-23194.04;-17959.23;-1992.399;-26076.95;-17.83791;-9.177285;-24906.69;-15473.51;0.2123047;-0.4028352;0;
-34990.61;-27548.9;-2921.867;-42959.96;-20.16451;-11.17749;-37384.68;-22188.52;-0.24268;-0.5973325;0;
-19453.96;-15867.26;-3962.438;-29359.61;-18.60401;-11.90307;-21349.56;-14388.55;-0.2424362;-0.4667976;0;
-16042.01;-11437.24;-5443.647;-26077.65;-14.76692;-8.542027;-18252.45;-11725.66;0.2775461;-0.2714266;0;
-12291.88;-10030.28;-6006.985;-17759.1;-12.00639;-8.399477;-13120.7;-9750.318;-0.04756945;-0.2711538;0;
2408.077;940.6341;-5209.722;2856.606;-6.3009;-4.037208;3000.501;476.5463;0.1473804;0.1189227;0;
4776.263;3915.521;-4413.416;6589.468;-2.94469;-2.090768;5215.168;3567.186;0.6020036;0.1837706;0;
1001.749;160.0508;-3386.027;2711.199;2.550626;-4.031051;1360.238;-210.1269;0.4064968;-0.2062182;0;
1113.873;91.70547;-1795.422;3197.573;6.164409;-2.352549;1593.238;-180.3681;0.01628426;0.3137278;0;
-1405.277;-1937.554;-1227.903;70.10195;4.416903;-8.043551;-1274.563;-2559.303;-0.04869945;0.4433472;0;
-23273.06;-18044.71;-2032.889;-26130.21;4.814606;-9.576015;-24974.88;-15566.05;0.2112188;0.0530977;0;
-35207.2;-27784.8;-2955.225;-43140.18;3.3359;-3.069171;-37609.07;-22423.89;0.3409413;0.182979;0;
-19682.31;-15977.66;-3981.082;-29638.94;0.318438;-2.262414;-21638.08;-14495.76;0.1456967;0.3127299;0;
-16239.13;-11428.22;-5450.935;-26273.45;2.394223;-1.657294;-18482.49;-11678.02;-0.2442538;0.2474483;0;
-12326.1;-10009.69;-6011.298;-17677.75;0.1819904;-0.8518338;-13154.31;-9694.765;-0.3089757;-0.07763707;0;
2450.18;948.5519;-5237.644;2979.36;-7.989866;1.962305;3044.069;477.3843;-0.2436979;-0.2724611;0;
4747.187;3871.114;-4452.211;6578.681;-11.12967;3.768751;5193.256;3512.176;-0.1784856;0.1825841;0;
1003.984;144.6576;-3416.443;2743.713;-19.96072;1.822581;1369.707;-228.9121;-0.04837162;0.1824006;0;
1119.385;68.09753;-1837.459;3237.27;-24.42767;3.428218;1604.509;-214.2831;-0.1132904;0.1822174;0;
-1434.863;-1960.732;-1269.085;55.63005;-21.59008;-1.531842;-1303.97;-2588.765;0.2116602;0.3769363;0;
-23275.29;-18050.55;-2050.666;-26117.69;-22.03788;-2.735995;-24965.14;-15511.01;0.6012515;0.3115902;0;
-35285.24;-27833.31;-2966.769;-43265.8;-20.40815;4.567771;-37722.71;-22451.44;0.4057454;0.1813424;0;
-20014.33;-16070.9;-3994.77;-29996.3;-18.7127;5.233011;-22042.06;-14591.39;0.01553364;-0.1436765;0;
-16625.67;-11629.04;-5461.829;-26685.45;-13.67006;10.92118;-18896.11;-11714.82;0.08048537;-0.2734668;0;
-12454.32;-10160.12;-6024.086;-18002.21;-10.77691;13.92432;-13309.15;-9726.559;-0.04953018;-0.07829002;0;
2493.832;979.8243;-5245.016;2920.154;-4.536788;7.881983;3077.866;473.015;-0.5042518;0.2466254;0;
4764.542;3874.587;-4463.042;6665.195;-0.2453224;6.936424;5229.16;3510.138;-0.4387778;0.3763123;0;
959.3684;73.11858;-3442.35;2719.603;-4.531983;8.536923;1328.145;-301.4125;0.08140183;-0.01386994;0;
1113.858;54.77304;-1854.063;3259.363;-3.522076;6.920877;1610.683;-243.4355;0.2112547;-0.1437907;0;
-1429;-1985.959;-1268.024;74.6875;-5.193476;6.311076;-1292.305;-2595.368;-0.1787616;-0.07867886;0;
-23349.22;-18146.75;-2031.709;-26213.22;-6.996919;5.96982;-25043.13;-15597.46;-0.1136146;-0.1435671;0;
-35268.66;-27884.45;-2924.625;-43189.79;-5.717091;-2.475906;-37680.3;-22449.79;0.2763036;-0.01348821;0;
-19757.86;-15976.97;-3942.829;-29725.25;-8.591734;-4.750716;-21756.49;-14478.61;0.2110586;0.05149269;0;
-16203.74;-11326.42;-5398.852;-26221.14;-4.764708;-2.267696;-18439.01;-11594.85;0.3407812;0.05144095;0;
-12124.96;-9875.398;-5948.617;-17395.9;-5.162062;-2.3324;-12928.02;-9582.146;-0.1792999;-0.07854543;0;
2560.281;1015.461;-5172.589;3176.416;-12.79269;0.01434619;3163.107;528.4058;-0.6988585;0.1814029;0;
4826.505;3920.824;-4386.878;6714.101;-13.38207;0.818127;5293.153;3552.355;-0.04848288;0.5060573;0;
1103.728;201.6737;-3364.138;2901.955;-24.35431;8.721046;1483.154;-188.0396;0.2764025;0.1157448;0;
1165.634;88.44974;-1792.765;3349.188;-28.14725;12.12841;1669.678;-205.8728;-0.04871189;-0.2741756;0;
-1314.838;-1900.717;-1198.761;217.4103;-22.89504;11.0445;-1167.715;-2537.416;-0.3085323;-0.3388674;0;
-23219.04;-18057.78;-1946.211;-25972.54;-25.08186;13.77958;-24881.89;-15548.54;-0.1782876;-0.01369024;0;
-35311.55;-27926.73;-2846.677;-43193.46;-10.78941;8.34024;-37717.03;-22514.91;0.01679355;-0.07864382;0;
-19943.17;-16010.09;-3856.464;-29899.21;-5.956777;7.795995;-22002.56;-14487.22;-0.1781253;-0.4034015;0;
-16550.89;-11448.71;-5311.168;-26568.92;-11.64422;9.395752;-18822.21;-11593;-0.04801168;-0.07815946;0;
-12343.83;-10025.22;-5873.015;-17842.09;-8.015197;8.649499;-13134.74;-9629.987;0.2119059;0.1168211;0;
2658.784;1083.402;-5091.348;3124.406;-18.58971;12.32475;3266.392;583.9659;0.08175832;-0.403035;0;
4947.742;4027.973;-4324.583;6908.129;-21.85357;12.37935;5425.726;3645.496;0.01670883;-0.1427607;0;
1097.438;171.5499;-3322.646;2917.393;-9.373025;15.64907;1488.141;-206.9198;-0.0482753;0.6369909;0;
1183.276;89.8092;-1731.449;3389.77;-8.158158;16.97301;1694.479;-225.999;0.01674055;0.05164474;0;
-1294.684;-1897.298;-1137.445;258.5608;-9.086989;13.6068;-1136.973;-2504.08;0.6014298;-0.5331132;0;
-23417.71;-18268.02;-1905.79;-26221.31;-7.001754;13.92805;-25089.23;-15612.69;0.6008254;-0.2727082;0;
-35364.75;-28032.23;-2787.025;-43244.38;-13.29136;8.153642;-37745.19;-22552.74;-0.1793863;0.1173699;0;
-19658.34;-15865.43;-3773.508;-29575.76;-15.28676;5.667202;-21635.83;-14385.14;-0.5690101;0.2471866;0;
-16379.13;-11324.14;-5229.42;-26303.67;-6.832282;9.144499;-18611.39;-11491.84;-0.4385037;0.1819709;0;
-12219;-9848.826;-5789.819;-17481.9;-6.222204;8.331515;-13012.61;-9482.703;-0.3730958;0.3117228;0;
2820.859;1235.254;-5028.256;3431.042;-7.757169;8.792024;3437.488;721.5129;-0.3077535;0.3763769;0;
5004.77;4056.484;-4266.303;6962.848;-7.146163;8.716207;5487.689;3677.208;0.01739242;-0.01380536;0;
1261.307;327.7649;-3230.035;3108.911;-12.76506;9.913141;1656.801;-72.82237;0.1473096;0.1161432;0;
1356.898;239.5734;-1639.337;3593.87;-14.09238;11.04189;1875.572;-69.45398;0.08219427;0.05105915;0;
-1180.847;-1808.638;-1057.138;414.4017;-14.61408;7.882598;-1019.046;-2456.544;0.6018503;-0.3387962;0;
-22828.62;-17705.14;-1814.57;-25574.39;-15.20164;8.209592;-24491.69;-15244.08;0.276409;-0.1435537;0;
-34623.74;-27324.18;-2703.205;-42452.29;-18.1341;6.928667;-37000.48;-21981.56;-0.1136728;0.3763292;0;
-19559.68;-15693.43;-3715.26;-29423.79;-21.19734;5.783117;-21548.49;-14221.13;0.1463108;0.5058858;0;
-16457.54;-11304.41;-5182.225;-26346.85;-6.975167;11.73867;-18687.91;-11500.85;-0.178673;0.3754428;0;
-12074.09;-9734.77;-5734.613;-17301.65;-3.485534;12.19563;-12844.84;-9392.181;-0.04855875;0.1151962;0;
2942.262;1326.113;-4956.177;3578.586;-16.07434;14.12588;3569.526;806.2598;0.1463921;-0.07982162;0;
5199.451;4245.079;-4181.333;7179.897;-18.53643;15.92023;5686.357;3852.012;0.01631029;-0.07974141;0;
1425.793;467.7408;-3157.926;3308.407;-12.69066;7.866398;1831.766;58.62445;0.08126124;0.0502734;0;
1419.066;285.9245;-1577.452;3673.647;-11.53883;6.251026;1938.761;-32.60737;-0.04875509;0.1801576;0;
-974.3297;-1613.518;-991.754;660.6716;-24.58903;8.187128;-792.7366;-2265.655;0.01626124;0.05004186;0;
-22840.34;-17730.31;-1764.181;-25524.17;-27.31099;8.312867;-24471.79;-15245.03;0.08121224;-0.2748451;0;
-34975.91;-27688.71;-2664.643;-42772.58;-25.07274;5.692302;-37353.96;-22325.66;0.146098;-0.1446343;0;
-19683.43;-15818.97;-3679.829;-29506;-27.45845;5.418651;-21652.71;-14330.17;0.0160165;-0.07952161;0;
-16363.47;-11307.24;-5153.107;-26178.71;-14.77218;11.44155;-18576.88;-11404.36;-0.1789016;-0.2743437;0;
-11932.43;-9739.131;-5698.528;-17061.74;-10.80522;13.37243;-12735.04;-9320.628;0.2110822;-0.4689701;0;
3133.349;1485.643;-4908.602;3851.977;-13.54005;16.90897;3755.893;950.7515;0.2758374;-0.5334662;0;
5299.454;4339.871;-4136.493;7301.854;-9.842753;19.1694;5798.402;3941.652;-0.1142438;-0.2080935;0;
1534.331;545.2905;-3113.443;3434.848;-17.46867;19.55204;1941.481;130.9327;-0.309031;-0.01298236;0;
1551.343;412.1842;-1525.423;3841.332;-19.7283;19.93429;2086.487;93.2263;0.1460509;-0.07793666;0;
-859.7238;-1546.808;-937.8103;796.0474;-8.723761;19.84727;-669.4749;-2222.61;0.4707409;0.05207634;0;
-22584.46;-17533.23;-1702.608;-25245.65;-7.844339;19.02354;-24202.22;-15102.03;0.1454311;-0.01294333;0;
-34625.64;-27333.32;-2608.41;-42406.55;-9.645119;14.71764;-36980.25;-22024.38;0.4051544;-0.142865;0;
-19601.77;-15687.24;-3645.548;-29391.19;-8.630073;12.89431;-21586.48;-14208.17;0.4697146;-0.07775412;0;
-16741.06;-11508.4;-5122.078;-26543.61;-14.91804;5.379509;-18970.47;-11465.73;0.01447126;-0.01270865;0;
-12279.09;-9906.513;-5655.661;-17513.21;-16.04213;1.422233;-13059.67;-9373.569;0.1443914;-0.1426306;0;
3145.724;1490.609;-4847.131;3808.145;-19.57598;4.568879;3781.448;938.2493;0.01431163;0.1173821;0;
5328.496;4334.259;-4064.808;7388.486;-23.37373;3.492562;5836.113;3928.412;-0.05067009;0.4421009;0;
1443.248;445.6062;-3048.232;3382.821;-14.37526;5.297591;1863.54;36.54445;0.1442828;0.3766893;0;
1492.632;326.187;-1454.5;3816.984;-15.23147;6.96672;2034.018;-9.906446;0.01420319;0.1814088;0;
-889.6556;-1578.324;-852.8406;792.8696;-14.61296;3.543712;-692.8902;-2235.356;0.403993;0.05129183;0;
-22685.35;-17628.29;-1613.632;-25326.78;-13.72762;2.870322;-24308.21;-15079.2;0.2736523;0.3111097;0;
-34605.46;-27338.82;-2497.378;-42345.06;-24.56481;10.83828;-36932.95;-21958.83;-0.1164267;0.2458297;0;
-19407.06;-15568.06;-3507.329;-29121.13;-25.54451;12.3009;-21317.45;-14085.21;-0.1163097;-0.2091887;0;
-16720.96;-11527.54;-4994.618;-26475.37;-36.23611;10.88202;-18918.39;-11405.34;-0.3110949;-0.1440112;0;
-12357.41;-9967.106;-5548.974;-17644.99;-41.15619;11.94269;-13147.09;-9392.416;-0.05091288;-0.2088338;0;
3142.097;1467.681;-4750.297;3782.7;-30.39855;5.366604;3787.818;892.9654;0.3389423;-0.598428;0;
5351.062;4334.702;-3962.792;7440.23;-30.7028;3.95457;5864.779;3919.421;0.2736344;-0.3379573;0;
1551.999;541.6727;-2928.11;3511.647;-21.76334;1.472228;1975.244;124.3419;0.1434248;0.2470883;0;
1558.076;365.0139;-1340.246;3920.193;-17.45456;-0.8065487;2109.831;14.24104;0.01334598;0.2468401;0;
-942.093;-1622.042;-747.165;749.1741;-21.25444;3.012167;-754.6624;-2273.061;-0.1166021;0.3765267;0;
-22853.35;-17796.5;-1496.194;-25457.63;-18.82219;2.205345;-24459.6;-15139.29;-0.2464196;0.5710504;0;
-35004.11;-27660.88;-2389.053;-42761.79;-22.88911;8.700352;-37370.07;-22198.51;-0.3761067;-0.07919682;0;
-19923.25;-15807.24;-3414.886;-29755.57;-23.46932;11.7727;-21986.75;-14298.34;-0.3107615;-0.1440846;0;
-17180.85;-11736.36;-4890.43;-27001.51;-22.57411;6.268517;-19449.11;-11466.2;0.4041916;0.2458643;0;
-12604.04;-10140.99;-5439.113;-17989.46;-23.15464;8.204601;-13385.63;-9458.367;0.7935895;-0.07921951;0;
3166.129;1485.751;-4641.233;3750.747;-24.00203;2.168015;3803.357;885.7542;0.01318397;-0.1441073;0;
5485.795;4446.238;-3835.847;7619.75;-25.5855;-0.2454269;6010.658;4018.117;-0.2466986;-0.01402777;0;
1622.348;596.0158;-2800.886;3602.937;-17.38812;13.35199;2052.465;172.3703;0.07838595;-0.2089157;0;
1598.416;389.4579;-1223.332;3983.358;-14.28919;15.81694;2154.147;19.88306;-0.1815622;-0.0787711;0;
-807.1534;-1513.04;-626.34;903.0737;-23.04972;13.72458;-605.1627;-2161.259;0.01352228;-0.0137246;0;
-22961.55;-17925.83;-1388.546;-25532.08;-23.29498;15.11743;-24560.09;-15224.25;0.07847603;-0.1436455;0;
-35253.07;-27982.01;-2285.043;-42980.69;-19.45318;13.02577;-37618.27;-22483.21;-0.1165048;-0.01356648;0;
-19810.45;-15798.41;-3285.212;-29602.87;-18.29455;12.1419;-21867.59;-14283.4;-0.05142044;-0.2084549;0;
-17087.52;-11656.67;-4758.95;-26889.59;-18.81204;13.00048;-19353.12;-11363.66;0.01359857;-0.3381801;0;
-12671.03;-10179.14;-5322.632;-18174.28;-18.86048;12.85345;-13461.41;-9483.199;-0.2462845;-0.1429383;0;
3233.842;1533.951;-4525.463;3755.141;-13.01438;6.74521;3878.704;927.9288;-0.5059063;-0.207762;0;
5545.929;4482.474;-3726.409;7732.351;-12.53181;4.930015;6079.901;4050.864;0.01434071;-0.0126512;0;
1643.19;604.9946;-2690.215;3651.785;-7.429008;4.255232;2078.551;176.2858;0.2092283;0.4421329;0;
1604.886;365.5536;-1105.151;4028.471;-4.07264;1.772588;2169.899;-15.32635;-0.375688;0.3767213;0;
-990.5012;-1686.329;-516.9919;776.4309;-18.46951;8.335012;-787.6235;-2312.703;-0.5052451;-0.143396;0;
-23267.17;-18227.23;-1270.812;-25800.71;-21.19762;8.728535;-24852.36;-15428.47;-0.4397702;-0.07828453;0;
-35466.41;-28197.25;-2156.964;-43184.02;-17.22421;7.648037;-37836.43;-22661.56;-0.5042956;0.1166962;0;
-20112.07;-15942.97;-3175.346;-29901.02;-18.07755;8.310182;-22195.52;-14383.13;-0.0490175;-0.2082578;0;
-17494.05;-11965.16;-4659.502;-27259.42;-18.93005;2.27349;-19767.3;-11399.26;0.08096643;-0.3379833;0;
-12759.58;-10349.96;-5210.447;-18194.86;-20.11647;1.065635;-13569.5;-9462.572;-0.04904961;-0.1427416;0;
3329.158;1601.939;-4404.489;3915.46;-11.05393;-1.011907;3966.924;961.2632;-0.373837;-0.2075655;0;
5583.553;4514.13;-3607.305;7786.531;-8.430857;-1.613736;6131.941;4073.123;-0.3734614;-0.07742228;0;
1794.626;722.2639;-2567.327;3811.701;-11.50287;-3.420654;2230.332;284.714;0.01671791;0.1825249;0;
1794.431;550.2336;-974.1403;4244.089;-10.15214;-4.555805;2368.083;169.2983;-0.3731029;0.0524068;0;
-663.1689;-1403.884;-381.7088;1068.263;-13.69191;4.089327;-466.935;-2079.648;-0.4376954;-0.2724826;0;
-22771.44;-17770.68;-1145.629;-25318.53;-14.74988;6.161689;-24368.42;-15139.98;0.08248314;-0.6620128;0;
-35199.25;-27898.01;-2046.056;-42899.79;-13.52961;8.76771;-37588.89;-22431.03;-0.2424364;-0.3365109;0;
-19981.01;-15831.65;-3059.458;-29786.11;-13.64974;10.70141;-22152.64;-14269.25;-0.04729082;0.183566;0;
-17434.27;-11877.66;-4543.136;-27234.98;-16.91758;11.82924;-19763.46;-11371.77;0.1476587;0.05344681;0;
-12887.2;-10356.96;-5114.157;-18498.98;-18.24072;14.09477;-13678.04;-9504.965;-0.1773264;0.0533931;0;
3295.231;1567.697;-4311.044;3756.917;-11.79204;4.837211;3938.324;920.9909;-0.4370175;-0.07659523;0;
5636.335;4532.069;-3505.397;7894.264;-9.435661;3.291743;6186.609;4073.808;-0.5015458;-0.206453;0;
1763.381;687.3828;-2478.264;3801.01;-14.78481;1.948777;2206.797;249.9787;-0.1762051;0.05362386;0;
1763.546;489.0883;-902.0962;4234.299;-15.57424;-0.7323768;2342.369;78.59484;-0.3709301;0.1185373;0;
-777.3558;-1510.133;-314.5471;984.067;-7.252222;6.435289;-571.6769;-2148.412;-0.30559;0.1833856;0;
-23127.11;-18137.13;-1076.785;-25676.94;-5.704693;6.495806;-24721.07;-15309.84;0.1494884;-0.07666808;0;
-35627.03;-28305.91;-1974.939;-43319.06;-10.58908;10.97713;-38015.82;-22727.38;0.2143056;-0.3364604;0;
-20210.91;-15910.47;-2979.573;-29999.47;-12.78827;13.51133;-22380.54;-14369.51;0.3440249;-0.4010897;0;
-17445.58;-11770.49;-4451.619;-27202.67;-7.283062;7.536399;-19774.58;-11285.79;-0.2410268;-0.3357193;0;
-12797.3;-10260.07;-5020.952;-18342.37;-5.735502;7.796759;-13587.75;-9428.312;-0.500654;0.2493241;0;
3416.48;1672.867;-4226.772;3926.75;-21.87201;3.100241;4061.631;1021.679;0.01958777;0.1841062;0;
5770.784;4648.69;-3439.137;8058.71;-25.26629;0.6188794;6328.486;4184.922;0.2144701;-0.2058828;0;
1875.113;773.5113;-2427.907;3947.894;-26.11156;4.637112;2326.542;331.3703;0.1492873;0.05419343;0;
1876.102;591.1847;-856.225;4370.259;-30.50595;4.364521;2458.84;174.2255;-0.1756994;0.3140084;0;
-633.0225;-1399.159;-264.1619;1148.329;-15.60582;3.757288;-417.6549;-2031.372;0.08434647;0.1837582;0;
-23084.52;-18124.91;-1017.237;-25601.1;-12.57505;4.021445;-24669.64;-15237.85;0.6040004;-0.1412632;0;
-35561.86;-28269.74;-1902.706;-43207.78;-15.84495;4.419302;-37899.98;-22645.34;0.2785569;-0.2710559;0;
-19810.55;-15717.27;-2893.358;-29522.98;-12.68119;4.749776;-21876.67;-14197.82;-0.1115271;-0.07588156;0;
-17054.4;-11577.96;-4367.177;-26810.12;-21.44236;5.81673;-19336.74;-11155.12;-0.0464477;-0.20574;0;
-12740.95;-10199.83;-4953.867;-18398.82;-23.83269;5.944851;-13536.07;-9405.349;0.148501;0.05433609;0;
3461.305;1712.425;-4172.374;3924.098;-14.29692;8.015226;4119.13;1060.096;-0.2414523;0.2491835;0;
5854.294;4702.403;-3389.76;8178.109;-12.67497;9.815712;6421.831;4229.594;-0.111275;0.05403112;0;
1906.627;798.5914;-2369.49;4000.862;-17.68607;3.308627;2366.351;347.4648;0.2786409;0.2488789;0;
1940.412;630.5762;-784.998;4467.996;-17.19979;2.635473;2534.575;204.2969;0.2783609;0.1836614;0;
-631.9484;-1409.673;-196.7545;1179.126;-19.39233;5.111194;-410.1956;-2046.199;0.2131139;-0.01142514;0;
-23009.71;-18064.74;-941.6198;-25511.52;-21.38258;4.771143;-24577.65;-15165.59;0.08296505;0.118521;0;
-35330.05;-28056.94;-1812.173;-42940.61;-11.84927;10.45978;-37669.44;-22443.41;0.147849;0.313304;0;
-19758.36;-15619.98;-2809.694;-29470.78;-10.29712;12.05673;-21862.11;-14120.81;0.08273312;0.4429238;0;
-17088.53;-11546.14;-4277.288;-26816.7;-11.09106;13.85316;-19386.14;-11111.75;0.08265;0.1176421;0;
-12636.52;-10098.79;-4849.668;-18150.05;-8.466972;16.11666;-13419.53;-9290.014;-0.04736774;0.1824912;0;
