Fp1;Fp2;O1;O2;POLY3;POLY4;A1;A2;Video;Audio;event;
-22933.7;-14721.01;-2419.129;-24798.3;-4.366276;15.89493;-22999.42;-9715.037;-0.1066764;0.07861048;0;13:09:07 Рука;
-14090.15;-9570.25;-3303.737;-15926.23;1.196841;11.25725;-14146.82;-7045.847;-0.1715365;0.1434989;0;
16091.18;11580.19;-2756.394;16324.52;-0.6120471;7.628987;16132.69;7988.695;0.02353786;0.0783873;0;
21901.73;14185.71;-1784.142;24089.14;3.205985;8.960858;22101.4;10747.93;0.3483509;-0.1815608;0;
18067.95;11479.22;63.7536;19992.81;8.360328;8.34913;18205.4;8237.655;0.02316418;0.01352363;0;
20902.19;13590.74;2338.983;22921.66;0.5150458;5.393492;21074.33;10244.44;-0.3016958;0.2084121;0;
17318.26;11702.48;3242.678;18913.17;-3.035445;3.579594;17352.17;8267.981;0.08841139;0.1432353;0;
-10690.65;-7594.165;2748.104;-10979.38;-1.424805;0.02596297;-10911.08;-5834.195;0.1532899;0.4029608;0;
-26136.45;-17741.1;1621.22;-28048.35;-3.298407;-4.327832;-26313.73;-12987.64;-0.3666029;0.1426865;0;
-15272.47;-8114.621;-247.7202;-17392.64;0.1875316;-2.983824;-15395.33;-6196.278;0.0885369;-0.2472609;0;
-22263.85;-14180.12;-2408.916;-24157.07;2.66559;-3.650656;-22327.29;-9235.084;0.6081867;-0.3119798;0;
-13673.63;-9192.057;-3289.536;-15492.69;1.724906;-5.656415;-13729.65;-6670.277;0.02286948;-0.3116663;0;
16189;11620.82;-2753.108;16473.29;3.866627;-5.583748;16233.52;8010.44;-0.5618595;-0.1814185;0;
21919.81;14219.41;-1787.888;24114.32;1.117051;-9.396104;22121.55;10789.15;-0.2364583;-0.2462036;0;
17998.06;11407.48;62.82276;19919.86;-1.027525;-10.59229;18135.49;8166.697;0.2185507;-0.1160215;0;
20910.67;13599.31;2366.477;22937.91;2.523481;-13.59582;21086.41;10260.64;0.1533637;0.07899712;0;
17629.96;11961.98;3283.73;19207.57;3.793743;-17.13219;17665.93;8507.734;0.4780464;-0.05101694;0;
-10450.73;-7509.445;2763.566;-10756.88;3.120346;-13.63193;-10670.99;-5802.125;0.5425333;-0.2458677;0;
-26222.11;-17820.87;1627.359;-28142.38;-0.299041;-13.48427;-26392.24;-13015.14;0.02224947;0.07921606;0;
-15689.6;-8348.746;-241.3694;-17818.08;8.94466;-9.920743;-15806.18;-6338.361;-0.2376422;0.2090712;0;
-22917.26;-14745.93;-2414.972;-24820.51;20.85839;-6.494706;-22976.53;-9810.806;-0.3023708;-0.180943;0;
-14026.78;-9529.841;-3284.06;-15874.01;3.221287;-7.224993;-14073.45;-7066.369;-0.302067;-0.2457285;0;
16169.04;11621.42;-2720.932;16427.34;-5.690558;-4.873391;16218.13;7991.447;0.1530079;0.2092898;0;
21911.98;14201.14;-1733.381;24106.35;-0.9294181;-7.7487;22114.06;10776.93;0.4776909;-0.05078987;0;
18172.1;11581.76;137.4525;20091.51;-6.152421;-8.477665;18309.68;8346.604;-0.04252783;-0.4405429;0;
21118.69;13806.59;2434.628;23140.56;3.83312;-9.942771;21292.58;10460.2;-0.3673218;0.3395079;0;
17490.54;11854.43;3336.946;19095.44;8.986833;-12.746;17524.38;8416.6;-0.04211601;0.6640034;0;
-10611.78;-7579.219;2832.47;-10892.17;9.648363;-8.71428;-10842.07;-5860.155;-0.107041;0.01366283;0;
-26110.98;-17722.69;1715.778;-28026.73;17.27448;-7.432909;-26294.56;-12968.36;-0.3668028;0.07861644;0;
-15611.21;-8389.251;-144.7309;-17723.09;5.601847;-3.473509;-15731.49;-6347.95;0.1533045;0.1435048;0;
-22864.26;-14749.39;-2310.731;-24754.93;-1.436379;1.888494;-22928.64;-9733.647;0.4130198;-0.1814761;0;
-13871.54;-9409.492;-3189.107;-15699.29;-0.09576533;0.2790059;-13928.63;-6939.985;-0.2370686;-0.4411631;0;
16214.73;11619.13;-2652.78;16502.99;-6.927196;-0.1231721;16260.32;7988.628;-0.04192841;-0.1158831;0;
21897.34;14193.84;-1683.116;24088.1;-0.7582939;5.771328;22099.15;10774.32;0.5428198;0.5339068;0;
18052.71;11468.26;179.4521;19970.77;3.462027;8.645795;18190.88;8231.128;0.3473724;0.4684029;0;
20873.5;13556.3;2478.866;22903.92;-5.918574;10.51251;21049.8;10202.57;0.1521213;0.2730303;0;
17451.75;11813.43;3388.51;19011.4;-7.319147;14.1189;17486.07;8422.392;0.02203374;0.2077886;0;
-11025.6;-8069.862;2866.054;-11348.8;-15.95198;9.61698;-11250.95;-6169.647;-0.1728904;0.1426124;0;
-27160.92;-18726.21;1736.209;-29065.81;-25.31405;7.12907;-27337.34;-13733.27;-0.04278202;0.1424691;0;
-16371.07;-8925.962;-114.4808;-18473.79;-17.38439;7.523804;-16489.84;-6795.277;0.2820977;0.01239128;0;
-23488.6;-15289.51;-2279.184;-25365.88;-12.94629;6.04262;-23545.15;-10206.25;-0.2379245;0.07734617;0;
-14589.63;-10068.59;-3156.046;-16403.04;-17.35391;5.835599;-14637.16;-7358.934;-0.4325875;0.2072031;0;
15971.72;11492.82;-2614.801;16255.44;-19.41355;4.423155;16014.33;7969.916;0.4124226;0.1420276;0;
21988.42;14283.46;-1636.727;24187.83;-10.68553;5.356411;22188.05;10822.2;0.2820736;0.0119502;0;
18172.1;11579.47;236.696;20093.68;-3.97699;4.480311;18311.26;8353.722;-0.04304658;-0.3128985;0;
20970.67;13667.14;2529.899;22996.52;-3.972994;7.556963;21146.39;10318.66;0.08693136;-0.1826494;0;
17559.82;11889.56;3439.336;19139.78;-2.428761;12.37202;17593.56;8444.076;0.1518113;0.3372729;0;
-10674.19;-7722.128;2928.385;-10994.29;3.133385;5.259519;-10909.21;-6048.784;0.2166262;0.07706457;0;
-26550.35;-18138.27;1803.476;-28484.55;9.158457;1.972193;-26738.33;-13358.34;-0.3682976;-0.2478496;0;
-16496.11;-9209.461;-48.78141;-18593.79;4.26011;3.376791;-16614.9;-6989.676;-0.6927642;0.2721382;0;
-24991.66;-16829.87;-2231.948;-26834.86;2.31247;2.033801;-25029.61;-11516.22;-0.3672314;0.2068974;0;
-15878.12;-11115.23;-3117.821;-17693.36;2.913359;4.376099;-15894.19;-8247.268;-0.1719604;-0.05317985;0;
15847.6;11524.77;-2577.286;16107.82;-0.5721925;5.175436;15903.88;8050.207;0.4778858;0.1417756;0;
22021.22;14288.62;-1628.094;24209.13;4.251153;8.251451;22217.38;10816.08;0.6073403;0.2715679;0;
18057.45;11465.52;214.8035;19973.42;5.854472;13.40072;18195.86;8238.958;0.02202396;0.271295;0;
20920.44;13626.17;2501.469;22946.38;5.178029;9.837163;21095.81;10281.18;-0.2378675;0.07612035;0;
17517.34;11821.72;3419.462;19081.05;7.450001;8.9565;17548.39;8390.95;-0.1726612;-0.05389082;0;
-10681.72;-7741.251;2919.9;-11017.22;1.950159;12.76553;-10919.29;-5955.165;0.152349;0.2060327;0;
-26490.91;-18180.31;1810.898;-28423.68;-0.1279055;13.08762;-26677.67;-13336.56;-0.2376081;-0.119011;0;
-15638.5;-8463.517;-16.19209;-17778.36;-2.739745;17.49522;-15762.39;-6451.271;-0.4972387;-0.3787608;0;
-23078.88;-14974.75;-2189.693;-24977.43;-7.493391;19.35304;-23146.64;-9941.016;0.1529343;-0.2484456;0;
-14529.17;-10006.62;-3102.501;-16342.27;-3.198954;21.61101;-14581.99;-7293.228;0.217748;-0.3781306;0;
15923.02;11389.97;-2596.371;16216.37;-2.592527;25.54117;15969.38;7858.91;0.0875945;-0.1828486;0;
21793.73;14095.8;-1656.921;23999.86;-1.183402;19.48716;21992.51;10639.78;0.2824085;0.01223712;0;
17990.47;11405.12;188.5362;19911.3;0.693797;18.06106;18126.29;8185.882;-0.04271196;0.07719216;0;
20826.54;13504.34;2460.111;22857.37;-0.513325;12.75138;20999.79;10142.81;-0.2375711;0.4019513;0;
17176.29;11569.39;3357.905;18717.29;-0.1106676;6.50928;17206.1;8179.444;0.1524717;0.3365801;0;
-11068.84;-8077.694;2871.149;-11425.04;-2.25401;9.650816;-11299.23;-6197.864;0.2172858;-0.05356216;0;
-26936.84;-18471.27;1767.943;-28830.21;-1.916953;8.502409;-27114.36;-13468.29;-0.1077692;-0.1184757;0;
-16479.91;-9016.157;-76.62643;-18550.27;-7.875897;11.64206;-16597.7;-6788.313;0.3471105;-0.183324;0;
-24334.47;-16118.63;-2249.738;-26176.96;-12.35596;14.44353;-24376.3;-10898.16;0.606631;0.01176225;0;
-15794;-10992.71;-3167.312;-17623.3;-11.67396;15.56772;-15813.7;-8110.04;0.08628278;0.2066525;0;
15422.51;11216.24;-2659.977;15644.41;-14.34155;18.70016;15475.3;7753.608;-0.2386406;0.3363795;0;
21855.37;14134.03;-1712.576;24044.16;-9.504367;19.01628;22053.06;10652.14;-0.3033682;0.5309435;0;
17895.1;11292.02;105.8567;19827.56;-6.681778;21.14063;18034.79;8077.176;-0.04319398;0.4654427;0;
20794.5;13497.81;2369.394;22819.34;-4.799054;19.77973;20969.15;10133.57;-0.1081179;0.4000077;0;
17431.3;11772.79;3294.422;19002.99;-2.449707;17.95144;17460.22;8404.313;-0.3678786;0.2696711;0;
-11271.17;-8338.514;2800.858;-11569.18;0.5668641;20.41164;-11505.52;-6392.135;-0.0426723;0.009530723;0;
-27777.17;-19337.07;1674.983;-29653.15;6.459816;19.52036;-27947.58;-14264.6;0.2822073;0.2044232;0;
-16868.82;-9350.651;-165.4006;-18977.83;-1.517277;21.2423;-16985.46;-7126.203;0.02205436;0.3991198;0;
-24112.91;-15876.64;-2337.221;-25971.12;-7.677694;23.16346;-24159.31;-10673.87;-0.1079025;0.3987188;0;
-15550.97;-10870.2;-3252.958;-17319.85;-2.646138;16.70994;-15555.39;-7883.958;0.08710796;0.07348141;0;
15564.55;11224.73;-2737.041;15836.55;-2.84455;11.66956;15627.38;7816.747;0.02205309;-0.1214944;0;
21866.93;14144.65;-1793.451;24052.14;-3.645975;10.92102;22064.25;10648.9;-0.1079038;0.333399;0;
17900.83;11314;32.09081;19827.65;-3.507613;8.833573;18043.49;8110.27;-0.23773;0.138162;0;
20805.31;13487.86;2309.07;22835.81;-5.782241;3.265297;20981.32;10116.31;-0.1075565;-0.5766176;0;
17293.53;11679.74;3243.123;18847.35;-5.440662;-0.08706935;17327.98;8320.356;0.2173883;-0.4461035;0;
-11169.54;-8220.672;2768.789;-11507.25;-10.0569;-5.713426;-11398.23;-6329.581;0.0872352;-0.1208186;0;
-27438.53;-18938.91;1647.35;-29304.34;-15.00426;-12.47278;-27608.72;-13839.68;-0.3676238;-0.2506318;0;
-17681.19;-10105.06;-213.2457;-19732.02;-8.089331;-8.240443;-17785.36;-7645.19;-0.4322218;0.1394241;0;
-26418.01;-18161.4;-2388.813;-28249.66;-1.851912;-5.954743;-26441.03;-12716.71;-0.3018528;0.3991533;0;
-17623.62;-12472.19;-3285.367;-19438.56;-7.543478;-9.029914;-17617.28;-9226.926;-0.3665169;0.008948192;0;
14756.46;10907.86;-2752.082;14960.72;-9.880424;-8.953857;14816.91;7628.347;0.02365548;-0.1209955;0;
21786.32;14039.03;-1775.025;23960.39;-2.636827;-8.676929;21980.28;10495.52;0.1535664;-0.1208739;0;
17948.77;11330.74;109.7806;19877.9;-0.8255162;-9.070107;18090.76;8141.494;-0.236392;-0.05578511;0;
21144.97;13864.66;2430.004;23153.63;6.207911;-4.975157;21319.09;10483.02;-0.3011218;0.2041403;0;
17796.42;12100.85;3339.698;19386;11.8951;-0.8842605;17831.8;8746.451;0.2838869;0.009033164;0;
-11458.4;-8573.872;2802.017;-11728.79;13.62544;-3.026826;-11686.38;-6585.526;0.6084383;-0.2508453;0;
-28334.88;-19828.88;1664.365;-30210.8;22.25193;-3.023784;-28514.27;-14637.03;0.2829902;-0.1206585;0;
-18144.41;-10529.54;-185.7217;-20238.61;8.900337;-1.480139;-18256.84;-7933.763;-0.1070981;-0.1205373;0;
-26198.11;-17941.06;-2375.793;-28049.7;-0.1509353;-1.880549;-26229.3;-12442.21;0.08791149;-0.05544885;0;
-16938.21;-11984.47;-3276.843;-18745.24;3.60026;1.604392;-16942.71;-8820.896;0.2827252;0.07454155;0;
15285.66;11197.57;-2727.715;15518.12;-7.053277;4.415941;15344.11;7875.83;0.2174738;0.009499308;0;
21883.49;14128.37;-1764.192;24058.97;12.24392;3.071906;22078.34;10594.2;0.2172552;0.0744571;0;
17897.35;11299.73;74.09531;19823.15;29.78041;3.738649;18035.13;8106.646;0.1520696;0.2692843;0;
20773.84;13470.12;2360.559;22793.73;7.245199;2.931097;20945.03;10073.98;-0.1729199;0.07411171;0;
17258;11610.09;3281.785;18827.71;1.678214;0.918725;17286.9;8315.451;-0.1727462;-0.3807341;0;
-11574.7;-8662.31;2782.55;-11892.63;-4.552763;4.80269;-11815.1;-6611.39;0.02232944;-0.05551488;0;
-28567.29;-20056.69;1637.515;-30423.55;-16.26984;7.142267;-28750.44;-14689.32;0.08727435;0.334345;0;
-18645.84;-11016.94;-247.246;-20639.77;-6.809016;4.790688;-18759.16;-8039.868;-0.04274803;-0.05579504;0;
-25988.09;-17762.02;-2412.472;-27794;-5.663098;3.111362;-26022.26;-12192.14;-0.1726398;-0.1207063;0;
-16530.94;-11598.97;-3276.471;-18367.68;-3.581303;4.38085;-16532.91;-8639.383;-0.3673683;-0.0556177;0;
15162.22;11100.08;-2730.967;15379.76;1.847303;4.64438;15220.25;7739.803;-0.5619012;-0.1854965;0;
21733.86;13987;-1750.184;23914.36;-1.637178;2.831235;21925.73;10466;-0.3664346;0.3344286;0;
17868.1;11266.85;130.6617;19797.65;-0.4300842;3.699168;18007.6;8066.868;0.08870501;0.1391906;0;
20743.2;13436.33;2428.25;22770.25;0.1735603;-2.734788;20914.58;10045.5;0.2835179;-0.2507533;0;
17160.29;11537.67;3334.073;18727.97;1.111391;-8.693338;17191.24;8236.215;0.3482004;-0.05559936;0;
-11808.77;-8850.232;2832.13;-12116.6;0.7081327;-3.527039;-12036.93;-6752.641;0.2828831;-0.1205108;0;
-28630.51;-20108.99;1701.195;-30463.2;-4.048001;-1.045188;-28801.11;-14743.82;0.1526642;-0.2503244;0;
-18282.66;-10658.93;-178.3209;-20286.86;7.208223;-3.321557;-18391.13;-7841.451;0.2824455;-0.1851056;0;
-25879.4;-17630.54;-2366.104;-27679.61;15.17256;-4.925749;-25906.12;-12062.65;0.4120964;0.2048845;0;
-17044.82;-12014.2;-3260.339;-18837.04;7.721598;2.44714;-17032.32;-8803.396;0.08684561;0.2046786;0;
14908.26;10929.78;-2710.291;15141.94;7.848537;10.21452;14974.75;7683.324;-0.2380784;-0.3152658;0;
21841.06;14087.16;-1719.83;24022.6;1.14187;5.113674;22033.26;10526.86;0.08699756;-0.120047;0;
17875.13;11272.21;152.146;19811.04;-5.825502;3.835921;18017.62;8082.176;0.4117469;0.01000833;0;
20907.22;13604.04;2465.643;22928.16;-3.072983;7.917964;21081.06;10204.8;0.2164311;-0.3148384;0;
17329.44;11705.94;3377.987;18897.23;-4.275344;6.034486;17364.93;8406.082;-0.3684924;-0.3145221;0;
-11929.01;-8954.008;2847.545;-12227.56;-4.67319;15.87467;-12144.07;-6765.258;-0.4330895;-0.4441407;0;
-28698.87;-20189.7;1707.568;-30538.58;-3.93156;25.03514;-28863.66;-14834.75;-0.172785;-0.2487924;0;
-18115.3;-10497.93;-158.4298;-20132.37;-5.467851;15.83356;-18222.95;-7781.033;-0.04267668;0.07629427;0;
-25442.41;-17196.48;-2333.927;-27258.41;-7.539437;13.20532;-25470.03;-11718.89;0.1522682;0.01125026;0;
-16495.94;-11525.17;-3239.969;-18324.13;-2.105878;12.05346;-16499.36;-8524.556;-0.0427868;0.0762063;0;
15057.52;11043.78;-2729.016;15269.79;1.311513;8.022497;15114.46;7681.024;-0.4975152;0.2060644;0;
21764.23;14018.08;-1751.716;23942.59;0.7079592;9.688888;21960.23;10497.31;-0.3021133;0.2058574;0;
17894.36;11286.13;116.6055;19821.72;3.452938;7.870735;18035.85;8075.036;-0.2368424;0.01074849;0;
20759.05;13456.6;2392.063;22784.58;-1.507025;9.738227;20931.87;10075.69;-0.3665391;-0.119197;0;
17281.29;11644.03;3292.831;18834.65;-3.916408;12.27379;17316.29;8292.305;-0.04133406;-0.05410989;0;
-11571.34;-8608.526;2781.09;-11910.13;-5.520063;7.572777;-11790.63;-6562.706;0.2835442;-0.1839902;0;
-28243.89;-19743.06;1624.844;-30119.89;-10.06887;5.220765;-28411.32;-14491.93;0.3482266;-0.118838;0;
-17560.18;-9955.52;-264.9019;-19641.04;-5.43705;6.15328;-17673.53;-7466.022;0.02304001;0.2061182;0;
-24927.7;-16664.98;-2454.597;-26776.74;-3.690275;5.27632;-24964.3;-11312.3;-0.3018199;0.07597634;0;
-16322.81;-11398.92;-3349.945;-18098.95;-5.093086;6.141796;-16322.87;-8299.304;-0.3664839;-0.05403468;0;
15189.42;11107.61;-2793.389;15433.63;-5.087969;8.14499;15252.65;7782.222;-0.1712137;0.1409217;0;
21961.43;14210.73;-1820.023;24132.51;-5.082856;3.917065;22155.22;10670.81;0.2187624;-0.1840567;0;
17952.37;11342.81;30.37675;19881.88;-3.738579;1.233872;18091.24;8128.997;0.3484773;-0.3138064;0;
20882.11;13586.29;2335.937;22899.71;-6.816281;4.581657;21054.47;10216.87;0.08825779;-0.3784584;0;
17652.85;11952.8;3241.446;19247.35;-6.742083;6.854473;17691.28;8538.363;0.1531364;-0.5729802;0;
-11071.47;-8199.773;2713.984;-11342.33;-9.883141;5.909825;-11292.85;-6308.914;0.4128519;-0.1826004;0;
-27576.87;-19150.09;1576.546;-29463.93;-13.42318;4.899143;-27754.41;-14111.81;0.2825024;0.1424198;0;
-17109.72;-9595.327;-289.8506;-19215.32;-6.779239;8.980057;-17227.26;-7296.201;0.2822186;-0.05262535;0;
-24745.87;-16525.98;-2470.713;-26612.69;-3.155105;8.636119;-24785.55;-11281.36;0.3469023;0.07736221;0;
-15747.52;-10976.73;-3368.653;-17549.43;-0.740061;14.9907;-15756.61;-8101.87;0.08668439;0.01231714;0;
15613.08;11393.86;-2832.754;15877.07;0.1977116;22.81252;15672.87;7928.467;0.216532;-0.05266258;0;
21865.77;14128.26;-1860.083;24055.15;8.771328;12.07257;22061.87;10634.25;0.4112164;0.07732502;0;
17980.06;11369.88;6.192576;19909.54;15.12553;9.850001;18121.23;8138.966;0.1509339;0.1422147;0;
20866.83;13581.03;2309.591;22895.02;14.37339;1.802335;21043.36;10227.56;0.02084753;0.2720065;0;
17503.17;11769.6;3226.714;19092.11;19.11535;-10.2561;17540.53;8329.625;0.08579392;-0.1180709;0;
-10593.34;-7684.706;2737.467;-10886.86;8.847389;0.002351576;-10819.1;-5901.908;0.3455771;-0.1179523;0;
-26296.98;-18013.02;1630.833;-28221.99;2.140694;2.212725;-26470.42;-13158.69;0.6050992;0.2719703;0;
-15249.12;-8160.023;-219.5011;-17400.76;1.602679;2.143519;-15357;-6223.959;0.7344258;0.271697;0;
-22558.8;-14493.07;-2390.97;-24449.24;-3.422773;7.968697;-22608.17;-9553.7;0.6037533;0.4013587;0;
-14344.05;-9761.258;-3294.347;-16150.59;-1.744394;-0.3449496;-14383.19;-7064.051;-0.1764615;0.4659228;0;
15888.93;11402.42;-2769.564;16156.98;-3.886096;-5.301218;15938.78;7862.001;-0.1762842;0.3355199;0;
21870.2;14159.63;-1798.706;24063.05;-0.1311465;1.067365;22071.85;10698.45;0.0837623;0.4001501;0;
17959.16;11360.27;63.91634;19885.91;1.542948;2.673822;18096.36;8115.824;-0.3061259;-0.05502335;0;
20803.29;13493.87;2374.534;22834.61;3.350059;3.809845;20978.08;10149.13;-0.435753;-0.2498701;0;
17678.68;11983.93;3314.55;19254.45;9.442262;5.145615;17713.89;8514.762;0.01945624;-0.1196843;0;
-10377.15;-7458.084;2827.993;-10691.17;-0.1454189;5.810274;-10606.07;-5794.168;0.2143387;-0.4444008;0;
-26177.99;-17880.64;1725.986;-28101.15;-3.159383;7.813923;-26351.76;-13055.76;-0.1107134;-0.5089216;0;
-15246.86;-8256.303;-111.3885;-17378.68;-5.835526;5.059772;-15367;-6370.491;-0.1755695;-0.1186062;0;
-23761.61;-15721.22;-2304.518;-25603.58;-10.58508;4.920722;-23813.19;-10688.13;-0.04545836;-0.05351965;0;
-16259.13;-11225.58;-3235.03;-18061.88;-6.153819;1.700658;-16280.11;-8165.533;-0.2403147;-0.05346588;0;
15190.73;11120.64;-2709.964;15402.35;-7.018291;-3.324649;15242.19;7723.876;-0.3700079;0.01155519;0;
21933.29;14201.42;-1734.417;24114.83;-0.04599043;3.644795;22128.83;10684.47;-0.1747341;-0.05342376;0;
17882.59;11263.96;118.3637;19818.4;2.834444;8.396737;18025.02;8049.41;0.02034349;-0.1833048;0;
20812.53;13532.42;2413.091;22833.13;9.730472;4.838327;20986.65;10171.39;-0.0446443;-0.1181532;0;
17697.08;11942.08;3345.54;19271.86;19.56731;4.6995;17733.43;8476.253;-0.04459944;0.2717696;0;
-10589.96;-7731.224;2854.705;-10896.54;11.37597;6.771248;-10811.06;-5953.688;0.02041272;0.2065291;0;
-26719.96;-18410.8;1742.707;-28640.16;14.84717;6.228581;-26893.33;-13484.64;0.1503269;-0.1185151;0;
-15586.13;-8468.072;-90.40515;-17734.87;-0.1709528;11.58084;-15698.78;-6468.855;0.0852085;-0.2483307;0;
-23070.37;-15000.96;-2260.567;-24958.47;-17.78693;15.45409;-23125.9;-9982.367;0.08512288;-0.1181465;0;
-15164.48;-10386.79;-3190.296;-16997.85;1.923196;13.36209;-15213.74;-7538.701;0.4098741;0.4666783;0;
15554;11253.47;-2689.231;15784.23;8.552696;14.21944;15599.3;7773.368;0.2795275;0.5311767;0;
21894.16;14175.32;-1739.333;24088.14;7.739819;10.85613;22096.15;10698.01;0.08434463;0.07587158;0;
17931.17;11331.31;86.74732;19858.91;11.28202;8.768748;18070.27;8094.341;0.01929254;0.2057301;0;
20790.33;13483.46;2375.603;22812.26;12.87827;6.348673;20967.27;10135.71;-0.04569418;0.4004253;0;
17764.33;12083.48;3324.894;19338.12;16.61637;2.055448;17803.18;8609.802;0.01931907;-0.1846831;0;
-10436.31;-7510.067;2837.547;-10735.32;12.71491;4.53169;-10653.72;-5853.49;0.4091037;-0.3793995;0;
-26722.85;-18347.79;1721.692;-28614.16;9.620676;4.661102;-26888.8;-13460.58;0.47366;0.01078573;0;
-15921.93;-8721.697;-116.4894;-18042.46;11.75446;3.651736;-16042.83;-6706.114;-0.111522;-0.2490945;0;
-24398.82;-16289.67;-2312.846;-26241.67;16.69915;3.380135;-24438.82;-11139.97;-0.11141;-0.3787789;0;
-16830.88;-11786.03;-3257.578;-18613.73;1.075953;4.046506;-16828.56;-8593.802;0.1485713;-0.1185289;0;
14998.76;10977.5;-2746.747;15225.64;-13.19237;6.788741;15058.81;7636.913;-0.1114473;-0.05344246;0;
21922.14;14183.95;-1783.954;24107.2;0.08374957;0.8205606;22118.9;10657.8;0.0835667;-0.05338876;0;
17954.46;11343.68;59.25659;19890.87;0.9543215;-3.93593;18101.66;8123.824;0.01851539;-0.3781718;0;
20920.43;13635.69;2348.952;22941.41;6.513068;-0.3150189;21097.76;10292.36;-0.3713073;-0.1828898;0;
17776.87;12063.97;3292.242;19377.47;14.81192;-1.18548;17813.83;8561.137;0.01886987;0.207098;0;
-10441.13;-7528.62;2811.549;-10720.1;7.62974;0.8251987;-10671.2;-5956.829;0.5385897;0.2068899;0;
-26925.8;-18576.5;1692.628;-28820.3;10.43609;3.637592;-27107.15;-13698.92;0.3431464;0.206682;0;
-16178.59;-8933.529;-143.4628;-18309.89;3.392029;-1.791559;-16304.21;-6797.052;-0.1119697;0.141507;0;
-23568.33;-15444.48;-2319.834;-25450.47;1.78103;-4.535998;-23618.13;-10312.11;-0.5016613;0.4012342;0;
-15421.95;-10665.65;-3252.189;-17190.51;0.8412357;-5.938082;-15430.32;-7654.109;-0.4361899;0.3358637;0;
15521.97;11247.73;-2747.517;15804.48;-2.843305;-8.946225;15580.53;7832.098;-0.04594753;-0.05427784;0;
21996.74;14273.02;-1811.523;24179.63;6.536674;-9.071201;22192.87;10769.2;-0.3057707;0.07571138;0;
18087.17;11475.1;-0.424394;20012.69;-2.110082;-9.062087;18226.52;8244.098;-0.5003655;-0.2492014;0;
20950.47;13662.63;2276.681;22973.71;37.87975;-12.06715;21125.3;10322.28;-0.2399934;-0.05404897;0;
17980.49;12231.09;3211.267;19565.26;73.67719;-12.18899;18015.3;8722.723;-0.1747849;0.270842;0;
-10036.38;-7183.668;2715.475;-10333.63;47.01106;-15.6598;-10283.52;-5641.216;-0.2395766;0.07566787;0;
-26105.55;-17828.13;1590.217;-28018.48;50.31273;-21.47145;-26298.54;-13072.62;-0.04443386;0.1405592;0;
-15347.37;-8330.979;-265.1678;-17474.48;29.83298;-11.20174;-15471.78;-6455.525;0.2154801;-0.1844188;0;
-24052.18;-16006.07;-2481.084;-25898.62;6.359715;-5.831968;-24098.84;-10947.31;0.02036162;-0.05429877;0;
-16386.32;-11489.13;-3421.586;-18165.97;21.3575;-6.562859;-16389.32;-8333.008;-0.1095935;0.3355598;0;
15513.53;11296.39;-2892.584;15750.76;18.7231;-1.867581;15572.89;7929.788;0.08541862;0.2702553;0;
22264.33;14532.28;-1931.362;24444.37;21.51732;-8.161979;22455.52;11006.79;-0.04460189;0.3349511;0;
18387.92;11779.26;-73.96375;20315.23;25.58252;-10.76605;18527;8552.704;-0.1744918;0.07474519;0;
21464.85;14176.09;2229.109;23484.32;23.94922;-10.0854;21636.81;10846.47;-0.3042511;-0.2501666;0;
18162.34;12430.25;3127.823;19749.67;25.26433;-9.941303;18196.68;8865.248;-0.1090434;-0.3798499;0;
-9783.311;-6853.947;2603.067;-10103.5;28.45412;-12.00772;-10015.65;-5484.03;0.2808702;-0.2495336;0;
-25804.86;-17485.09;1466.74;-27723.79;30.70271;-17.01926;-25989.94;-12819.74;0.02071865;0.01058652;0;
-15392.54;-8339.529;-404.4188;-17505.98;31.34144;-4.945533;-15514.14;-6324.675;0.08566517;-0.05439146;0;
-22890.44;-14858.71;-2600.83;-24777.6;35.6642;2.360393;-22956.04;-9924.727;0.2155138;-0.1193042;0;
-14420.95;-9849.074;-3524.204;-16220.26;23.30351;3.429748;-14472.63;-7225.652;0.08536255;-0.1841516;0;
16021.01;11524.33;-3025.615;16306.74;12.89859;9.320617;16066.77;7947.922;-0.1096252;-0.4438359;0;
21966.12;14260.61;-2092.574;24159.33;16.50198;6.833005;22165.43;10813.9;-0.04454775;-0.2484879;0;
18115.05;11514.96;-262.312;20035.69;13.94078;6.893122;18248.52;8266.041;-0.1094703;-0.05333625;0;
20996.55;13691.75;2024.365;23021.31;12.05076;7.489042;21168.11;10363.36;-0.3692297;-0.1832173;0;
17977.83;12269.81;2952.051;19573.73;12.17237;7.012637;18013.26;8736.093;0.08591269;-0.2480006;0;
-9899.447;-6981.852;2454.896;-10189.99;6.265646;5.933863;-10131.23;-5523.835;0.2157611;-0.3127187;0;
-26037.76;-17723.54;1334.085;-27953.35;1.973419;2.310884;-26219.41;-12983.08;-0.2392271;0.0124322;0;
-15278.1;-8234.448;-521.0427;-17396.3;2.774743;7.198255;-15396.76;-6292.734;0.08584995;0.1423544;0;
-22968.95;-14933.27;-2712.246;-24834.43;-0.9790894;9.9372;-23032.63;-9975.15;-0.1091383;-0.1826254;0;
-15030.7;-10326.81;-3620.453;-16841.69;4.849043;6.511208;-15081.03;-7496.196;-0.9536041;-0.05250717;0;
15631.25;11246.84;-3086.566;15888.9;11.07346;5.968801;15676.6;7752.409;-0.5628419;0.2723823;0;
21875.35;14161.38;-2110.766;24072.27;0.9482784;3.082599;22076.19;10689.12;0.2173318;0.2721086;0;
18008.38;11408.6;-250.3762;19937.33;-2.066784;-0.1356182;18146.25;8173.814;0.152146;0.2068679;0;
20884.94;13579.48;2043.91;22912.28;-6.485337;0.3333986;21059.53;10244.63;-0.2378109;0.20666;0;
17842.69;12153.23;2983.227;19443.68;-13.31132;0.1321148;17882.94;8626.445;-0.1726046;0.2064524;0;
-10150.05;-7218.543;2501.157;-10420.5;-9.011041;-3.418052;-10372.49;-5759.293;-0.2373985;-0.3784612;0;
-26402.44;-18044.86;1383.954;-28274.02;-8.667194;-5.624994;-26566.19;-13208.32;-0.3021273;-0.5080156;0;
-16108.27;-9009.276;-457.0739;-18183.53;-8.122622;-5.753307;-16205.67;-6814.819;-0.2368564;0.1421683;0;
-24884.06;-16819.2;-2638.705;-26693.02;-5.033001;-6.350312;-24912.44;-11569.8;-0.5614551;0.01209075;0;
-16857.2;-11871.7;-3544.582;-18608.79;-7.974705;-5.942094;-16857.95;-8728.484;-0.6908256;-0.5076601;0;
15242.39;11130.22;-2993.233;15506.94;-8.904696;-5.601209;15305.47;7772.84;-0.3003274;-0.1823133;0;
22004.43;14267.11;-2016.402;24193.5;-5.61322;-3.921008;22199.01;10756.68;0.08977839;0.07773923;0;
17992.19;11382.93;-156.232;19927.76;-4.536829;-2.510487;18132.3;8154.161;0.02472084;0.01269378;0;
20989.14;13697.58;2157.356;23011.99;-0.04429157;-1.235289;21163.88;10375.71;-0.4950427;0.07764836;0;
18007.47;12298.92;3078.693;19604.71;6.654534;-0.6982453;18043.59;8755.918;-0.429578;-0.182299;0;
-10014.45;-7087.14;2547.833;-10290.61;0.6186517;1.311944;-10247.3;-5612.006;-0.2342443;-0.4419852;0;
-26421.24;-18062.87;1394.508;-28316.18;-3.467807;2.918155;-26604.96;-13270.03;-0.1690416;-0.3116064;0;
-15627.7;-8437.74;-484.4184;-17736.81;5.04312;0.9057962;-15741.64;-6496.267;0.350867;0.07851073;0;
-23254.31;-15178.45;-2694.727;-25117.33;7.783743;1.373767;-23315.29;-10239.7;0.2205798;0.3383012;0;
-15462.65;-10706.89;-3604.014;-17267.37;11.99548;-4.789922;-15516.87;-7762.821;-0.364348;0.2080266;0;
15452.39;11186.12;-3056.9;15711.52;18.34742;-11.48322;15494.54;7755.917;-0.2990145;0.07788289;0;
21866.25;14151.24;-2091.5;24059.4;12.70193;-7.653775;22067.12;10655.65;0.09108999;0.2077393;0;
17898.81;11289.94;-237.4226;19824.52;8.738024;-6.306426;18036.86;8064.83;-0.03893622;0.4024326;0;
20853.07;13558.5;2070.156;22881.15;13.55104;-10.85487;21026.25;10222.7;-0.3637338;0.2720936;0;
17749.84;12065.9;2998.265;19328.18;13.93956;-12.71942;17786.95;8552.216;0.02643572;0.07691813;0;
-10244.36;-7251.132;2503.749;-10568.05;14.3277;-11.90285;-10469.72;-5699.218;-0.2334602;-0.2479959;0;
-26100.87;-17826.34;1388.574;-28035.93;19.40352;-11.48899;-26279.18;-12998.13;-0.493095;-0.312714;0;
-15044.09;-8201.569;-457.0506;-17187.24;5.31785;-10.40578;-15175.47;-6213.663;-0.03782814;0.07740425;0;
-23451.42;-15470.42;-2639.073;-25301.39;-8.083104;-10.12739;-23509.99;-10390.27;-0.1027575;0.3371958;0;
-16281.62;-11234.12;-3538.311;-18044.97;4.517321;-5.227583;-16293.64;-8178.092;-0.1026542;0.4018244;0;
15091.65;11001.09;-2969.649;15349.96;7.594241;-1.002527;15153.59;7595.731;-0.1025511;0.3364533;0;
21888.1;14149.88;-1972.681;24077.89;6.380185;-1.068442;22083.06;10649.81;-0.102448;0.2711479;0;
17798.18;11186.8;-105.4641;19733.71;11.33027;0.2722292;17936.75;7959.925;0.09255694;-0.183896;0;
20796.34;13512.22;2222.191;22816.4;2.611346;1.477648;20968.93;10186.02;-0.2323728;-0.5085479;0;
17878.11;12173.17;3172.635;19464.59;-0.5391101;3.284642;17913.53;8640.98;-0.03723726;-0.1182329;0;
-10022.45;-7013.552;2672.51;-10327.4;-1.542946;0.4011364;-10249.01;-5498.489;0.3526042;0.01182061;0;
-25841.55;-17620.98;1555.01;-27777.38;-6.296818;-2.881369;-26020.25;-12858.84;0.0274132;-0.2480606;0;
-14633.31;-7903.012;-282.6612;-16782.28;0.2062432;0.7385432;-14761.27;-6075.573;0.092353;-0.182844;0;
-22597.83;-14668.48;-2464.39;-24477.86;0.6081776;3.48404;-22669.59;-9760.144;0.2221949;0.4670131;0;
-15308.51;-10461.57;-3371.909;-17110.73;8.042306;-2.547802;-15357.37;-7536.934;-0.1028651;0.7264132;0;
15353.9;11081.36;-2830.323;15613.3;19.22001;-8.774472;15398.41;7620.602;-0.3626311;0.1409772;0;
21723.4;14006.59;-1860.793;23918.73;6.339973;-1.464699;21924.4;10526.64;-0.232332;-0.05406645;0;
17730.26;11122.4;-6.619972;19656.21;-0.7663439;2.019763;17868.61;7882.086;0.1577055;0.07592256;0;
20837.65;13557.35;2323.684;22858.49;4.794132;-1.733188;21013.26;10244.24;0.4174164;0.07584627;0;
18277.05;12499.16;3291.705;19877.08;2.109997;-0.5927979;18314.36;8908.988;0.3520296;0.2057047;0;
-9616.938;-6749.574;2800.05;-9902.274;7.733955;-6.218585;-9850.469;-5482.203;0.2217412;-0.1193387;0;
-25601.74;-17454.16;1691.042;-27527.05;16.70214;-10.09729;-25775.44;-12835;-0.1033183;-0.7039248;0;
-14621.95;-8047.917;-133.3348;-16746.07;0.6768039;-9.350328;-14731.17;-6151.483;-0.2331492;-0.3134135;0;
-23619.73;-15721.09;-2324.849;-25436.74;-7.964065;-11.14947;-23656.64;-10651.27;-0.1029802;0.0767055;0;
-16659.49;-11470.36;-3251.234;-18428.86;-2.463706;-9.262747;-16662.79;-8357.451;-0.1678441;-0.2482083;0;
14916.05;10910.37;-2720.467;15151.29;-5.341618;-9.387405;14974.9;7514.878;-0.1027081;-0.6377629;0;
21692.96;13962.56;-1758.293;23876.48;4.845155;-6.698717;21885.67;10466.5;-0.1026049;-0.4422201;0;
17727.85;11108.41;100.6649;19655.63;13.2794;-5.218422;17865.75;7877.932;-0.03753446;-0.116939;0;
20944.42;13677.73;2438.763;22959.68;8.711709;-4.007486;21118.84;10367.07;0.02747059;-0.1168215;0;
18341.32;12540.27;3405.076;19946.93;3.880184;-0.3865029;18383.33;8958.828;-0.03752435;0.01323054;0;
-9330.088;-6477.123;2900.094;-9604.977;13.92299;-6.883276;-9552.954;-5199.25;0.2223827;-0.05175009;0;
-25363.68;-17143.56;1765.499;-27258.7;18.26326;-9.153718;-25538.1;-12546.56;0.09222458;0.07823659;0;
-14534.84;-7820.342;-74.13244;-16626.4;8.063503;-12.49361;-14653.89;-6004.474;-0.03780277;0.467962;0;
-23029.62;-15114.06;-2270.454;-24836.88;4.84022;-16.76784;-23078.96;-10125.71;0.3520393;0.1426551;0;
-16035.19;-11000.92;-3201.329;-17758.73;-9.766678;-15.34441;-16046.17;-7868.571;-0.03811851;-0.1823249;0;
15127.18;10971.55;-2673.547;15417.65;-12.50255;-18.41014;15190.56;7602.704;-0.1680149;-0.1171744;0;
21787.67;14056.08;-1736.971;23974.8;-42.49737;-11.62649;21985.01;10541.32;0.221958;0.07784536;0;
17643.27;11040.35;80.95516;19576.66;-74.47178;-7.930871;17782.76;7838.876;-0.03813441;0.4675712;0;
20701.32;13403.24;2385.528;22724.34;-48.60913;-5.980397;20874.9;10058.13;0.351708;0.1422647;0;
17625.84;11957.22;3335.09;19202.86;-46.41683;0.2548422;17654.96;8468.005;0.7411585;-0.6374863;0;
-10496.76;-7506.03;2851.48;-10798.98;-31.83551;-6.778439;-10738.88;-5879.405;0.1557078;-0.4419438;0;
-26411.83;-18083.18;1743.077;-28325.7;-9.967814;-8.915021;-26600.39;-13239.23;0.02561667;-0.05169569;0;
-15499.08;-8447.862;-83.35108;-17621.48;-21.14358;-10.84857;-15616.59;-6369.923;0.1555256;-0.3115131;0;
-23117.84;-15086.17;-2251.209;-24980.02;-14.75933;-16.33008;-23179.76;-10014.34;0.02543466;-0.4411348;0;
-15177.09;-10407.22;-3190.271;-16966.05;-19.96941;-11.49103;-15231.58;-7572.191;0.2852785;-0.2457895;0;
15430.02;11126.42;-2701.247;15704.57;-27.8526;-10.74273;15473.43;7652.518;0.1550571;-0.05064051;0;
21730.65;14016.2;-1758.677;23919.9;-13.49099;-10.39702;21933.44;10549.4;-0.104968;-0.1805243;0;
17781.7;11184.47;64.20627;19702.23;-8.453596;-7.975249;17920.25;7956.395;0.02507212;-0.3752449;0;
20641.27;13331.75;2348.65;22671.32;-8.04296;-10.31158;20813.86;9995.153;0.2849163;-0.05003119;0;
17513.88;11894.44;3299.935;19058.81;-4.283834;-8.425694;17542.75;8423.91;0.3495974;0.1449211;0;
-10784.1;-7752.111;2823.639;-11133.59;-6.691403;-12.70407;-11007.6;-6023.578;-0.1055253;-0.1800612;0;
-27089.72;-18717.81;1710.328;-28974.56;-7.354265;-17.58094;-27245.73;-13723.67;-0.3003213;0.1449564;0;
-15853.1;-8673.85;-119.4713;-17946.33;-6.47622;-9.12361;-15960.94;-6612.133;-0.1051175;0.5346148;0;
-23183.5;-15060.94;-2298.35;-25035.76;-9.483822;-5.966305;-23229.92;-10017.45;-0.1050119;0.404143;0;
-15517.36;-10639.56;-3257.76;-17266.37;-4.183007;-3.013183;-15535.08;-7675.63;-0.4297431;-0.05103453;0;
15315.46;11107.04;-2772.229;15605.57;-2.101723;1.075743;15370.24;7684.068;-0.4942786;-0.37582;0;
21915.03;14183.86;-1834.21;24106;-4.243065;1.342593;22110.66;10693.46;0.3507935;-0.2455076;0;
17829.59;11230.31;-39.83099;19763.53;-0.7561773;4.422337;17968.63;8015.505;0.4803757;-0.1802936;0;
20715.57;13415.03;2226.008;22740.2;-12.94558;1.336801;20889.78;10077.93;0.284991;-0.5049492;0;
17689.7;12030.83;3177.385;19262.24;-20.97052;-0.004201105;17726.76;8547.923;0.6745086;-0.3095398;0;
-10650.24;-7681.838;2700.181;-10945.28;-19.40921;-0.2721286;-10870.78;-6035.137;0.5438962;0.01560797;0;
-27094.79;-18691.83;1585.121;-28957.27;-23.60927;-2.348265;-27258.75;-13754.63;0.08857833;-0.1143424;0;
-16253.7;-8959.807;-247.5829;-18324.54;-18.22691;-0.2694956;-16354.6;-6799.343;-0.1064127;0.2106092;0;
-23747.37;-15607.1;-2412.418;-25605.71;-15.59663;-1.474857;-23792.18;-10484.39;-0.1063058;0.01549556;0;
-15641.61;-10802.89;-3329.282;-17438.66;-13.10271;2.612462;-15680.22;-7860.574;0.08870307;-0.5042588;0;
15335.83;11118.72;-2812.96;15609.12;-8.735287;6.092889;15383;7686.857;-0.04132075;-0.1789154;0;
21762.01;14031.53;-1858.049;23956.1;-8.726509;3.541476;21963.26;10549.36;-0.2361813;0.2110685;0;
17756.9;11156.96;-30.84995;19691.07;-5.637258;3.939815;17897.13;7948.252;-0.1060093;-0.04901298;0;
20646.84;13344.29;2254.845;22677.63;-7.707698;1.926368;20823.16;9999.277;-0.2358374;-0.5037351;0;
17450.65;11816.89;3200.384;19026.98;-8.436888;2.192364;17486.94;8381.804;-0.1056658;-0.6331636;0;
-11027.38;-8022.765;2720.939;-11321.58;-8.629481;-4.641914;-11253.17;-6225.937;0.4791465;-0.3726581;0;
-27363.71;-18969.18;1610.012;-29249.28;-11.56757;-14.0816;-27536.81;-13962.45;0.3487304;0.01752042;0;
-16166.2;-8914.479;-226.059;-18283.81;-8.408116;-4.489135;-16283.67;-6803.663;0.02354323;0.01750282;0;
-23571.09;-15433.88;-2410.921;-25439.35;-8.868182;-0.8676071;-23611.21;-10317.9;0.2184216;-0.3723188;0;
-15652.11;-10785.89;-3339.046;-17405.7;-7.787545;-4.483753;-15655.69;-7798.95;0.02330011;-0.3069774;0;
15362.24;11151.77;-2816.14;15668.14;-5.904685;-1.063179;15425.11;7738.377;0.0232767;-0.04679955;0;
21930.47;14189.41;-1862.772;24119.86;-10.92162;-11.44422;22125.42;10693.05;0.153188;0.01821481;0;
17886.47;11288.65;-36.50523;19811.7;-10.77692;-18.80066;18025.44;8070.181;-0.1068353;0.2780659;0;
20752.11;13458.32;2253.693;22782.15;-20.00949;-15.36576;20924.57;10119.6;0.02320673;0.3427538;0;
17656.41;11982.2;3190.987;19227.28;-28.96535;-18.56538;17692.86;8506.035;0.1531181;0.01757271;0;
-10629.53;-7641.822;2695.56;-10949.77;-23.64495;-11.78163;-10857.62;-5936.116;0.02302956;-0.04741229;0;
-26684.52;-18372.75;1587.532;-28604.21;-23.6212;-4.334874;-26872.2;-13486.85;0.08797376;0.1475374;0;
-15555.55;-8492.695;-233.6488;-17676.47;-22.25732;-12.23432;-15675.72;-6509.786;0.2827874;0.2123565;0;
-23191.53;-15139.46;-2403.386;-25058.99;-19.68936;-15.50413;-23246.41;-10140.14;0.4774053;0.01724107;0;
-15189;-10442.91;-3315.917;-16974.14;-18.86626;-10.53194;-15232.38;-7619.49;0.08712152;0.01722374;0;
15621.06;11292.12;-2788.162;15912.36;-16.03427;-9.918508;15672.7;7803.652;-0.3027701;0.08217378;0;
21865.09;14147.2;-1826.982;24066.47;-14.14215;-6.626439;22068.6;10684.05;-0.3674332;0.08209121;0;
17888.95;11289.78;14.31946;19817.46;-9.908379;-1.797132;18027.88;8062.779;-0.4320313;0.4718128;0;
20748.3;13453.01;2309.183;22777.72;-12.44402;-7.220821;20926.07;10129.35;0.08814151;0.536306;0;
17651.73;11980.92;3250.451;19225.81;-17.18694;-9.222993;17684.05;8468.756;0.2179876;0.1459631;0;
-10395.42;-7393.032;2770.674;-10701.71;-5.314298;-8.142059;-10628.78;-5830.758;-0.3669375;-0.1140529;0;
-26353.93;-18020.63;1669.474;-28259.19;1.121403;-9.942356;-26527.97;-13233.77;-0.4965035;-0.3088404;0;
-15291.93;-8271.541;-155.4125;-17413.21;-1.826484;-5.042734;-15412.22;-6345.302;-0.4310372;-0.30853;0;
-23014.32;-14968.11;-2324.822;-24870.62;-0.01598787;-0.48295;-23081.44;-10000.46;-0.2357021;-0.113318;0;
-15117.2;-10402.09;-3228.671;-16880.91;-6.245263;-3.094677;-15160.62;-7571.722;-0.04056324;0.01673056;0;
15679.19;11271.25;-2693.772;15963.96;-11.66497;-4.632175;15726.25;7787.748;0.02444486;0.2765831;0;
21882.19;14156;-1746.197;24069.82;-11.78697;1.266855;22077.89;10696.82;0.2193223;0.4062399;0;
17843.39;11252.4;87.19957;19772.08;-12.77951;3.944839;17979.43;8016.675;0.219102;0.1459623;0;
20703.25;13399.07;2384.145;22731.93;-19.19703;5.615387;20872.77;10082.28;0.02397977;-0.1140537;0;
17652.75;11988.33;3309.064;19238.94;-23.53199;8.757821;17684.31;8461.662;0.1538904;0.2108976;0;
-10086.96;-7042.407;2814.049;-10373.22;-22.90514;6.002842;-10311.08;-5550.973;0.4136051;0.4055877;0;
-25732.5;-17432.53;1696.126;-27624.87;-24.8245;6.733623;-25918.49;-12680.43;0.08835279;0.2752455;0;
-15019.5;-8154.056;-178.231;-17142.57;-18.77134;1.502311;-15173.96;-6293.693;-0.1716053;0.4049036;0;
-23310.91;-15354.22;-2393.735;-25210.31;-14.86771;-4.192626;-23411.14;-10457.62;0.1534038;0.2095948;0;
-15343.43;-10598.3;-3312.695;-17160.76;-9.561488;-1.375191;-15412.75;-7746.826;0.218217;-0.1804199;0;
15648.71;11285.49;-2791.642;15930.01;-2.183514;-4.990827;15686.15;7797.415;-0.106839;-0.3751406;0;
21777.93;14067.7;-1849.122;23975.97;-3.386769;1.176496;21975.27;10591.14;0.1531377;-0.3097964;0;
17839.03;11240.6;-8.547465;19755.94;-2.378988;7.53857;17970.49;8017.38;0.2829185;-0.04961571;0;
20762.19;13453.82;2286.901;22789.03;1.44082;-1.176603;20931.82;10120.51;0.08773224;-0.04956586;0;
17578.69;11932.67;3212.387;19129.63;4.520831;-1.443352;17606.06;8422.552;0.5424155;-0.1794507;0;
-10304.49;-7306.457;2713.189;-10671.94;2.707627;-8.273978;-10555.04;-5756.491;0.4119358;-0.1143031;0;
-26316.2;-17951.61;1578.845;-28258.2;3.174397;-15.96852;-26508.16;-13125.88;-0.3680862;0.01574645;0;
-15539.87;-8423.082;-292.4582;-17674.69;0.6929607;-9.522295;-15665.11;-6416.708;-0.1728144;-0.3091061;0;
-23218.46;-15139.64;-2493.511;-25085.32;-4.465299;-10.71836;-23285.37;-10110.37;-0.04270604;0.01604122;0;
-15360.06;-10510.02;-3408.763;-17122.23;2.973927;-4.545342;-15397.24;-7609.65;-0.3025325;0.7306659;0;
15395.05;11160.11;-2873.683;15678.78;4.243736;1.420584;15446.53;7691.106;-0.2372612;0.1452256;0;
21851.98;14127.07;-1904.391;24042.3;7.923168;-1.795963;22049.64;10657.62;0.282716;-0.4396264;0;
17881.15;11281.24;-47.83137;19811.04;15.61837;1.286996;18018.51;8056.882;0.1524972;-0.1793153;0;
20730.06;13441.61;2256.433;22753.66;4.148468;-5.345486;20901.64;10116.43;-0.2374601;-0.04920042;0;
17902.64;12187.47;3184.823;19488.08;-0.6111219;-10.36371;17936.94;8670.851;0.2825173;0.2756857;0;
-10143.76;-7246.369;2670.255;-10442.5;-1.481164;-8.477777;-10376.28;-5752.366;0.3472007;0.4053434;0;
-26514.44;-18183.87;1540.951;-28439.41;-7.240452;-10.88058;-26688.46;-13325.73;0.1519498;-0.1148026;0;
-15990.5;-8871.784;-299.2981;-18137.17;-1.204957;-8.860224;-16108.4;-6746.765;0.2817318;-0.1146873;0;
-24503.22;-16430.3;-2499.282;-26357.08;1.208128;-8.38244;-24545.79;-11241.07;0.1515141;0.01536265;0;
-16465.02;-11611.49;-3418.417;-18200.66;0.3362575;-8.173068;-16449.28;-8442.407;-0.2384422;0.2102492;0;
15467.32;11227.3;-2860.854;15761.82;0.8044342;-6.892241;15540.72;7881.593;-0.2382026;0.4699073;0;
22051.85;14321.88;-1878.581;24231.39;1.473211;-7.488163;22243.06;10809;0.02190609;0.2745332;0;
17995.33;11394.88;-11.55313;19913.01;2.141316;-5.739082;18137.26;8192.288;-0.2379853;0.1443226;0;
20976.81;13681.54;2294.206;22995.18;0.5315742;-9.216367;21151.21;10349.44;-0.1078115;0.01424292;0;
17714.7;12040.79;3201.506;19281.04;0.665738;-11.7524;17746.68;8543.924;0.2821009;-0.3755755;0;
-10279.46;-7289.188;2694.073;-10608.4;-4.894636;-8.458486;-10515.64;-5688.48;-0.04301926;-0.2452634;0;
-26174.37;-17834.64;1567.775;-28098.18;-8.573414;-6.641508;-26357.69;-13002.07;0.08695864;0.3396891;0;
-15498.98;-8419.19;-303.0481;-17625.57;-11.31147;-7.237681;-15616.06;-6355.589;0.2168059;0.2094131;0;
-23264.42;-15206.89;-2498.468;-25134.14;-14.58165;-8.971904;-23314.35;-10141.08;-0.04328126;-0.115634;0;
-15116.69;-10385.22;-3405.75;-16886.94;-14.76807;-2.06383;-15138.15;-7559.213;0.08669691;0.3392536;0;
15639.19;11286.72;-2859.101;15931.15;-16.76296;2.024142;15699.65;7786.517;0.0866098;0.5338147;0;
21864.18;14144.28;-1876.237;24058.21;-12.79401;1.486245;22064.92;10691.17;0.02155543;0.468311;0;
17952.81;11357.46;-17.97195;19880.06;-11.24091;3.76211;18089.25;8123.818;-0.2383356;0.2729384;0;
20797.09;13501.95;2292.885;22828.15;-5.536187;-0.3275681;20972.1;10194.22;0.2166753;-0.05217254;0;
17862.3;12162.44;3234.231;19434.04;3.579054;-1.934768;17894.13;8625.588;0.8661309;0.4026513;0;
-10031.74;-7092.372;2733.107;-10351.69;-6.203806;-5.013978;-10266.52;-5662.901;0.2155873;0.3372793;0;
-26097.18;-17808.73;1615.952;-28013.56;-14.50297;-7.018367;-26270.17;-13023.27;-0.1094661;-0.2477656;0;
-15371.49;-8453.404;-227.2148;-17497.48;-2.097163;-10.56129;-15487.57;-6499.945;0.280448;-0.1825493;0;
-24344.93;-16333.21;-2426.319;-26164.7;4.267957;-17.11488;-24384.63;-11243.85;0.08526415;0.07750347;0;
-16990.57;-11944.54;-3333.689;-18699.73;-1.296037;-7.251438;-16997.12;-8711.792;-0.0447562;0.01245825;0;
15121.41;11016.49;-2775.321;15413.55;1.987795;-1.751673;15177.01;7695.609;-0.04471123;0.07741307;0;
22076.49;14336.85;-1794.212;24257.86;-8.32933;-1.0131;22277.41;10814.9;0.08526838;0.01236794;0;
17970.26;11370.83;65.03234;19889.6;-16.62636;4.882233;18113.29;8162.282;-0.04475198;0.01235552;0;
20912.71;13622.12;2369.777;22927.77;-8.237882;1.059422;21083.87;10296.08;-0.3695437;0.07731044;0;
17882.23;12195.56;3311.921;19466.83;-8.965562;-1.553916;17914.83;8669.939;-0.109303;-0.05270192;0;
-10001.72;-7009.984;2824.774;-10292.97;1.492296;4.342021;-10232.92;-5535.199;-0.04422587;-0.1825836;0;
-26005.1;-17701.13;1702.905;-27913.75;9.126607;5.945188;-26176.39;-12946.41;-0.1741161;-0.05246551;0;
-15396.65;-8526.707;-147.7834;-17531.46;11.66303;5.40335;-15515.4;-6522.139;-0.2389085;-0.1173801;0;
-24177.31;-16195.98;-2347.701;-26021.99;18.75126;5.330938;-24221.71;-11010.04;-0.1087338;0.0126725;0;
-16991.64;-11728.63;-3269.377;-18745.73;14.31179;3.517104;-16985.49;-8475.188;0.1512449;0.1425945;0;
14669.9;10797.36;-2722.272;14922.34;14.23006;4.518313;14735.04;7475.361;-0.1737438;-0.2473529;0;
21686.71;13950.85;-1761.815;23857.88;9.928853;-3.523995;21881.34;10431.3;-0.3684713;-0.5069737;0;
17609.48;10997.2;66.56847;19531.58;5.229827;-9.079916;17753;7796.682;-0.1082317;-0.3765296;0;
20743.72;13459.9;2391.552;22756.06;3.616982;-8.80286;20917.84;10112.43;-0.1730902;0.1435875;0;
17858.83;12169.75;3367.938;19433.01;-2.481246;-13.14778;17890.18;8717.777;-0.04298164;0.3383452;0;
-10642.13;-7728.946;2879.235;-10940.18;1.740806;-6.101548;-10872.51;-6009.271;0.3468656;-0.05179882;0;
-27139.04;-18738.95;1764.057;-29026.38;3.413996;-0.8038875;-27309.05;-13719.75;0.3465171;-0.1167141;0;
-16455.32;-9184.887;-62.61029;-18561.35;0.9986926;-2.142738;-16581.08;-7021.226;0.02133217;-0.05162949;0;
-25129.62;-17006.8;-2250.901;-26974.02;2.337836;0.1367733;-25176.34;-11727.97;-0.303526;-0.05157762;0;
-17628.64;-12455.33;-3183.403;-19391.45;-0.8133212;1.878192;-17609.95;-8996.681;-0.3681883;-0.05152579;0;
14568.12;10658.58;-2656.187;14830.92;-1.816882;4.421595;14638.02;7459.561;-0.2378837;0.01349332;0;
21699.78;13949.73;-1702.152;23880.71;-1.747707;3.747323;21887.24;10390.06;-0.10771;0.2733491;0;
17579.92;10979.68;134.7294;19511.5;-2.885027;2.136029;17720.17;7798.165;-0.3674711;0.2081071;0;
20630.26;13321.56;2457.208;22663.41;-1.810401;6.01877;20803.81;9950.337;-0.2371672;-0.2468734;0;
17279.22;11701.52;3428.093;18827.13;-5.559627;7.620313;17308.51;8311.08;0.02294048;-0.1166906;0;
-11518.14;-8469.124;2959.57;-11870.34;3.75671;6.005065;-11755.59;-6528.207;-0.4968213;0.2732307;0;
-28272.8;-19775.18;1862.334;-30163.04;12.72792;6.066015;-28453.76;-14531.67;-0.3014201;0.01308676;0;
-17596.69;-10022.39;47.21759;-19700.68;0.7924086;2.308936;-17713.1;-7559.111;0.3485562;-0.3117631;0;
-25028.81;-16776.7;-2104.186;-26915.6;-1.619285;-0.5735279;-25067.47;-11467.98;0.2832386;-0.1815151;0;
-16777.42;-11728.46;-3017.159;-18592.2;-8.048019;-2.046576;-16783.96;-8580.36;0.08805201;0.01356926;0;
14693.73;10751.97;-2511.255;14931.1;-15.47467;-4.321878;14747.76;7430.983;-0.04197114;0.468327;0;
21537.93;13790.35;-1563.066;23708.1;-12.17757;-4.987365;21729.74;10257.29;-0.1068963;0.3379218;0;
17485.34;10879.28;273.7695;19402.71;-14.70995;-6.054019;17624.25;7686.354;0.08811312;0.01274551;0;
20407.72;13101.61;2574.806;22424.36;-8.868023;-4.842305;20576.83;9718.215;0.08802459;0.07770004;0;
17151.09;11575.6;3542.7;18663.55;-5.442861;-2.493098;17177.68;8231.317;0.08793614;-0.5720514;0;
-11943.22;-8883.66;3075.873;-12320.83;-2.356909;-4.767951;-12183.56;-6778.038;0.02288044;-0.636444;0;
-28719.68;-20243.57;1973.085;-30619.7;2.133437;-8.045202;-28915.17;-14955.41;-0.2370119;0.2737383;0;
-17274.72;-9755.487;160.8877;-19415.44;1.997572;1.340248;-17414.63;-7464.797;-0.1718064;-0.05137347;0;
-24857.48;-16618.46;-2016.398;-26758.13;5.94768;7.97009;-24908.09;-11318.5;0.08823557;-0.3111912;0;
-17227.64;-12133.7;-2954.884;-19020.75;-1.359314;5.014832;-17229.24;-8748.362;-0.04178777;0.2088602;0;
14561;10636.21;-2445.56;14800.82;-6.046998;7.622128;14618.75;7427.442;-0.3665825;0.07871566;0;
21653.42;13895.99;-1507.292;23826.1;-5.236638;3.662537;21841.92;10333.86;-0.1713121;-0.3111675;0;
17493.55;10887.73;326.8641;19419.19;-6.772594;0.6446862;17634.45;7697.013;0.02376204;-0.1159528;0;
20437.89;13130.19;2636.625;22455.62;-6.69844;3.189329;20611.4;9754.913;-0.1061965;0.07906574;0;
17170.69;11587.63;3591.9;18688.29;-7.830785;1.846527;17196.41;8201.996;-0.04112247;-0.2458504;0;
-11645.24;-8594.675;3116.715;-12040.23;-2.531631;5.52861;-11894.25;-6622.579;0.1538209;-0.4405054;0;
-28326.37;-19836.23;2007.983;-30237.6;-0.3856334;6.795731;-28524.95;-14598.3;-0.04123571;-0.2451608;0;
-17459.85;-9909.464;172.1997;-19562.3;5.442879;8.396493;-17581.08;-7485.218;-0.171129;-0.1149797;0;
-25122.85;-16865.83;-1999.335;-26999.6;9.523247;10.73234;-25153;-11547.81;-0.04102233;0.08003782;0;
-17025.5;-11950.6;-2907.322;-18813.15;12.39309;8.109341;-17017.7;-8736.799;0.08895358;0.1449247;0;
14701.45;10752.68;-2387.613;14956.41;18.67728;7.900243;14768.72;7463.654;0.2837662;0.01484443;0;
21607.13;13844.58;-1443.297;23781.11;10.01832;3.337527;21799.24;10308.75;0.02361172;0.07979686;0;
17575.04;10967.12;398.2907;19497.25;8.132245;-0.5507149;17713.05;7770.648;-0.5611181;0.144684;0;
20678.78;13380.88;2726.251;22691.38;0.3545418;-2.425684;20850.4;10009.13;-0.4955869;0.209506;0;
17528.64;11876.2;3698.803;19102.94;-9.626149;-5.236468;17557.55;8501.298;-0.3001869;0.07936078;0;
-11382.51;-8434.402;3222.137;-11672.69;-2.985044;-7.374599;-11613.78;-6505.299;0.08991875;0.0143137;0;
-28093.3;-19642.59;2128.291;-29992.62;-5.259221;-10.85018;-28279.12;-14505.71;0.3496978;0.2741687;0;
-17235.14;-9754.497;310.7213;-19364.21;2.98411;-7.959134;-17366.11;-7460.837;0.1544444;0.1439585;0;
-25408.03;-17196.17;-1861.983;-27260.42;11.48758;-5.941648;-25446.97;-11841.82;0.2842239;-0.1810228;0;
-17454.31;-12366.2;-2761.94;-19231.97;5.782608;-8.012088;-17452.84;-8949.668;0.2189709;0.1439958;0;
14807.44;10859.51;-2212.128;15047.66;5.643076;-7.937116;14864.65;7648.798;-0.1060858;0.2737858;0;
21878.44;14121.55;-1238.284;24049.04;6.842854;-7.46026;22068.88;10555.48;0.2838248;0.07860862;0;
17740.93;11132.73;620.3705;19665.47;8.913059;-6.247071;17878.53;7928.7;0.2185723;0.338399;0;
20753.2;13449.03;2950.232;22774.86;6.091064;-7.781401;20924.97;10089.72;-0.04151668;0.2730916;0;
17565.47;11945.09;3908.472;19116.68;8.0937;-8.912231;17591.57;8498.769;0.1534271;0.07791521;0;
-10973.7;-7973.794;3417.196;-11322.5;5.339878;-7.630661;-11222.99;-6215.598;0.08830556;0.07783692;0;
-27707.41;-19227.81;2286.735;-29601.78;5.133441;-9.230523;-27902.12;-14117.5;0.02324949;-0.1821107;0;
-17260.62;-9738.358;424.0287;-19344;8.409837;-4.800497;-17380.11;-7339.202;0.08819347;-0.1169603;0;
-25051.29;-16813.07;-1761.018;-26907.13;-1.913741;-0.9777075;-25093.16;-11577.85;0.02313751;0.1430266;0;
-16837.85;-11805.35;-2678.333;-18631.71;35.99979;-5.464459;-16859.06;-8714.353;-0.1068204;-0.2469212;0;
14848.72;10879.92;-2165.196;15091.57;64.22968;-5.726901;14892.37;7539.52;-0.04174575;-0.2466731;0;
21711.9;13960.06;-1220.65;23883.21;48.35766;-9.94101;21900.47;10425.27;-0.0417038;0.1433788;0;
17677.23;11057.84;609.9382;19597.98;49.98401;-15.08858;17810.82;7857.112;-0.0416619;-0.05166728;0;
20629.43;13355.82;2903.016;22647.2;38.47958;-10.31776;20795.49;9980.443;0.08831464;0.1432867;0;
17610.49;11826.94;3827.82;19175.45;23.30302;-6.355458;17646.23;8424.941;-0.04170877;0.4030121;0;
-10977.5;-8211.533;3314.605;-11308.31;22.67737;-12.10948;-11197.32;-6225.164;-0.5614056;0.2726724;0;
-27685.01;-19310.59;2177.657;-29615.16;20.51113;-15.64729;-27862.61;-14175.43;-0.6258088;0.2074311;0;
-16443.45;-9075.274;312.2491;-18602.75;-5.900514;-9.201387;-16581.21;-6963.909;-0.1054413;-0.1825814;0;
-23894;-15732.16;-1899.922;-25784.86;-20.63034;-8.187398;-23949.65;-10583.6;0.2844687;-0.1823979;0;
-16270.83;-11333.4;-2842.194;-18046.17;-33.00085;-1.548044;-16268.07;-8165.071;-0.1056212;0.07765472;0;
15026.2;10893.02;-2333.327;15287.81;-55.00544;5.151622;15091.58;7571.493;-0.04054771;-0.1173253;0;
21785.2;14043.27;-1408.274;23956.26;-27.68848;1.730438;21974.09;10509.53;0.3492971;-0.2471421;0;
17609.46;11010.16;409.0716;19529.96;-14.063;3.872092;17744.98;7795.063;0.0241094;-0.05199177;0;
20650.66;13344.18;2713.658;22670.39;-8.958655;-0.8874646;20820.55;9988.64;0.08905252;-0.2468415;0;
17626.08;11986.22;3633.562;19175.24;5.585032;-3.36488;17653.92;8534.345;0.4787671;-0.3765282;0;
-10870.56;-7888.468;3110.172;-11222.1;6.249982;-4.902107;-11110.4;-6099.458;0.4133187;0.07862151;0;
-27279.23;-18852.03;1976.021;-29203.37;15.08496;-9.384915;-27463.72;-13785.2;0.153034;0.2734446;0;
-16610.76;-9249.386;101.4458;-18740.9;10.4481;-4.016973;-16727.47;-7044.211;-0.4318258;0.3381371;0;
-24489.23;-16328.08;-2104.079;-26375.63;9.097459;-4.682766;-24540.86;-11232.59;-0.04158788;0.27283;0;
-16269.6;-11317.76;-3014.365;-18082.2;6.275278;3.292725;-16303.15;-8335.142;0.02342124;0.2075886;0;
15103.8;11001.59;-2492.332;15350.78;-0.2951106;11.19322;15146.37;7587.141;-0.496341;0.20738;0;
21645.95;13906.54;-1540.367;23829.92;2.317154;6.828204;21837.99;10394.81;0.08886378;-0.4425018;0;
17683.35;11084.82;320.8708;19603.96;-1.435242;10.10338;17820.61;7876.84;-0.1710949;-0.6369592;0;
20607.95;13287.88;2626.077;22630.9;5.397727;1.519661;20778.81;9904.23;-0.3008576;0.07832154;0;
17293.37;11714.58;3532.044;18848.8;14.09984;-6.720583;17323.21;8322.631;0.5440201;0.0132755;0;
-11474.22;-8449.392;3013.098;-11813.61;4.641201;-1.422301;-11713.27;-6625.191;0.1536694;-0.3765419;0;
-28531.53;-19995.48;1866.989;-30408.37;0.685399;-2.693547;-28723.19;-14725.55;-0.1713217;-0.3111962;0;
-18017.6;-10413.65;-32.55844;-20078.38;5.975996;-2.489892;-18146.45;-7700.624;0.2836218;-0.1809488;0;
-25617.23;-17378.42;-2245.851;-27444.78;1.14722;-1.884544;-25661.8;-11882.5;0.2833368;0.1440697;0;
-17531.48;-12376.74;-3162.085;-19329.02;17.0209;-4.494924;-17535.02;-8982.651;0.3480195;0.2088923;0;
14383.98;10538.42;-2632.751;14601.73;31.33741;-4.825322;14441.8;7353.074;-0.1071016;0.1437151;0;
21683.49;13924.7;-1664.216;23851.38;15.49844;-8.370446;21871.59;10336.67;-0.4318307;0.1435707;0;
17583.61;10972.81;175.22;19512.64;13.07099;-12.18;17720.69;7793.241;0.02337462;-0.05147564;0;
20463.89;13149.28;2456.585;22488.95;2.877431;-11.36397;20633.85;9720.843;-0.1065836;0.1434781;0;
17027.61;11456.8;3350.572;18529.25;-10.32098;-12.75919;17056.81;8209.955;-0.04150911;0.338236;0;
-12572.07;-9539.883;2798.512;-12979.25;-3.411729;-13.81804;-12805.06;-7322.428;-0.1064347;-0.05190795;0;
-30040.9;-21483.7;1640.437;-31882;-3.609372;-12.6655;-30219.88;-15879.17;-0.7560012;-0.05185579;0;
-19312.79;-11698.75;-239.0172;-21296.32;-6.820926;-19.41787;-19442.96;-8619.249;-0.3004702;0.1430984;0;
-27463.83;-19249.07;-2446.745;-29253.49;-8.08687;-23.81911;-27526.75;-13511.81;-0.04029891;-0.1169148;0;
-19590.99;-14089.89;-3367.588;-21376.35;-6.135385;-22.79049;-19601.13;-10416.36;-0.4300625;-0.05182999;0;
13546.76;10053.64;-2835.439;13753.4;-3.650974;-24.17418;13608.02;7042.74;-0.2996957;0.07815677;0;
21456.83;13670.4;-1858.423;23617.24;-4.58531;-22.7433;21645.43;10023.97;-0.03952515;-0.2467585;0;
17202.79;10580.73;-4.049737;19136.08;-4.648052;-22.58648;17342.38;7423.672;0.2853513;-0.3764452;0;
20246.89;12929.63;2286.522;22268.74;-1.629272;-20.21945;20416.87;9459.342;0.1551299;-0.1161976;0;
16529.78;11057.23;3198.077;17994.83;1.654895;-18.05568;16549.69;7922.183;-0.1048954;-0.05111349;0;
-13834.94;-10621.4;2681.029;-14287.5;-2.499954;-18.10452;-14064.56;-8139.379;-0.10479;-0.1809968;0;
-31661.91;-23114.31;1548.059;-33469.38;-5.310481;-15.675;-31819.29;-17088.96;0.09021734;-0.05088027;0;
-20697.54;-13129.99;-300.3495;-22600.64;-3.831276;-20.61587;-20807.48;-9377.77;0.4149634;0.07910554;0;
-28325.4;-20135.45;-2473.939;-30094.39;-5.435017;-24.882;-28366.17;-14112.04;0.08970973;0.01405871;0;
-20092.07;-14560.62;-3378.576;-21914.4;-3.755592;-21.97679;-20084.7;-10781.68;-0.3651518;-0.1158901;0;
13228.82;9804.144;-2825.332;13409.34;-1.072501;-21.08393;13291.51;6935.343;0.02501915;-0.2457083;0;
21265.15;13477.22;-1843.704;23424.75;-7.836578;-24.1439;21449.08;9783.783;0.3498307;-0.05055942;0;
16855.96;10229.82;-5.11853;18798.38;-12.7852;-24.92344;16991.76;7081.103;-0.04032484;-0.310378;0;
19860.16;12534.24;2296.136;21884.6;-8.887584;-26.50592;20028.76;9046.59;-0.3001537;-0.4400008;0;
16150.67;10751.91;3228.64;17538.82;-6.064639;-29.69441;16163.17;7662.363;-0.2348848;0.2750821;0;
-14572.89;-11239.71;2720.306;-15120.07;-10.61387;-23.43528;-14817.13;-8577.849;-0.1047141;0.07990365;0;
-32352.5;-23796.31;1608.38;-34157.91;-13.1488;-19.05796;-32513.85;-17671.12;-0.0396415;-0.1150787;0;
-21043.68;-13500.41;-217.5686;-22917.03;-7.776956;-20.57936;-21149.14;-9654.794;0.09033302;0.274841;0;
-28685.46;-20501.76;-2388.665;-30435.62;-4.553961;-18.68322;-28730.81;-14427.16;0.2201769;0.01469549;0;
-20422.76;-14815.61;-3299.274;-22239.5;-3.276587;-19.66919;-20426.33;-11024.75;-0.104881;-0.1802213;0;
13025.59;9702.91;-2772.472;13189.3;-2.60371;-20.65411;13082.66;6869.271;-0.4296123;-0.2450076;0;
21136.73;13345.59;-1817.072;23297.08;3.762895;-16.74847;21321.74;9641.3;-0.4291807;-0.3097287;0;
16899.69;10263.19;26.2346;18840.86;9.116773;-13.11462;17037.69;7102.853;-0.1039127;0.08038655;0;
20007.39;12688.7;2326.927;22021.94;7.701092;-15.71372;20174.25;9207.107;0.4159304;0.2752078;0;
16220.79;10802.57;3256.589;17642.81;10.10523;-17.17155;16239.39;7685.616;0.4804799;-0.1148728;0;
-14501.88;-11173.92;2759.534;-15000.19;3.932156;-13.4703;-14731.95;-8549.934;0.02522568;0.01517733;0;
-32153.04;-23594.82;1651.254;-33969.21;-3.305464;-14.99731;-32326.41;-17539.29;-0.234669;0.2100641;0;
-20747.11;-13195.53;-161.9633;-22672.19;2.257563;-6.341689;-20882.99;-9460.732;0.09040347;-0.1149837;0;
-28331.11;-20131.59;-2310.83;-30124.38;3.528093;2.707196;-28383.66;-14121.57;0.2202473;-0.0499008;0;
-20126.91;-14568.49;-3222.58;-21966.71;-0.8297091;-7.208754;-20123.81;-10816.64;-0.1048107;0.2100187;0;
13190.81;9799.298;-2697.791;13346.78;0.1091297;-10.01473;13246.68;6923.645;-0.03973804;0.274775;0;
21208.14;13415.11;-1739.982;23355.77;-9.335451;-11.41131;21390.02;9711.221;0.2851386;0.2095316;0;
16855.09;10225.11;85.28687;18791.23;-20.37813;-14.74887;16991.3;7060.524;0.08995005;0.07938636;0;
19905.49;12581.53;2393.01;21932.34;-7.831727;-13.46144;20072.38;9084.628;-0.2999444;0.01433925;0;
16319.47;10889.22;3357.494;17715.58;-1.058703;-15.39035;16329.33;7774.935;0.02519372;-0.1805772;0;
-14210.55;-10923.61;2866.834;-14744.07;-7.085859;-12.15977;-14465.28;-8314.7;0.1551031;-0.3103304;0;
-32123.01;-23562.43;1750.951;-33923.61;-6.476503;-12.3485;-32307.83;-17493.57;-0.3647915;-0.2450512;0;
-20889.64;-13330.12;-72.76776;-22773.31;-8.679822;-6.910658;-21019.68;-9567.438;-0.2344903;0.08003169;0;
-28626.71;-20441.46;-2254.426;-30363.63;-10.94925;0.1963549;-28678.72;-14373.39;0.2205167;0.4697553;0;
-20883.96;-15163.15;-3197.28;-22751.37;-8.794797;-7.707645;-20882.8;-11226.83;0.09036049;0.1444466;0;
12692.72;9507.144;-2695.411;12743.38;-9.656615;-8.235765;12744.65;6750.058;0.09026969;-0.05060057;0;
21286.33;13497.05;-1768.995;23409.36;-6.498105;-14.18885;21462.86;9756.558;0.479983;0.5991237;0;
17028.04;10374.75;28.00476;18973.51;-2.540437;-22.14538;17163.39;7205.953;-0.1701727;0.468587;0;
20108.08;12798.75;2295.243;22119.45;-7.628098;-16.63065;20271.3;9310.636;-0.6247731;0.01334477;0;
16411.61;10936.25;3230.591;17792.35;-10.03133;-18.95828;16421.68;7784.012;-0.1044066;0.3381681;0;
-14081.33;-10825.24;2757.924;-14649.1;-8.146217;-12.50899;-14323.98;-8219.551;-0.2992037;0.467763;0;
-31696.39;-23145.31;1650.677;-33525.28;-8.004311;-3.855865;-31880.46;-17151.55;-0.3638704;0.07748891;0;
-20627.89;-13069.54;-183.0607;-22542.47;-8.197339;-14.97085;-20774.01;-9421.425;-0.2335701;-0.3773603;0;
-28194.15;-20007.01;-2353.317;-29988.08;-9.327202;-19.04171;-28265.63;-14062.4;-0.5581721;-0.1820792;0;
-19698.17;-14161.97;-3282.172;-21514.44;-6.504791;-18.55369;-19711.63;-10585.34;-0.4276766;0.4028099;0;
13476.18;10064.68;-2793.993;13670.66;-4.087357;-22.35296;13531.18;7080.78;-0.2973121;0.2075031;0;
21189.07;13389.34;-1897.322;23349.81;-6.627869;-18.98147;21372.88;9689.679;0.02782331;0.01239258;0;
16758.05;10120.81;-116.7784;18693.74;-7.224422;-18.35955;16892.52;6937.665;0.6774688;-0.2474892;0;
19828.66;12500.95;2162.787;21856.56;-8.155168;-17.06843;19993.53;9009.461;0.3519513;-0.1822732;0;
16304;10856.04;3109.012;17698.56;-10.02201;-11.023;16310.29;7700.031;0.02676098;0.4675834;0;
-13973.47;-10698.32;2623.568;-14506.72;-9.944589;-21.19308;-14225.92;-8045.312;0.3515708;0.3371789;0;
-31087.89;-22542.14;1519.829;-32929.28;-11.67688;-28.67369;-31270.24;-16759.39;0.1563155;0.141938;0;
-19380.74;-11813.28;-302.5016;-21348.11;-11.66515;-20.13823;-19513.94;-8730.858;-0.298613;0.2067627;0;
-27305.59;-19100.3;-2487.552;-29093.1;-11.18394;-20.78783;-27359.42;-13324.51;-0.2983129;0.01165295;0;
-19571.21;-14064.4;-3437.418;-21370.29;-16.26389;-13.26503;-19571.27;-10351.08;-0.2330458;-0.1182934;0;
13410.98;9975.124;-2942.586;13575.97;-18.85952;-5.883766;13466.05;6982.446;-0.2328116;-0.2481093;0;
21198;13400.51;-2004.349;23362.03;-21.58723;-12.57596;21379.43;9707.058;-0.1676104;-0.1828926;0;
16942.49;10298.67;-184.6083;18886.88;-23.84272;-11.62563;17076.83;7109.948;-0.2324093;-0.2476762;0;
20223.01;12903.41;2114.89;22234.59;-23.95248;-19.51769;20386.56;9398.182;0.1576283;-0.3123946;0;
16819;11297.62;3071.877;18322.4;-23.72735;-25.72737;16833.21;8131.104;0.3523719;-0.0522114;0;
-13746.48;-10592.03;2577.818;-14146.49;-24.0383;-26.84023;-13988.02;-8135.377;0.09214849;0.2726778;0;
-31753.39;-23220.41;1450.231;-33551.14;-26.96188;-33.31042;-31933.53;-17242.82;0.1570232;0.07750176;0;
-20677.74;-13118.88;-383.4615;-22571.45;-17.2219;-27.31559;-20814.76;-9376.756;0.02693078;0.01245654;0;
-28612.53;-20440.4;-2558.124;-30374.04;-13.65462;-24.20705;-28681.96;-14427.04;-0.1679983;-0.05252331;0;
-20479.65;-14931.25;-3504.498;-22331.22;-7.8811;-24.85249;-20497.9;-11156.92;0.2219746;0.07746414;0;
13201.99;9798.974;-3014.424;13338.16;4.250608;-19.87091;13252.28;6921.432;0.3516862;0.5321577;0;
21332.52;13529.68;-2062.326;23477.78;-14.17312;-25.0085;21514.58;9801.37;0.09146345;0.336721;0;
16963.73;10321.45;-233.9839;18900;-24.07284;-27.99755;17095.16;7128.75;-0.03856314;0.1414806;0;
20126.16;12796.22;2059.942;22137.9;-20.36398;-20.80242;20287.34;9274.708;-0.2983938;0.3362405;0;
16733.23;11240.52;2999.118;18191.82;-21.68366;-18.97304;16742.99;8100.85;-0.1031919;0.2709353;0;
-13995.87;-10807.4;2466.402;-14450.88;-25.01078;-12.45676;-14256.85;-8354.164;0.2217485;0.2706631;0;
-32465.84;-23930.54;1319.124;-34266.41;-31.95187;-5.612164;-32661.38;-17785.04;0.1565583;0.3353584;0;
-21845.62;-14310.88;-526.0872;-23711.32;-19.39384;-7.481987;-21980.48;-10172.96;0.156401;0.1401194;0;
-30444.76;-22293.02;-2727.764;-32170.55;-14.88637;-5.264092;-30511.98;-16084.43;-0.03865815;-0.1848581;0;
-22334.21;-16569.61;-3651.417;-24199.46;-8.843191;-7.134264;-22346.63;-12516.71;-0.168554;-0.2496397;0;
12624.83;9477.099;-3108.472;12704.05;2.887342;-11.27998;12678.39;6829.291;0.2863868;-0.05448682;0;
21557.28;13750.22;-2147.768;23691.27;-9.239348;-5.039352;21735.12;9962.115;0.1561643;0.2704046;0;
17212.52;10547.97;-310.7818;19158.17;-9.497508;-2.622964;17347.04;7358.581;-0.03889462;-0.05470378;0;
20428.61;13112.86;1983.034;22442.98;-19.20086;-5.366567;20594.75;9594.388;0.4808832;-0.3794855;0;
16789.09;11269.86;2893.864;18259.04;-31.238;-4.55738;16801.2;8112.503;0.3504653;0.01069984;0;
-14007.85;-10831.63;2364.502;-14442.46;-22.43173;-10.44718;-14264.22;-8368.431;-0.2995602;0.01068909;0;
-32454.77;-23940.57;1210.174;-34229.43;-26.29493;-14.52252;-32640.87;-17742.31;-0.3642266;-0.3141584;0;
-22295.65;-14776.27;-654.668;-24160.93;-14.68058;-14.90982;-22406.95;-10465.58;0.09091078;-0.183908;0;
-30559.3;-22417.73;-2831.4;-32302.47;-4.952942;-17.37315;-30602.71;-16180.95;0.3506888;-0.3786252;0;
-21647.4;-15939.12;-3745.906;-23501.89;-10.10553;-15.48023;-21660.37;-12086.27;-0.1694023;-0.3132775;0;
12949.09;9733.844;-3225.48;13065.02;-5.005161;-14.72786;12999.92;6980.588;-0.6240035;-0.183028;0;
21428.38;13618.65;-2265.142;23567.13;-15.18154;-13.17252;21610.5;9844.803;-0.3635071;-0.3127788;0;
17143.55;10486.41;-426.8673;19087.69;-21.39557;-11.35074;17281.09;7292.361;-0.03830516;0.2072743;0;
20248.93;12911.42;1866.565;22270.53;-22.11101;-10.73655;20420.42;9383.494;0.02670068;0.401968;0;
16466.91;11062.19;2794.035;17844.18;-29.85832;-11.86441;16465.41;7913.472;0.09164119;0.1416948;0;
-14507.06;-11140.72;2275.487;-15046.95;-21.12078;-7.297774;-14771.86;-8565.731;0.02658176;-0.118317;0;
-32722.26;-24176.14;1133.43;-34505.9;-16.41051;-3.271587;-32897.11;-17996.94;0.0915224;-0.1831655;0;
-21384.88;-13877.51;-722.4957;-23259.72;-19.81028;-9.29658;-21504.01;-9840.684;0.09143043;0.4017247;0;
-28968.31;-20805.88;-2920.18;-30706.89;-17.91534;-8.215573;-29018.41;-14687.89;-0.03859612;0.2713863;0;
-20892.14;-15242.96;-3840.563;-22686.29;-20.57568;-20.12998;-20893.36;-11355.87;-0.03855734;0.0762116;0;
13036.07;9761.469;-3287.855;13199.73;-23.30167;-31.29565;13092.94;6979.483;0.02644875;0.5958738;0;
21566.91;13753.05;-2318.943;23719.7;-18.79028;-24.49905;21750.5;9970.963;0.09138951;0.4653403;0;
17142.71;10482.62;-495.8876;19086.41;-15.69091;-25.8141;17278.95;7289.318;-0.1036043;0.3999054;0;
20155.71;12823.53;1793.085;22183.26;-20.09578;-20.49663;20323.17;9277.163;-0.5582716;0.3345363;0;
16433.19;10973.38;2723.565;17837.29;-22.88862;-13.84484;16442.08;7858.019;-0.232874;0.009363401;0;
-14451.46;-11184.68;2213.677;-14994.13;-20.45375;-16.30924;-14706.76;-8593.658;0.2870988;0.07432134;0;
-32725.12;-24202.52;1059.875;-34525.34;-18.62551;-14.48438;-32907.09;-17983.17;-0.2978958;-0.05568803;0;
-21925.53;-14411.22;-814.904;-23764.16;-21.68728;-10.91985;-22047.36;-10181.33;-0.4924985;0.2692046;0;
-29543.98;-21385.23;-2994.427;-31268.58;-22.53615;-7.55979;-29595.31;-15211.44;-0.2321343;0.3988688;0;
-20750.66;-15113.94;-3902.085;-22584.8;-21.30805;-6.882365;-20761.54;-11397.52;-0.4917704;0.07363133;0;
13236.89;9938.128;-3376.755;13383.41;-21.15292;-7.947176;13286.51;7094.612;-0.2963742;0.5932961;0;
21475.63;13660.2;-2418.529;23625.78;-17.91648;-1.374985;21657.28;9884.828;0.158695;0.1379285;0;
17166.84;10506.23;-582.255;19101.44;-17.29527;4.051892;17301.55;7297.191;-0.03636651;-0.2520141;0;
20179.88;12838.81;1699.777;22201.03;-9.776779;-0.5069581;20346.83;9293.273;-0.03632997;0.3979126;0;
16377.38;10933.45;2601.427;17752.4;-2.53231;-1.042251;16382.32;7800.556;0.4834453;0.007708664;0;
-14348.08;-11057.22;2066.05;-14910.72;-5.744947;-2.112931;-14615.55;-8395.191;0.4179921;-0.3821031;0;
-32103.54;-23579.81;924.4531;-33910.43;-5.471731;-3.450405;-32292.44;-17566.14;0.02776811;-0.1218498;0;
-20577.48;-13050.91;-926.7332;-22471.67;-6.403262;-3.781853;-20698.21;-9405.835;0.1576749;0.07317463;0;
-28240.1;-20072.25;-3118.637;-30008.63;-11.28695;-8.265848;-28288.51;-14085.68;0.4823532;0.4629052;0;
-20329.5;-14756.26;-4051.533;-22148.93;-4.443103;0.9189358;-20329.82;-10888.99;0.3519338;0.3325053;0;
13152.45;9783.82;-3546.792;13308.62;3.733035;6.946293;13209.2;6959.221;0.02674348;-0.1875675;0;
21213.04;13391.75;-2619.318;23365.83;-12.41397;2.719511;21393.43;9610.721;0.2216186;-0.5122157;0;
16732.37;10075.64;-796.2413;18674.99;-20.70689;3.855488;16871.26;6867.016;0.1564286;-0.316799;0;
20019.01;12670.36;1512.586;22044.07;-18.47528;-0.9710349;20187.24;9118.59;-0.2985;0.07332334;0;
16435.09;10988;2440.318;17844.21;-24.21749;-5.323889;16448.54;7853.996;-0.1682653;0.008282325;0;
-14176.69;-10906.76;1914.848;-14707.12;-12.67258;-5.452505;-14413.68;-8266.515;-0.03816159;0.008274003;0;
-31656.9;-23126.9;768.8111;-33472.35;-5.626276;-6.92059;-31827;-17116.08;-0.1030906;0.07323303;0;
-20790.6;-13252.97;-1109.299;-22668.99;-4.749967;-9.99479;-20912.63;-9592.097;0.2218497;0.07315945;0;
-29563.61;-21411.96;-3315.762;-31302.31;-0.1908426;-11.39133;-29619.62;-15406.08;0.2865941;0.008118593;0;
-21461.78;-15735.47;-4234.67;-23292.9;0.7473543;-12.58557;-21474.35;-11798.93;0.02643679;0.1380451;0;
12895.28;9724.349;-3700.572;13034.57;4.564997;-13.84554;12950.8;6940.835;-0.2334591;0.4627431;0;
21396.85;13578.93;-2734.26;23549.36;-0.1959887;-9.343897;21584.39;9788.551;0.09161215;0.2024088;0;
17069.27;10397.07;-896.8561;19014.2;-3.075204;-6.789217;17209.73;7179.491;0.2214548;0.07227072;0;
20233.86;12894.91;1396.455;22255.99;-2.670948;-1.490866;20401.64;9319.838;-0.4284411;0.3970348;0;
16500.55;11050.32;2328.052;17896.04;-3.136779;2.730435;16511.1;7936.414;-0.2331086;0.3316686;0;
-14428.25;-11124.89;1817.499;-14960.54;-6.281459;7.282409;-14671.84;-8510.922;0.611701;0.006498557;0;
-32675.94;-24160.26;680.0877;-34475.79;-12.63914;12.43266;-32851.23;-17931.46;0.4811517;0.1364267;0;
-21621.54;-14145.63;-1164.794;-23503.27;-2.512379;11.81732;-21751.04;-9959.814;-0.1690052;0.396159;0;
-29574.13;-21449.33;-3351.321;-31328.27;2.045473;14.41778;-29628.02;-15250.03;-0.03890066;0.005956883;0;
-21482.81;-15794.69;-4273.02;-23302.89;3.181517;8.843828;-21477.83;-11854.63;0.09107311;-0.3188858;0;
12944.67;9722.143;-3722.485;13097.26;10.88148;3.94531;13005.57;7001.265;-0.4937245;0.006271315;0;
21691.34;13868.41;-2748.919;23843.38;-0.3152379;4.209277;21871.75;10045.23;-0.5581957;-0.188637;0;
17259.23;10585.27;-911.7043;19200.99;-5.673556;-0.2827478;17392.1;7361.916;-0.03789611;-0.2534148;0;
20411.25;13064.79;1393.46;22431.89;-5.466784;2.999639;20575.87;9500.533;0.02710931;0.07167653;0;
16678.56;11234.69;2328.089;18098.74;-12.22645;5.273983;16683.27;8073.122;-0.2977546;-0.05833017;0;
-14173.98;-10867.83;1820.067;-14692.54;-2.568618;0.8479328;-14448.93;-8312.992;-0.4273901;-0.2531736;0;
-32257.89;-23736.9;702.205;-34060.97;4.466561;0.9810467;-32458.62;-17612.1;-0.5568954;-0.2529192;0;
-21334.13;-13820.21;-1120.179;-23202.15;-2.704247;-2.904888;-21464.25;-9744.929;-0.6213031;-0.05776304;0;
-29134.56;-20980.29;-3288.072;-30893.1;-4.51019;-7.590652;-29201.47;-14877.9;-0.03597278;0.007262344;0;
-20643.47;-15046.54;-4198.965;-22474.09;-1.357827;-1.152786;-20660.33;-11320.63;0.09399804;-0.4475163;0;
13378.01;10060.13;-3661.03;13531.7;1.523925;2.331363;13430.94;7194.066;-0.2309331;-0.2521647;0;
21714.85;13892.16;-2703.19;23858.89;-0.7547814;1.525286;21894;10089.54;-0.03579905;0.2678275;0;
17402.14;10727.92;-871.0342;19336.26;-2.696406;3.600163;17534.96;7492.713;0.09417161;-0.1222457;0;
20437.26;13093.4;1429.935;22454.47;3.066103;2.926717;20600.23;9519.802;-0.100825;-0.4469596;0;
16751.18;11235.36;2382.394;18162.65;5.140103;1.718144;16756.84;8066.056;0.0941783;-0.1866411;0;
-13915.18;-10729.11;1901.959;-14455.31;8.483841;5.601305;-14177.31;-8171.547;0.4189204;0.1383832;0;
-32064.59;-23549.34;787.2944;-33902.27;11.75687;7.873036;-32260.96;-17485.07;0.4834668;0.008309405;0;
-21093.91;-13559.29;-1033.894;-22982.19;12.68306;6.458545;-21225.12;-9683.994;0.6129157;0.0732684;0;
-28967.41;-20813.59;-3199.063;-30730.77;17.49309;7.72467;-29025.47;-14784.62;0.2874631;0.2680968;0;
-20754.12;-15123.98;-4136.298;-22612.97;9.70598;3.765037;-20772.53;-11335.49;0.0273049;0.3327948;0;
13219.64;9925.553;-3620.43;13354.28;4.136522;0.747083;13266.49;7066.768;0.02727746;0.072591;0;
21594.97;13770.56;-2653.058;23746.08;7.012753;1.751015;21774.19;9957.742;-0.1026846;-0.317286;0;
17219.88;10543.87;-816.9702;19159.45;2.384007;-0.3941369;17349.96;7305.189;-0.2325161;-0.1870325;0;
20254.78;12908.27;1479.884;22275.58;10.61966;2.888362;20416.89;9320.957;-0.5571192;-0.05690988;0;
16654.94;11133.8;2437.134;18020.79;16.97298;4.29204;16663.76;7983.416;-0.29669;-0.12182;0;
-14011.92;-10830.7;1964.921;-14579.36;10.25714;4.421693;-14266.88;-8253.715;0.4182488;0.008237047;0;
-32211.06;-23689.97;858.2209;-34016.62;10.91642;6.828575;-32405.68;-17631.11;0.2878939;-0.05673857;0;
-21208.49;-13693.9;-964.6943;-23101.65;3.872852;3.338723;-21353.29;-9826.886;0.1576699;-0.1866162;0;
-29228.62;-21101.1;-3141.13;-30998.05;-3.298335;2.799505;-29303.61;-15087.3;0.09254415;-0.1214614;0;
-21258.15;-15516.39;-4082.968;-23173.96;2.063614;0.1174356;-21293.41;-11676.46;-0.03748352;0.07356268;0;
12856.17;9702.699;-3574.978;12875.56;4.406065;-3.76757;12888.4;6890.652;0.2224235;0.008521424;0;
21502.13;13678.49;-2628.532;23629.93;0.5832446;-0.01286259;21678.94;9850.253;0.09226534;-0.1214218;0;
17228.21;10537.21;-799.4648;19178.13;-2.364102;-0.2137985;17360.97;7294.604;0.02720528;0.2035369;0;
20308.8;12972.22;1502.182;22321.34;4.068635;3.269468;20467.34;9364.293;-0.1027567;0.5931364;0;
16671.6;11106.73;2460.596;18052.85;7.81559;7.887883;16686.57;7992.428;-0.4274902;0.3976384;0;
-13974.91;-10860.22;2001.884;-14541.44;7.606667;4.062052;-14216.75;-8227.767;-0.2321586;0.2673042;0;
-32319.72;-23830.27;892.1172;-34131.77;8.001165;4.52679;-32519.85;-17619.66;-0.1019907;0.1371009;0;
-21967.23;-14471.5;-966.7827;-23841.21;10.53774;2.981695;-22117.06;-10294.37;0.0280465;-0.4477429;0;
-30371.61;-22259.01;-3155.508;-32125.39;15.01513;0.5003915;-30437.1;-16122.25;-0.1019164;-0.5772277;0;
-21908.67;-16137.47;-4081.464;-23808.26;5.957718;5.523487;-21930.7;-12286.9;-0.491618;0.2679277;0;
12835.65;9712.6;-3563.183;12881.61;0.7268187;8.197193;12877.09;6945.391;0.0286147;0.4625606;0;
21641.65;13812.51;-2610.127;23772.68;0.3249228;9.528615;21818.35;9965.234;0.223488;0.07229171;0;
17267.59;10573.39;-781.6724;19215.75;-4.02966;11.72936;17401.11;7325.2;-0.1665406;0.2021538;0;
20299.3;12963;1519.082;22313.67;-0.7430816;13.32516;20458.46;9350.458;-0.101406;0.266918;0;
16759.77;11187.66;2468.234;18138.96;-0.2064715;13.78065;16768.33;8039.077;0.2235326;0.2016824;0;
-14201.71;-11081.51;1971.252;-14741.16;1.200256;17.65169;-14440.78;-8495.897;0.223308;0.07154509;0;
-33171.55;-24673.53;844.2122;-34956.1;3.743669;20.78203;-33348.83;-18336.91;0.5479203;-0.2533635;0;
-22520.48;-15026.16;-991.9011;-24405.4;2.534458;17.61307;-22648.28;-10564.99;0.4174351;-0.1231742;0;
-30116.91;-22002.89;-3164.874;-31885.01;3.201497;16.79158;-30175.65;-15790.43;0.09217899;0.1368189;0;
-21611.42;-15836.59;-4084.871;-23518.07;2.193902;13.96155;-21631.61;-12028.31;0.1570537;0.2016488;0;
12837.55;9713.741;-3565.041;12868.5;0.8525273;12.40691;12878.56;6948.809;0.02696121;0.006544113;0;
21566.52;13738.44;-2613.67;23695.97;1.587629;7.839728;21743.92;9878.694;-0.03803322;-0.3832665;0;
17248;10554.6;-776.3875;19193.85;1.921802;2.004457;17384.42;7302.246;-0.1029623;-0.2529467;0;
20296.13;12951.38;1521.957;22302.1;-1.295309;7.093024;20453.33;9320.812;-0.3627283;0.07214415;0;
16582.38;11042.96;2469.919;17990.75;-3.772254;8.76047;16597.09;7946.772;-0.2324291;0.07207166;0;
-14276.17;-11106.54;1999.141;-14792.45;-3.098879;9.0196;-14504.35;-8420.536;0.1576085;0.007031899;0;
-32793.68;-24289.54;881.8492;-34604.84;-2.493529;10.48404;-32974.14;-17973.46;0.2873848;0.07199217;0;
-22197.77;-14703.33;-968.3573;-24098.94;-4.098613;11.34428;-22332.57;-10314.42;-0.03774066;-0.1229822;0;
-30673.38;-22571.97;-3157.471;-32429.36;-3.692353;12.00271;-30740.94;-16329.97;-0.2975721;0.2019781;0;
-22547.4;-16745.84;-4098.152;-24469.8;-4.023436;13.46428;-22580.94;-12812.59;-0.03740374;0.3966772;0;
12597.51;9546.361;-3571.156;12597.01;-6.296569;16.46486;12631.67;6866.684;0.09256853;-0.2533948;0;
21706.64;13884.46;-2592.87;23823.63;2.551017;9.415351;21878.61;9991.694;-0.03745917;-0.3181075;0;
17239.88;10532.45;-749.0656;19191.29;9.112536;3.578497;17372.22;7275.343;-0.3622582;-0.3177879;0;
20366.26;13030.56;1555.498;22380.78;6.826205;6.78996;20524.06;9404.256;-0.2969269;-0.3824359;0;
16677.64;11106.82;2495.118;18019.3;6.149761;7.720899;16687.84;7980.767;-0.1666939;0.07271972;0;
-14237.48;-11107.87;1993.143;-14851.93;10.63156;2.689543;-14467.13;-8258.297;-0.2314937;0.007679304;0;
-32124.8;-23631.95;878.1686;-33990.68;14.70671;-0.9301773;-32318.6;-17584.45;-0.1013264;-0.2521978;0;
-20490.56;-12979.41;-957.1354;-22462.89;6.251843;0.9462795;-20661.78;-9393.652;-0.4260613;0.1378597;0;
-28397.4;-20276.57;-3150.102;-30210.53;-0.5869419;0.8783457;-28487.61;-14350.41;-0.6205353;0.4625579;0;
-20798.18;-15098.29;-4089.057;-22727.89;2.227663;1.882146;-20842.41;-11275.21;-0.4250097;-0.05764564;0;
12989.83;9802.874;-3579.921;12999.11;4.568973;3.018965;13017.7;6941.639;-0.294648;-0.3824244;0;
21378.57;13547.7;-2638.498;23509.84;-7.022567;2.480068;21555.66;9693.355;-0.2943519;-0.05720346;0;
16978.05;10279.94;-794.5696;18929.62;-15.85775;2.209644;17112.03;7013.816;0.03078059;-0.1221133;0;
20167.52;12821.27;1521.065;22179.53;-11.01904;3.681048;20325.21;9181.785;0.2256517;-0.1219906;0;
16618.42;11035.51;2460.376;17976.44;-14.28952;6.69146;16628.45;7901.245;-0.03444442;-0.2518027;0;
-13778.54;-10694.63;1974.366;-14371.65;-4.294829;1.125336;-14013;-7961.975;0.1604922;-0.121615;0;
-31719.98;-23238.12;839.7015;-33552.5;7.497506;-1.889966;-31909.58;-17116.76;0.09536361;0.2033439;0;
-20939.4;-13433.41;-1043.321;-22848.18;-4.365396;-0.8164011;-21087.1;-9601.938;-0.1646016;-0.1866645;0;
-29131.95;-21014.31;-3236.717;-30883.28;-8.647918;-3.427854;-29194.97;-14991.37;0.03046584;0.07339243;0;
-21437;-15586.23;-4161.529;-23334.67;-4.35232;2.135051;-21462.52;-11698.11;-0.1644668;0.2682207;0;
12638.78;9625.053;-3635.735;12642.47;-6.022886;5.348026;12675.4;6842.483;-0.0993342;0.1380165;0;
21663.07;13832.65;-2660.258;23794.15;-1.260436;6.012482;21843.39;9967.315;0.2905697;0.7875513;0;
17433.67;10716.84;-815.1825;19394.12;3.428903;9.288543;17572.34;7444.297;0.09537567;0.4619232;0;
20593.27;13265.29;1498.818;22601.6;-3.808211;6.532909;20754.66;9629.715;-0.1645895;-0.1882143;0;
17327.07;11641.49;2455.674;18785.28;-7.354358;4.583901;17360.22;8475.333;-0.09945681;0.2667462;0;
-13448.5;-10504.13;1954.145;-13902.3;-6.208868;6.387835;-13645.07;-7880.247;0.09554515;-0.05835858;0;
-32293.65;-23819.91;813.8781;-34078.34;-6.269002;6.113484;-32458.6;-17624.68;-0.03448553;-0.1882346;0;
-21903.14;-14405.93;-1048.972;-23773.51;-8.473506;4.968631;-22034.71;-10297.36;-0.2943203;0.2017586;0;
-30597.14;-22523.47;-3250.593;-32310.36;-11.4791;4.829673;-30650.68;-16359.6;0.09577953;-0.2532156;0;
-22776.41;-16857.18;-4179.264;-24651.84;-7.515452;1.676683;-22793.05;-12850.83;0.42052;-0.2529611;0;
12506.92;9589.316;-3622.936;12509.44;-7.374179;1.072213;12549.38;6926.324;-0.2295759;0.2670318;0;
22021.93;14191.22;-2614.488;24144.73;-3.012513;-3.014762;22200.77;10298.51;-0.35928;0.07186145;0;
17806.63;11074.32;-735.1795;19769.7;3.822041;-8.906048;17946.92;7779.985;0.2257871;0.1367566;0;
21098.82;13787.56;1599.386;23092.91;-4.353473;-0.5244764;21261.21;10196.56;0.1605929;0.2665539;0;
17870.22;12110.96;2534.964;19415.74;-6.224133;3.561949;17909.87;8794.903;0.2253989;-0.2534527;0;
-12257.92;-9409.132;2001.746;-12600.29;-7.892818;2.88854;-12450.27;-7035.528;0.2251724;-0.3181654;0;
-30633.72;-22172.74;833.7272;-32427.8;-12.57296;4.292218;-30809.67;-16258.48;-0.09989056;0.2018931;0;
-20886.63;-13349.15;-1069.935;-22769.63;-6.465734;5.560581;-21021.94;-9628.339;-0.03482285;0.0717555;0;
-29442.54;-21337.47;-3289.229;-31189.73;-5.788676;8.502182;-29494.99;-15396.88;0.09514683;-0.2531533;0;
-20865.13;-15210.44;-4189.625;-22764.93;-0.8937155;3.403058;-20890.33;-11504.19;0.03008388;0.07193777;0;
13591.34;10338.93;-3623.714;13657.89;4.867959;0.3854676;13631.6;7419.269;-0.3597504;0.1368328;0;
22099.72;14256.72;-2656.213;24233.55;0.04029623;-0.6866466;22279.86;10394.24;-0.2294542;-0.123174;0;
17804.11;11094.06;-825.2446;19747.63;-2.50534;-4.436879;17939.58;7796.562;0.1605804;0.1368191;0;
20911.23;13571.6;1476.303;22922.23;1.180873;-1.753164;21071.75;9973.13;-0.1644177;0.201649;0;
17420.32;11747.14;2401.948;18926.91;7.476326;0.05707536;17450.4;8437.673;0.03064954;-0.3182924;0;
-12490.08;-9489.605;1891.352;-12891.15;-6.664707;-3.024136;-12697;-6973.563;0.3554555;-0.4479072;0;
-29758.11;-21288.46;774.9805;-31623.95;-16.83844;-4.159746;-29941.85;-15691.01;-0.0996731;-0.2525552;0;
-18429.87;-10895.91;-1069.84;-20446.53;-9.253059;-2.347088;-18581.74;-8026.375;-0.03460561;-0.187334;0;
-25884.72;-17724.42;-3268.284;-27715.5;-11.98945;-1.6749;-25959.68;-12166.66;0.2252985;-0.05721113;0;
-17924.04;-12696.44;-4207.386;-19815.22;-2.734004;-0.199654;-17964.43;-9299.294;-0.2296992;0.07278103;0;
14534.63;10793.64;-3699.88;14640.99;3.296963;0.7383077;14572.79;7612.179;-0.1645011;0.2026426;0;
22085.91;14250.81;-2743.751;24243.57;3.628443;1.5413;22269.91;10459.69;0.2254682;0.397341;0;
17922.39;11238.45;-883.8648;19864.35;10.59102;2.142598;18056.04;7913.063;-0.3594644;0.2020397;0;
20941.65;13584.75;1428.924;22957.95;1.06856;1.939496;21102.84;9996.327;-0.5540052;0.006934686;0;
17579.04;11862.05;2351.117;19067.17;-0.9422462;3.277206;17603.29;8471.841;-0.03370981;-0.2529416;0;
-11595.59;-8717.621;1844.54;-12021.78;-6.768448;-2.151583;-11814.45;-6402.168;0.09625874;-0.8373935;0;
-28612.74;-20148.41;723.655;-30486.26;-15.53556;-6.704138;-28796.01;-14722.39;-0.03377266;-0.7715848;0;
-17975.95;-10422.62;-1130.859;-20038.48;-8.085208;-5.424787;-18128.17;-7754.408;-0.1636734;0.008798583;0;
-25550.02;-17392.92;-3308.175;-27427.72;-9.885745;-7.026865;-25627.93;-12010.71;-0.03357427;0.3985938;0;
-17243.59;-11993.63;-4225.091;-19129.04;0.5066647;-6.283054;-17281.03;-8900.821;0.3562635;0.1383239;0;
14840.38;11117.54;-3717.973;14968.62;10.82128;-3.73145;14878.47;7742.199;0.2909382;-0.2516191;0;
22136.02;14305.51;-2754.173;24299.12;6.255083;-9.019169;22319.07;10569.95;-0.09915818;-0.186399;0;
18053.3;11361.74;-902.3823;19989.71;11.20529;-12.96204;18186.42;8024.819;0.09584347;-0.05627697;0;
21015.63;13662.81;1404.459;23035.05;4.629948;-7.456536;21178.82;10064.63;0.3556165;0.1386816;0;
17764.4;12029.65;2351.134;19279.93;-1.536646;-5.573583;17790.45;8671.559;0.3552592;0.2035096;0;
-11773.33;-8940.777;1850.116;-12175.75;5.296425;-4.295307;-12002.91;-6611.915;0.2899349;0.07337042;0;
-29442.56;-20983.1;726.9142;-31323.14;4.219376;-2.415529;-29632.46;-15367.23;-0.2300952;0.3981334;0;
-18436.61;-10874.5;-1109.643;-20509.63;8.502044;-2.815;-18580.36;-7991.813;-0.4897333;0.2677987;0;
-25798.68;-17646.95;-3294.773;-27647.94;11.57496;-1.606479;-25861.58;-12109.43;-0.09943718;-0.5120785;0;
-17895.1;-12627.56;-4219.324;-19717.8;9.085083;-4.886967;-17915.39;-9184.239;-0.03436993;-0.4465966;0;
14634.36;10926.78;-3678.136;14792.5;12.15741;-6.623552;14680.51;7747.42;-0.09930274;-0.1213112;0;
22335.9;14503.92;-2715.469;24494.97;2.164863;-9.965982;22520.39;10706.04;0.1606664;-0.05622194;0;
18105.09;11414.94;-892.9365;20048.39;-4.93726;-16.31923;18240.97;8091.383;0.4853417;0.4635733;0;
21108.36;13756.18;1413.833;23125.8;-1.784467;-11.07828;21272.17;10157.05;0.5498213;0.5280749;0;
17799.63;12061.28;2372.836;19302.85;-1.648952;-8.387893;17826.17;8680.898;0.2893995;-0.1221292;0;
-11523.12;-8696.853;1895.503;-11926.74;-4.996198;-14.07283;-11752.21;-6413.492;0.2241414;-0.1220065;0;
-28995.55;-20539.33;780.7825;-30853.56;-12.49327;-14.72852;-29191.11;-14983.88;-0.1009205;0.008050788;0;
-18660.8;-11099.14;-1065.293;-20692.88;3.862635;-18.66565;-18814.38;-8124.527;-0.2307538;-0.3817613;0;
-26098.41;-17958.43;-3233.195;-27958.09;17.7912;-20.99124;-26174.4;-12447.05;-0.1005873;-0.4463451;0;
-17507.41;-12263.8;-4159.807;-19397.69;4.912604;-20.63523;-17543.47;-9108.117;-0.2304209;-0.1210599;0;
14766.11;11046.8;-3675.166;14890.81;0.8891799;-22.62392;14805.37;7721.986;-0.1002547;0.07396377;0;
22133.15;14302.68;-2736.583;24301.35;3.366533;-16.63983;22318.59;10546.21;0.02978075;0.2038241;0;
18086.81;11395.78;-897.8658;20026.27;2.425145;-14.14481;18222.29;8064.401;-0.03521652;0.333554;0;
21022.64;13669.93;1403.099;23034.11;-0.3229818;-8.77208;21187.6;10057.7;-0.1001485;-0.0565852;0;
17801.42;12034.34;2349.088;19331.44;-3.471465;-2.40007;17828.96;8693.367;-0.3599172;-0.186463;0;
-11858.85;-9093.813;1852.944;-12227.87;-4.338633;-4.340103;-12088.35;-6750.688;-0.0996862;0.1385611;0;
-29904.76;-21449.27;716.403;-31726.93;-5.271303;-2.058383;-30090.63;-15700.92;0.09531599;0.2033892;0;
-19183.96;-11630.57;-1136.042;-21152.91;-7.945323;-5.807298;-19324.21;-8453.089;-0.3595512;0.2681521;0;
-26985.63;-18869.21;-3322.536;-28766.74;-9.478558;-9.619368;-27048.58;-13145.42;-0.1642879;0.07298067;0;
-19147.69;-13705.44;-4249.464;-20993.21;-8.798471;-8.002173;-19162.75;-10058.16;0.03077923;0.1378747;0;
14091.21;10578.43;-3721.707;14205.01;-8.321116;-9.80261;14142.41;7536.948;-0.03421904;0.3326382;0;
22195.72;14354.72;-2782.75;24343.35;-7.039958;-8.921983;22380.04;10515.06;0.1607174;-0.2524022;0;
17805.36;11102.22;-987.4488;19749.85;-7.703445;-7.171523;17943.27;7794.577;-0.3591829;-0.5769852;0;
20728.29;13378.87;1304.08;22748.79;0.07480327;-12.12093;20895.73;9767.249;-0.6836587;-0.6413728;0;
17455.52;11723.96;2274.593;18927.44;7.776911;-15.72577;17478.24;8402.46;0.2265711;-0.3158917;0;
-12221.81;-9386.406;1822.097;-12669.41;2.678882;-12.82976;-12461.35;-6868.686;0.4212454;-0.1856396;0;
-29692.87;-21263.73;739.7151;-31544.89;1.671812;-13.41972;-29896.53;-15664.06;-0.1638839;-0.6402244;0;
-18592.02;-11057.63;-1074.335;-20602.96;3.545167;-9.521285;-18739.02;-8228.6;-0.0987519;-0.1198424;0;
-26139.08;-17999.34;-3241.416;-27960.25;3.541605;-3.550359;-26201.13;-12499.23;-0.09865267;0.4000168;0;
-18127.04;-12738.74;-4180.404;-19994.8;4.27498;-10.57988;-18165.17;-9486.38;-0.2934556;-0.1850913;0;
14386.97;10806.32;-3686.185;14493.23;5.543482;-13.18152;14422.29;7519.203;-0.6179974;0.009996752;0;
21959.48;14116.26;-2731.068;24116.11;2.255383;-11.15879;22148.89;10345.75;-0.8772458;0.4647581;0;
17789.2;11091.78;-890.9976;19735.02;-2.76975;-13.75985;17926.49;7761.137;-0.2916583;0.1394544;0;
20772.09;13415.27;1414.239;22798.21;4.198282;-6.043169;20940.46;9803.495;0.4882429;-0.05558775;0;
17534.97;11819.76;2387.922;19000.42;6.271145;-0.07579815;17560.18;8487.583;0.2928503;0.1393701;0;
-12396.17;-9527.657;1921.381;-12841.48;6.398565;-3.290842;-12628;-7114.873;-0.1622154;0.2041975;0;
-30272.49;-21826.22;821.7521;-32098.61;11.88449;-3.086586;-30453.58;-16118.99;-0.1620524;-0.1208445;0;
-19058.6;-11526.07;-990.6318;-21049.85;0.9551871;-2.346673;-19194.43;-8542.143;0.09797982;-0.1856904;0;
-26854.17;-18722.79;-3172.383;-28638.3;-2.997888;-2.411298;-26910.09;-13090.03;0.1628487;0.1393329;0;
-19055.81;-13661.09;-4113.252;-20894.4;-6.612198;-3.346575;-19068.87;-10044.97;-0.227119;0.1391929;0;
14149.78;10589.61;-3604.232;14240.96;-16.1164;-5.620632;14195.33;7499.093;-0.4217928;-0.1857837;0;
22114.91;14272.55;-2660.037;24268.18;-3.842694;-4.476274;22299.29;10443.29;0.09836976;-0.2505643;0;
17802.94;11103.11;-826.1904;19755.44;-1.294213;-3.065196;17942.92;7780.68;-0.03166376;0.07452416;0;
20823.65;13473.24;1487.54;22848.01;5.271171;-8.956431;20991.63;9866.699;-0.226534;0.2693513;0;
17846.25;12072.53;2452.996;19362.14;17.59073;-12.29652;17877.81;8693.12;0.3583997;0.07417863;0;
-11785.47;-9033.721;1958.154;-12167.9;3.104745;-12.1502;-12006.13;-6704.52;0.09817024;-0.05583059;0;
-29658.58;-21221.09;829.1906;-31488.88;-1.319004;-12.40592;-29840.31;-15571.99;-0.2917325;0.0741602;0;
-18957.19;-11419.2;-1015.934;-20977.54;-2.656849;-13.33121;-19099.6;-8477.968;0.1633321;-0.055849;0;
-27586.96;-19493.77;-3223.491;-29384.17;-8.280258;-15.32725;-27648.26;-13856.35;0.03323327;-0.3806296;0;
-20137.32;-14476.13;-4162.778;-22012.71;-4.454521;-8.077871;-20157.09;-10733.37;-0.3566042;0.204459;0;
13529.52;10290.31;-3647.352;13572.23;-5.990286;-1.97443;13568.77;7261.114;-0.2912785;0.3991555;0;
21842.11;14000.71;-2700.833;23990.73;-0.6929818;-2.843224;22024.66;10153.7;-0.03111647;-0.1859516;0;
17581.17;10856.38;-853.2187;19537.36;3.527273;-1.902606;17720.01;7542.278;0.03388214;0.2040393;0;
20839.91;13500.98;1468.878;22852.57;3.390007;2.787989;21007.13;9875.288;-0.09608658;0.3987363;0;
17650.22;11891.32;2424.702;19157.64;6.46806;5.866341;17679.22;8555.29;-0.1609574;-0.1863704;0;
-12282.65;-9467.225;1937.884;-12686.77;4.786621;5.726481;-12505.79;-7042.955;0.1640411;0.07368618;0;
-29732.75;-21289.33;837.5518;-31603.38;6.054609;6.92642;-29909.11;-15619.53;0.1638762;0.2035468;0;
-18780.9;-11240.85;-988.5598;-20842.33;3.301859;3.771323;-18921.78;-8278.816;0.03377688;0.07340761;0;
-27437.78;-19331.86;-3192.255;-29254.24;2.226815;1.624141;-27506.52;-13659.02;-0.2261264;0.3981706;0;
-19943.6;-14354.46;-4138.398;-21814.2;0.7516848;-0.9897645;-19966.33;-10567.5;-0.2908666;0.4627378;0;
13668.44;10343.61;-3629.822;13721.5;-5.143569;-4.739753;13710.72;7347.289;0.1641971;0.2024035;0;
21984.98;14139.94;-2692.753;24130.47;6.181105;-4.801974;22168.61;10276.37;-0.03086991;0.3971021;0;
17639.45;10922.12;-856.1569;19602.49;11.7346;-7.208473;17777.14;7608.096;-0.4856103;0.3967032;0;
20733.68;13379.08;1465.724;22764.39;12.92826;-7.067264;20898.03;9741.844;0.09958374;-0.1234342;0;
17397.46;11702.44;2415.523;18825.64;20.95322;-8.265856;17418.17;8397.648;0.4892877;-0.1882775;0;
-12669.91;-9745.37;1913.91;-13205.79;9.880103;-7.453755;-12904.63;-7233.047;0.09899203;0.00681368;0;
-30235.91;-21782.8;791.2061;-32091.51;3.439814;-4.164163;-30425.22;-16037.16;-0.09600946;-0.1880952;0;
-19080.2;-11553.16;-1064.125;-21034.72;6.316746;-12.13076;-19228.2;-8417.604;-0.03094564;-0.2528735;0;
-26769.64;-18656.16;-3266.542;-28566.57;1.62135;-15.60163;-26840;-12974.32;-0.1608492;0.1371846;0;
-18805.18;-13345.87;-4202.959;-20698.89;8.519572;-16.65762;-18833.48;-9859.39;0.03421441;0.2669815;0;
14067.12;10599.17;-3704.5;14142.03;14.87402;-20.65979;14104.56;7453.07;-0.160722;0.2017459;0;
21893.69;14045.54;-2757.783;24049.38;4.878744;-15.07957;22076.04;10212.11;-0.1605605;0.3314778;0;
17652;10941.78;-902.8497;19604.6;-1.154378;-12.6531;17790.42;7616.979;0.09947021;0.2012101;0;
20677.56;13315.68;1399.651;22704.39;4.942351;-9.894143;20840.37;9668.259;-0.2254664;0.006105851;0;
17190.84;11488.79;2320.812;18586.96;9.156943;-5.396467;17225.95;8202.979;0.09959681;0.07106706;0;
-12595.16;-9688.987;1827.133;-13154.67;2.583659;-5.658916;-12793.31;-7133.403;0.6192355;0.07099565;0;
-29840.97;-21374.03;703.892;-31695.42;-0.2319759;-3.57682;-30008.45;-15645.45;0.4886786;0.1358917;0;
-18937.52;-11407.18;-1182.368;-20910.86;0.3704936;-2.50156;-19076.89;-8349.532;0.1633508;-0.05914691;0;
-27049.27;-18932.3;-3404.343;-28849.28;-4.519023;-1.092404;-27114.58;-13254.7;-0.16165;-0.1240548;0;
-19159.23;-13636.32;-4338.764;-21017.97;6.068089;-0.2875727;-19190.22;-10085.08;-0.2914223;-0.05896283;0;
13985.18;10558.68;-3822.349;14078.02;15.43911;0.1146139;14026.2;7437.187;-0.6159661;-0.2538056;0;
21981.62;14124.76;-2883.431;24136.33;5.577964;1.387174;22168.7;10285.06;-0.6803145;-0.2535506;0;
17617.2;10906.21;-1067.024;19570.8;3.026764;0.04612195;17755.19;7577.722;-0.09492491;-0.3832305;0;
20645.48;13279.47;1230.55;22666.57;2.822652;5.404588;20809.65;9634.742;0.2300072;-0.3828454;0;
17405.8;11718.69;2153.162;18849.7;0.2751963;8.949192;17431.1;8412.357;0.5546128;-0.2525261;0;
-12639.69;-9698.627;1611.77;-13121.28;1.211949;6.796807;-12857.36;-7220.226;0.09928411;0.07256439;0;
-30551.05;-22091.43;447.6406;-32371.17;-0.2621614;7.928627;-30722.75;-16255.18;-0.2906197;0.2024262;0;
-19358.25;-11841;-1429.834;-21299.12;0.9435508;2.361198;-19491.87;-8531.232;0.09947636;0.2671901;0;
-26797.77;-18688.36;-3630.275;-28578.69;0.07194657;-2.999687;-26853.09;-12972.91;0.2293111;0.331889;0;
-18906.7;-13443.81;-4550.538;-20761.92;1.880535;-1.991929;-18922.64;-9958.646;0.2290807;-0.3181179;0;
14125.05;10650.81;-4019.402;14235.19;4.624336;-3.664439;14169.88;7526.794;0.09891582;-0.447733;0;
22101.46;14248.58;-3061.734;24260.08;-0.06935977;-6.875877;22286.24;10402.64;-0.03111826;-0.1224464;0;
17809.59;11098.76;-1229.905;19760.01;1.471927;-9.146327;17947.9;7760.496;-0.1610217;-0.057356;0;
20801.17;13434.63;1064.741;22830.74;-8.242443;-11.0126;20967.61;9794.688;-0.1608599;-0.2522004;0;
17410.37;11711.69;2000.232;18862.29;-18.0798;-12.27421;17433.29;8367.465;0.4889752;-0.1869796;0;
-12359.22;-9454.959;1501.971;-12847.19;-8.61716;-13.46751;-12593.86;-7064.472;0.2935818;0.0730776;0;
-29987.34;-21534.84;364.5642;-31826;-7.06826;-13.38699;-30174.54;-15811.97;-0.3563866;-0.05693051;0;
-18936.51;-11413.9;-1494.805;-20900.65;-3.242764;-15.18208;-19078.89;-8255.125;-0.2910612;0.07306138;0;
-26861.67;-18757.22;-3694.306;-28645.01;2.587643;-18.24798;-26924.2;-13057.49;-0.355736;0.3978247;0;
-19399.88;-13861.51;-4641.944;-21252.43;1.848109;-11.46449;-19414.33;-10226.33;-0.4203459;0.2025229;0;
13904.24;10521.16;-4118.353;13991.36;7.405957;-7.032218;13952.17;7461.322;-0.2250215;0.1373521;0;
22234.26;14381.23;-3156.774;24381.52;0.6997344;-7.962913;22418.05;10518.28;-0.1598281;0.2021814;0;
17834.76;11112.96;-1326.911;19789.44;-6.735708;-4.94074;17970.94;7777.885;0.1651692;-0.1228585;0;
20910.04;13545.46;984.1672;22930.69;5.662292;-8.150834;21075.28;9901.014;0.1000359;0.007199676;0;
17629.59;11936.76;1922.675;19079.43;10.68044;-9.549286;17649.24;8590.297;-0.02999929;0.07215978;0;
-12421.42;-9494.296;1402.628;-12888.09;9.597986;-9.204776;-12662.2;-7120.036;0.1649329;0.07208728;0;
-30202.32;-21749.25;272.8799;-32028.87;11.79914;-12.6116;-30391.56;-16021.4;0.2297345;0.2669169;0;
-19252.75;-11734.57;-1576.043;-21226.71;8.70583;-6.637565;-19401.27;-8500.046;-0.03036571;0.331616;0;
-27184.62;-19085.8;-3780.679;-28994.31;7.893775;-3.28181;-27261.59;-13340.08;-0.2252372;0.2013481;0;
-19297.91;-13822.18;-4712.582;-21188.96;3.531587;-5.823802;-19323.3;-10202.33;0.1647931;-0.1236909;0;
14032.29;10586.34;-4191.918;14105.09;-1.093662;-5.014216;14076.46;7518.989;0.4894643;0.2012701;0;
22109.13;14253.9;-3256.362;24261.07;-2.030568;-7.889383;22292.52;10387.49;0.2291031;0.7208066;0;
17806;11086.74;-1432.489;19754.76;-6.51553;-8.350275;17940.58;7743.078;0.2938402;0.1353763;0;
20797.72;13428.18;873.6043;22820.36;-5.169813;-13.16453;20962.56;9785.985;0.1636103;-0.1895965;0;
17426.76;11732.53;1822.749;18865.88;-5.365689;-20.11741;17440.05;8369.548;0.03351121;0.07046338;0;
-12327.93;-9413.506;1342.595;-12843.78;-9.111341;-13.19808;-12588.39;-7066.139;0.6831509;0.005425235;0;
-30031.36;-21591.73;232.8972;-31887.31;-10.77615;-11.84522;-30232.35;-15865.41;0.7474318;0.005419783;0;
-19165.61;-11653.02;-1607.865;-21134.94;-14.44999;-10.96254;-19313.76;-8424.044;0.09700742;0.135349;0;
-26834.41;-18744.29;-3793.743;-28643.47;-16.31051;-5.994905;-26916.83;-13079.69;0.03194261;-0.1246563;0;
-18898.95;-13431.51;-4731.442;-20797.73;-21.51903;-15.16536;-18931.93;-9968.868;-0.1629915;-0.3194331;0;
14103.78;10661.1;-4238.527;14168.7;-25.85069;-20.10674;14143.92;7501.169;-0.4876645;-0.1242101;0;
22017.78;14164.52;-3310.967;24163.15;-26.09313;-18.88084;22196.26;10310.34;-0.3572398;-0.05911797;0;
17753.81;11034.11;-1478.544;19706.19;-27.40609;-21.00526;17887.36;7691.121;-0.09701144;0.07087611;0;
20872.16;13499.53;836.1852;22893.63;-27.78069;-18.84076;21032.11;9830.142;0.2928901;0.5255763;0;
17476.74;11783.36;1786.086;18863.48;-29.62781;-16.07559;17491.25;8476.081;0.3575631;0.3301462;0;
-12654.96;-9736.408;1297.13;-13226.48;-22.76651;-18.7387;-12894.27;-7267.012;0.4221712;-0.319859;0;
-30542;-22092.97;191.1005;-32403.14;-15.24155;-20.59533;-30746.63;-16260.2;0.421747;-0.3195376;0;
-19445.72;-11941.38;-1642.061;-21409.01;-20.65124;-13.67558;-19619.81;-8661.174;0.03151917;-0.2542492;0;
-27425.63;-19339.63;-3837.197;-29231.7;-22.03799;-10.37973;-27523.86;-13620.74;-0.1634145;-0.4488957;0;
-19911.04;-14303.81;-4789.845;-21802.25;-17.72894;-6.886312;-19962.4;-10631.74;-0.2282177;-0.31851;0;
13704.46;10403.11;-4293.077;13772.2;-16.97419;-2.92746;13733.65;7355.191;0.1618157;0.07161409;0;
22190.82;14331.14;-3343.02;24339.84;-12.67022;-3.125468;22365.95;10432.56;0.6164245;0.2014768;0;
17811.73;11082.27;-1510.174;19757.78;-7.366207;0.2266976;17934.16;7741.943;0.1610337;0.07133969;0;
20873.77;13500.34;790.6567;22881.78;-10.43929;-6.203709;21023.53;9798.938;-0.09899745;0.1362354;0;
17330.71;11674.48;1750.442;18749.65;-8.955906;-10.88616;17324.06;8398.963;0.09600405;0.1360985;0;
-13108.76;-10114.79;1270.829;-13665.2;-11.22408;-9.200707;-13406.7;-7703.886;0.4207443;0.2009291;0;
-31351.82;-22911;158.6735;-33242.96;-18.11168;-11.06692;-31625.21;-16937.3;0.5502562;0.1357598;0;
-20925.01;-13457.59;-1670.442;-22884.24;-2.620791;-9.381291;-21143.81;-9538.66;0.4197686;0.005688718;0;
-28689.96;-20619.57;-3837.111;-30523.7;6.557894;-9.237899;-28838.62;-14684.09;0.2244448;0.07065035;0;
-19997.16;-14444.37;-4758.181;-21974.72;3.269751;-6.750309;-20112.45;-10966.34;-0.1655848;-0.05935533;0;
13895.6;10552.84;-4258.29;13893.45;7.754444;-4.198236;13887.4;7500.104;-0.4902551;-0.1892304;0;
22268.43;14409.67;-3313.499;24390.44;0.8468004;-4.127035;22432.51;10498.56;-0.1649258;-0.1890402;0;
18142.43;11409.05;-1463.27;20070.64;-3.708402;-2.716246;18250.5;8035.693;0.09510931;-0.2538176;0;
21306.63;13944.41;868.0919;23295.53;-1.694944;-3.048432;21444.19;10244.83;0.2249484;0.1362415;0;
17938.42;12200.41;1832.547;19409.91;-3.36818;-2.978386;17919.78;8871.474;0.2247224;0.2010719;0;
-12626.23;-9772.186;1328.052;-13131.54;-2.293069;-3.779188;-12968.24;-7450.553;0.1595293;-0.1239668;0;
-31286.94;-22862.45;209.9976;-33226.46;-3.161421;-4.646169;-31634.63;-16980.6;0.09440162;-0.3187443;0;
-20527.24;-13045.4;-1609.736;-22568.03;-0.5462757;-4.909432;-20833.59;-9303.092;0.1592741;-0.4483587;0;
-28050.57;-19973.73;-3791.521;-29955.2;0.3922783;-4.033721;-28277.39;-14155.24;0.09414673;-0.05810415;0;
-19893.67;-14335.83;-4720.727;-21907.71;2.066823;-7.847573;-20053.2;-10756.79;-0.4256866;0.1368563;0;
13872.65;10502.21;-4191.497;13863.96;3.73871;-12.39447;13843.68;7516.881;-0.3602915;0.1367188;0;
22403.91;14540.36;-3230.719;24519.71;3.19909;-5.415909;22557.78;10594.89;0.1598092;0.4614181;0;
18137.8;11406.78;-1391.552;20058.12;8.152369;-2.061443;18235.04;8011.362;-0.1002207;0.2660524;0;
21241.51;13878.79;936.2702;23215.43;-5.318782;-1.456525;21369.19;10183.15;-0.2300547;0.2657851;0;
18092.08;12312.84;1907.091;19554.38;-16.29815;2.228939;18059.22;8884.602;0.6147519;0.1355834;0;
-12081.16;-9317.255;1408.05;-12619.64;-7.641586;-0.2516084;-12471.95;-7221.282;1.003938;-0.449259;0;
-30602.83;-22180.33;284.5114;-32602.58;-6.628554;-1.323082;-31000.05;-16499.45;0.4182234;-0.1889382;0;
-20410;-12897.21;-1543.996;-22463.91;-5.751237;0.8216398;-20731.74;-9353.301;-0.2318702;0.006153689;0;
-28802.15;-20733.88;-3729.143;-30704.5;-5.478015;0.7538313;-29056.79;-15012.33;-0.4265393;-0.1237872;0;
-20688.76;-15008.62;-4660.488;-22757.52;0.824129;2.226698;-20901.08;-11419.78;-0.1662413;0.396076;0;
13649.43;10445.84;-4134.926;13579.8;9.46349;3.698025;13588.39;7464.081;0.4186318;0.785482;0;
22421.66;14562.41;-3175.611;24518.09;0.5453722;1.818848;22567.25;10604.98;0.3532438;0.4598561;0;
18313.61;11561.5;-1330.69;20221.1;-4.545391;1.013225;18402.84;8146.494;-0.03691519;0.459394;0;
21459.15;14119.08;975.3953;23424.61;1.353675;1.481087;21582.98;10439.37;-0.2317801;0.4589324;0;
18369.56;12523.86;1879.585;19859.73;2.959905;2.216411;18331.12;9017.997;-0.2315472;0.06866719;0;
-11286.06;-8584.78;1320.008;-11787.31;0.8134769;0.2046962;-11702.04;-6544.137;0.1584895;-0.1263038;0;
-29479.24;-21080.07;161.5759;-31518.53;0.8790324;-3.144534;-29918.17;-15650.96;0.1583302;0.0687251;0;
-18769.04;-11236.38;-1687.282;-20955.96;-2.337032;2.953889;-19137.61;-8270.847;-0.1666656;0.06865605;0;
-26270.44;-18170.33;-3885.528;-28279.78;-6.620615;7.237768;-26565.23;-12756.39;-0.2314654;0.06858706;0;
-18415.34;-13115.95;-4834.379;-20465.39;-2.12696;3.948393;-18647.27;-9780.512;-0.03633084;0.003550804;0;
14712.44;11057.51;-4313.671;14717.92;-0.04774197;3.743477;14651.07;7856.533;0.02867301;-0.1913548;0;
22807.69;14943.68;-3351.959;24923.81;-2.860733;3.069886;22952.48;11026.76;-0.1012905;0.1986416;0;
18646.32;11925.65;-1511.811;20551;-4.130656;1.861169;18728.22;8491.215;-0.03622137;0.06850725;0;
21638.01;14269.47;804.2791;23614.33;-4.193855;1.859299;21755.98;10600.84;0.1587171;-0.7111697;0;
18395.79;12591.86;1748.34;19888.06;-4.390712;0.7857041;18352.77;9020.553;0.4184269;-0.2556837;0;
-10563.38;-7803.391;1246.772;-11064.35;-6.730824;1.253795;-10986.75;-5896.284;-0.1017322;0.3292793;0;
-28112.31;-19717.17;112.7758;-30189.84;-7.393647;2.927048;-28559.12;-14489.82;-0.6863361;0.1990138;0;
-17806.59;-10287.18;-1753.977;-20068.86;-12.20899;-1.697594;-18179.92;-7675.379;-0.5557117;0.2637811;0;
-24994.34;-16879.01;-3937.57;-27059.25;-18.35866;-5.580776;-25303;-11752.25;-0.1653493;0.3284834;0;
-16570.45;-11522.53;-4850.434;-18629.04;-9.632679;-1.288383;-16823.33;-8643.237;-0.03524851;0.1982187;0;
15516.4;11629.26;-4330.709;15553.96;1.160642;0.1194923;15449.24;8160.146;0.1596889;0.3279542;0;
22901.71;15060.63;-3354.331;25032.36;-9.556817;-0.2824644;23048.48;11225.25;0.4843652;0.19769;0;
19054.4;12330.36;-1481.79;20949.4;-9.146049;-1.152959;19132.78;8854.091;0.0291071;-0.06237805;0;
21880.75;14524.75;830.3965;23859.82;-9.27058;2.130302;22000.1;10900.11;-0.2307915;-0.1272827;0;
18886.47;12964.65;1774.681;20402.04;-24.33182;7.15176;18841.06;9246.706;0.2891791;0.002779867;0;
-9146.109;-6569.157;1288.485;-9628.254;20.70419;-1.22811;-9595.088;-5071.533;0.2239212;0.1327118;0;
-26400.82;-18062.73;157.3206;-28514.55;52.49942;-5.044842;-26886.47;-13304.28;0.2886636;-0.2572256;0;
-15992.32;-8564.469;-1700.904;-18322.45;40.39023;-5.709541;-16402.52;-6638.382;0.2883735;-0.3869019;0;
-23398.59;-15298.02;-3892.576;-25494.33;54.88433;-11.26327;-23738.11;-10480;0.09318172;-0.5814151;0;
-15976.98;-10974.38;-4831.519;-18023.12;33.05986;-3.281162;-16249.06;-8051.509;0.02812075;-0.3859289;0;
15693.1;11685.76;-4303.99;15739.49;12.86587;1.946681;15620.57;8176.319;-0.2967442;0.2641323;0;
23153.79;15309.12;-3320.064;25280.14;31.80826;-2.275138;23300.83;11488.23;-0.4263807;0.3938016;0;
19090.48;12372.03;-1459.536;20982.73;31.84365;-2.339835;19170.25;8896.235;-0.6208543;0.3284386;0;
21964.95;14609.06;864.669;23933.2;29.86927;-2.337484;22084.64;10988.37;-0.6202305;0.3930759;0;
19130.28;13194.17;1821.1;20677.37;24.14583;-3.13887;19088.21;9453.902;-0.2298032;0.4576483;0;
-8793.775;-6205.238;1323.769;-9230.463;26.46511;-1.327237;-9232.057;-4798.11;0.03029705;0.2622864;0;
-25723.79;-17440.01;178.0146;-27861.94;27.24281;1.420335;-26212.72;-12785.9;-0.03470074;-0.2577159;0;
-15334.97;-8046.433;-1698.299;-17680.07;14.01992;-3.135809;-15758.8;-6211.223;-0.1646006;-0.1924896;0;
-22537.28;-14493.04;-3889.631;-24646.76;14.54169;-5.94588;-22901.73;-9859.285;0.1604016;0.1325405;0;
-14591.15;-9881.257;-4808.509;-16680.77;-18.15961;-3.327633;-14908.41;-7376.168;0.2252077;0.00247266;0;
16417.85;12104.88;-4290.888;16476.05;-41.11615;-5.19975;16328.25;8391.212;-0.1648226;-0.1274645;0;
23142.97;15320.82;-3321.983;25288.31;-46.96933;1.16867;23298.2;11562.73;0.03024502;-0.2572711;0;
19397.55;12686.73;-1436.748;21277.17;-70.03064;6.459025;19473.87;9188.001;-0.03475272;0.002856759;0;
22383.32;15022.74;905.6754;24353.2;-44.57459;1.830835;22502.41;11412.07;-0.3595545;0.392658;0;
19363.94;13393.69;1843.419;20927.99;-28.72134;0.2214051;19322.1;9621.168;-0.03435651;0.3922634;0;
-8193.547;-5663.555;1336.882;-8632.208;-36.1282;-0.2476368;-8650.433;-4414.793;0.09561269;0.3269019;0;
-24868.15;-16635.56;205.7946;-27031.95;-27.45074;-1.520064;-25379.84;-12122.39;-0.03441806;0.2616061;0;
-14891.94;-7755.242;-1669.282;-17265.25;-30.43726;-3.929861;-15326.02;-6014.692;0.2254859;0.3912779;0;
-22116.53;-14131.19;-3871.029;-24258.33;-28.1295;-2.988151;-22498.2;-9555.178;0.4201613;0.3259174;0;
-14000.28;-9359.449;-4777.728;-16078.38;-25.62299;-12.36258;-14338.7;-6918.038;0.2248371;-0.1291815;0;
16728.35;12307.1;-4230.638;16822.28;-25.59725;-21.19166;16633.56;8567.086;-0.1651928;0.1957851;0;
23361.71;15546.33;-3259.123;25503.16;-20.94983;-13.40053;23515.91;11805.35;-0.2949615;0.2605557;0;
19520.63;12810.56;-1401.655;21397.91;-22.06785;-13.18611;19594.03;9299.487;-0.2296978;0.0004244883;0;
22283.16;14929.57;927.5051;24255.7;-11.05999;-7.613402;22402.3;11341.86;-0.2944343;0.7800322;0;
19486.46;13474.94;1866.694;21051.66;0.8064942;-1.77842;19441.92;9661.96;-0.2291712;0.8442158;0;
-7771.067;-5284.211;1356.043;-8193.339;-9.844236;-2.446401;-8235.415;-4223.539;0.2258305;-0.06617533;0;
-24411.34;-16214.9;242.271;-26574;-12.58101;3.785286;-24930.4;-11858.58;0.3555383;-0.001141497;0;
-14275.65;-7250.234;-1592.097;-16668.77;-11.63036;-5.528901;-14720.78;-5610.299;0.2902137;-0.00114035;0;
-21178.33;-13271.84;-3762.859;-23347.2;-18.51755;-12.02057;-21577.66;-8858.417;0.03005271;-0.1310739;0;
-13150.84;-8726.064;-4679.053;-15251.83;-5.906644;-6.315062;-13505.17;-6505.835;-0.1648795;0.2588619;0;
16931.9;12317.13;-4159.891;17021;0.8644447;-7.380444;16831.6;8481.406;0.03018819;0.1936344;0;
23263.78;15476.99;-3166.427;25414.08;-4.762502;-3.622044;23420.79;11770.1;0.1600925;0.1284725;0;
19527.44;12820.45;-1283.035;21408.7;-3.820688;-1.809927;19602.29;9309.303;0.02999699;0.2582781;0;
22352.25;15002.42;1046.897;24318.65;-11.58638;0.4022677;22472.7;11417.23;0.0949342;-0.00185078;0;
19727.16;13666.09;2019.605;21314.9;-17.13444;5.157591;19688.15;9861.97;0.5496102;-0.06681626;0;
-7678.788;-5300.369;1535.506;-8061.919;-20.73357;-0.4070531;-8136.658;-4204.702;0.549058;0.1281529;0;
-24345;-16215.58;430.2364;-26500.58;-26.40617;-3.0859;-24862.03;-11862.27;-0.2311019;0.1929915;0;
-13831.86;-6934.526;-1372.571;-16229.07;-26.78178;-3.015817;-14285.41;-5487.061;0.1589344;-0.3269412;0;
-21221.29;-13342.96;-3524.5;-23381.38;-27.4918;-6.294889;-21621.46;-8943.136;0.6135461;-0.39158;0;
-13790.89;-9211.59;-4428.69;-15875.02;-29.87507;-4.078188;-14131.37;-6701.741;-0.1017111;0.1935195;0;
16689.37;12178.04;-3882.138;16789.96;-31.38627;-3.270295;16594.44;8458.313;-0.491413;0.0633904;0;
23243.19;15456.22;-2896.652;25389.45;-27.20155;-6.951009;23401.67;11716.17;-0.4259519;-0.001640641;0;
19442.15;12731.38;-1035.207;21318.23;-25.83505;-8.082674;19520.65;9235.595;-0.2955892;0.06332835;0;
22433.03;15091.98;1306.719;24403.8;-18.44072;-10.88777;22554.37;11509.84;-0.03542282;-0.261572;0;
19890.85;13807.75;2282.852;21471.63;-10.65266;-12.55135;19856.35;9997.622;0.09454745;-0.1313745;0;
-7416.048;-5086.708;1780.341;-7816.408;-13.25392;-14.14633;-7873.25;-4069.655;-0.03548224;-0.001307791;0;
-24136.31;-16029.72;661.4575;-26304.59;-11.29822;-16.74438;-24655.07;-11742.77;-0.295316;-0.2611758;0;
-13998.96;-7137.433;-1158.074;-16410.33;-13.09553;-12.90959;-14441.98;-5612.42;-0.2300519;-0.1959461;0;
-21655.19;-13808.9;-3324.727;-23811.12;-15.56062;-10.35133;-22036.41;-9354.585;-0.3597554;0.1290875;0;
-14096.96;-9429.349;-4225.885;-16163.27;-13.40153;-10.00602;-14416.17;-6958.104;-0.4893286;0.06399047;0;
16623.65;12177.19;-3689.922;16729.85;-13.11965;-8.723347;16539.67;8436.31;-0.03406553;0.3237956;0;
23208.43;15411.06;-2726.837;25354.62;-14.98247;-6.035326;23364.12;11682.85;0.2258381;0.4534049;0;
19415;12712.56;-872.512;21296.89;-16.70873;-3.617937;19495.3;9224.687;0.1606438;-0.001822099;0;
22226.52;14865.87;1437.517;24203.89;-15.01798;-2.877489;22348.96;11279.24;0.3553844;0.1281144;0;
19359.63;13367.6;2379.098;20921.47;-13.93116;-1.267068;19323.06;9596.185;0.09515796;0.06301834;0;
-7900.657;-5444.036;1885.298;-8325.14;-15.05526;-1.935624;-8352.688;-4337.662;-0.2947417;-0.4567837;0;
-24763.04;-16523.06;770.0261;-26916.18;-16.64773;-1.732731;-25283.59;-12077.08;0.0953585;-0.131488;0;
-14843.14;-7711.703;-1048.521;-17227.41;-12.61251;-3.338519;-15290.17;-5970.589;0.4200994;-0.06638856;0;
-22092.56;-14136.63;-3195.216;-24263.55;-9.6521;-6.21537;-22476.78;-9553.177;0.02987322;-0.4561259;0;
-14328.85;-9632.742;-4096.176;-16444.42;-12.32172;-1.855356;-14664.39;-7089.92;-0.1000915;-0.1957982;0;
16383.23;12033.61;-3558.938;16461.76;-12.64413;1.763526;16291.5;8339.592;-0.03502356;0.06426788;0;
23200.54;15396.65;-2584.74;25347.45;-14.23902;-1.788281;23361.16;11660.52;-0.1649231;0.1291707;0;
19385;12677.56;-747.8307;21266.03;-16.36816;-2.456252;19465.62;9195.478;-0.2297247;-0.0008938247;0;
22133.26;14784.19;1558.043;24114.58;-15.95055;-1.181169;22258.67;11208.21;-0.03459183;-0.2607623;0;
19452.06;13439.79;2523.71;21017.41;-16.13462;-3.055444;19414.26;9661.388;0.2902796;-0.06559825;0;
-8033.914;-5603.528;2039.698;-8477.813;-17.65962;3.645737;-8496.215;-4459.883;0.1600533;-0.000564998;0;
-25020.41;-16858.39;939.0129;-27219.67;-17.90932;7.861938;-25541;-12407.42;-0.0999769;0.1293703;0;
-14478.26;-7469.946;-857.2781;-16904.32;-18.56091;7.050242;-14917.27;-5873.653;-0.09987645;0.3241423;0;
-22088;-14161.43;-3019.829;-24244.99;-19.07813;9.789397;-22469.98;-9604.561;0.03015859;0.3887839;0;
-15147.1;-10296.04;-3948.077;-17231.75;-17.71979;5.559697;-15482.6;-7567.991;-0.03483906;0.3234259;0;
16036.27;11821.53;-3413.064;16108.91;-19.30957;3.946582;15945.32;8201.581;0.03016329;-0.001735754;0;
23184.21;15371.94;-2444.495;25327.17;-11.78808;2.134138;23345.54;11607.66;0.2900023;-0.3265707;0;
19185.85;12470.87;-613.8326;21072.61;-4.341496;-1.150109;19266.9;9002.404;-0.2300278;-0.2612752;0;
22051.65;14713.55;1689.064;24022.99;-9.695768;0.6595246;22174.41;11131.07;-0.6196007;-0.001143339;0;
19320.84;13296.67;2636.515;20886.72;-8.480577;-1.350565;19283.39;9522.512;-0.2941414;0.1937598;0;
-7977.533;-5513.429;2131.244;-8403.355;-12.0884;4.009305;-8432.566;-4358.225;-0.2288785;-0.06630422;0;
-24582.56;-16428.51;1007.916;-26772.02;-17.83703;8.493011;-25105.79;-12019.38;-0.2936159;-0.5859763;0;
-14395.65;-7441.589;-808.4658;-16824.7;-9.713808;6.207118;-14854.59;-5797.068;-0.1633862;-0.6503549;0;
-21676.32;-13788.5;-2970.051;-23860.58;-8.030085;8.411257;-22077.87;-9284.644;0.03168003;-0.3248647;0;
-13944.38;-9306.637;-3897.083;-16052.03;-5.141627;3.915071;-14289.26;-6880.002;-0.09828649;0.1952005;0;
16488.59;12059.4;-3375.771;16575.86;-0.5147607;-0.3756489;16394.71;8313.324;-0.09818773;0.5198411;0;
22976.58;15184.13;-2432.336;25124.7;-5.538085;3.643583;23137.06;11469.16;0.2267476;0.5193187;0;
19066.49;12366.42;-643.1499;20947.62;-6.871691;4.912597;19145.23;8888.976;0.09658512;0.3238949;0;
21814.07;14457.5;1636.007;23795.55;-7.467999;2.83119;21938.61;10868.98;0.03152073;-0.1961693;0;
19145.25;13170.36;2599.472;20692.35;-6.053976;2.560474;19103.68;9447.645;0.2263911;-0.3259069;0;
-8473.038;-6010.798;2117.07;-8927.35;-13.81742;1.285226;-8942.521;-4719.904;0.2911309;0.2591267;0;
-25286.21;-17074.93;1009.092;-27476.22;-23.11429;-0.8594583;-25820.53;-12541.52;0.1609037;0.388801;0;
-15094.72;-7977.226;-808.0399;-17529.74;-12.24007;2.02161;-15573.9;-6365.833;0.4206114;-0.2612631;0;
-23306.33;-15339.85;-2990.49;-25484.81;-10.21804;3.292194;-23714.04;-10804.86;0.3552215;-0.4559026;0;
-15544.1;-10776.99;-3919.438;-17670.27;-4.782769;2.083254;-15869.59;-8077.836;-0.3597762;0.4540983;0;
16179.08;11882.82;-3379.504;16209.17;5.872933;1.947195;16086.8;8275.393;-0.5543168;0.843446;0;
23026.06;15220.3;-2413.514;25161.21;-6.457827;0.4046309;23180.09;11457.07;-0.1639557;0.1929251;0;
19112.65;12413.26;-591.566;20994.87;-10.26973;-0.7344245;19192.71;8951.903;-0.0338563;-0.002170779;0;
21955.69;14604;1697.316;23930.07;-9.6562;-2.877079;22077.73;11013.57;-0.2287243;0.1277661;0;
19116.21;13143.6;2641.26;20640.31;-13.79968;-4.481779;19067.85;9392.142;-0.0985598;0.2575724;0;
-8385.174;-5905.364;2136.452;-8897.701;-7.087036;-7.960266;-8870.526;-4653.428;0.3563106;0.1273789;0;
-25371.8;-17095.6;997.533;-27586.86;-4.200503;-12.77492;-25919.62;-12574.25;0.1610506;-0.2625532;0;
-15308.07;-8070.277;-836.7665;-17740.03;-3.057206;-9.480039;-15783.28;-6286.538;-0.2938826;-0.3272567;0;
-22644.02;-14643.27;-2999.869;-24841.31;-2.116129;-6.724274;-23063.49;-9982.626;-0.3585547;-0.1969932;0;
-14819.55;-10023.17;-3915.815;-16957.35;4.382731;-12.54485;-15179.13;-7424.75;-0.2282597;0.1280415;0;
16088;11853.84;-3388.518;16124.33;13.35428;-14.34078;15984.39;8189.552;0.09680634;0.3877822;0;
22909.75;15101.82;-2438.792;25050.96;2.824668;-14.46034;23069.42;11365.75;0.2266438;-0.002411497;0;
19011.73;12307.21;-633.8104;20899.4;-4.813981;-16.18731;19091.13;8840.863;-0.2933227;-0.2622784;0;
21761.23;14420.17;1651.49;23734.45;4.165837;-11.08046;21882.88;10833.99;-0.1630933;-0.2620149;0;
19186.37;13176.83;2597.823;20749.55;8.181115;-7.72024;19147.76;9448.31;0.4217767;-0.0668496;0;
-8412.467;-6013.366;2091.685;-8854.158;1.20667;-6.104953;-8884.825;-4726.798;0.5512875;-0.001815091;0;
-25491.96;-17278.64;969.9897;-27684.48;-3.617314;-3.955426;-26030.42;-12690.01;0.4207989;-0.1967153;0;
-15565.16;-8380.885;-860.7527;-17981.1;-0.5322202;-0.3344342;-16027.93;-6571.986;-0.0343953;-0.1315503;0;
-24056.5;-16070.52;-3051.193;-26198.43;0.07055096;3.952688;-24445.45;-11278.65;-0.09932808;-0.4562548;0;
-16398.52;-11512.09;-3970.897;-18485.69;-2.67521;2.810067;-16707.51;-8557.465;0.1606411;-0.6506984;0;
15856.74;11690.42;-3413.451;15903.47;-2.672522;4.682704;15777.21;8190.376;-0.164357;-0.3901752;0;
23027.1;15209.97;-2429.014;25169.47;-8.09582;2.601589;23183.42;11431.4;-0.09922455;-0.2598485;0;
19086.43;12382.6;-587.1858;20977.89;-14.98656;-0.4151956;19169.1;8929.481;0.2257119;0.2601514;0;
22173.91;14835.56;1722.962;24138.69;-7.268344;4.809768;22298.91;11260.24;0.09555039;0.3248573;0;
19525.82;13492.96;2658.916;21103.87;-0.5632353;5.407782;19495.44;9736.482;-0.09944765;-0.06527317;0;
-8015.822;-5672.656;2133.632;-8441.842;-10.60938;9.421202;-8483.1;-4510.645;-0.03438038;0.1946618;0;
-25201.27;-16976.76;1008.302;-27397.45;-14.08232;13.43059;-25745.44;-12439.19;-0.3591825;0.1944662;0;
-15858.32;-8620.248;-824.6024;-18263.28;-12.5943;12.34537;-16318.47;-6692.477;-0.4887563;0.2592382;0;
-24365.21;-16364.31;-3012.346;-26502.48;-15.12724;15.88306;-24745.55;-11529.57;-0.2933632;0.129043;0;
-16584.7;-11509.96;-3933.308;-18697.83;-7.074088;9.034962;-16890.76;-8598.278;-0.1631337;-0.2608908;0;
15568.81;11614.72;-3395.093;15584.88;-1.373552;2.595705;15489.57;8099.707;0.3567689;0.06420811;0;
23015.96;15198.81;-2421.528;25149.44;-1.23845;8.889309;23176.26;11426.77;0.4213778;0.1940783;0;
19210.13;12496.84;-587.6563;21108.18;0.1029408;9.550206;19299.81;9055.065;-0.09878436;0.06394858;0;
22196.08;14865.02;1698.66;24166.39;5.527845;10.14346;22326.06;11285.36;-0.3585545;0.06388432;0;
19457;13450.66;2605.341;21051.45;11.41679;11.53991;19429.18;9734.572;-0.1632922;-0.001147213;0;
-8459.26;-6050.087;2042.098;-8838.426;4.908582;9.719771;-8916.131;-4743.171;-0.09816074;0.2587233;0;
-25823.57;-17553.16;880.3793;-27976.98;0.01353018;10.24587;-26350.26;-12878.17;-0.1630294;0.3883981;0;
-16096.78;-8750.548;-974.0111;-18489.17;3.027627;6.953471;-16550.81;-6795.784;0.2919058;0.3230404;0;
-24200.09;-16144.91;-3175.722;-26324.51;3.293004;5.740791;-24582.24;-11320.05;0.09671041;0.3227158;0;
-16306.34;-11387.05;-4100.393;-18384.74;-1.533076;2.519964;-16603.38;-8440.058;-0.2282235;0.2574242;0;
15778.69;11676.8;-3561.01;15833.89;-3.272848;-3.042029;15712.77;8197.673;-0.2929615;0.3221329;0;
23105.21;15286.12;-2588.013;25246.16;-7.757537;3.123274;23268.75;11509.5;-0.4226018;0.1918745;0;
19229.76;12526.78;-749.5546;21124.98;-12.03665;5.397494;19321.08;9083.385;-0.03237312;-0.06818763;0;
22062.3;14725.24;1534.832;24044.73;-9.211516;4.65532;22195.72;11160.66;0.3574634;-0.06811912;0;
19227.39;13260.44;2431.526;20780.68;-10.54143;7.195932;19194.76;9516.644;0.2921369;0.06188402;0;
-8287.643;-5779.822;1870.457;-8753.194;-2.627586;3.303753;-8752.252;-4566.704;-0.162928;0.3216912;0;
-25379.17;-17131.99;710.5347;-27570.98;5.881521;2.76457;-25915.34;-12555.05;-0.487601;0.5812373;0;
-15493.96;-8292.182;-1139.812;-17899.69;1.789774;0.01561384;-15954.62;-6340.1;-0.1622743;0.1908493;0;
-22696.63;-14699.53;-3311.715;-24870.66;3.329194;-4.0703;-23091.2;-10047.25;0.03279074;-0.3290812;0;
-14676.58;-9914.424;-4208.544;-16823.2;3.861712;-0.3152266;-15010.53;-7447.787;-0.09717689;-0.5236526;0;
16198;11910.34;-3654.264;16217.81;0.3078581;-1.051722;16109.34;8219.73;-0.1620466;-0.4581591;0;
22892.52;15083.46;-2676.566;25034.46;10.55533;2.164454;23059.4;11375.66;0.03301826;0.3868767;0;
19029.6;12338.52;-855.4782;20924.59;17.77839;5.042485;19119.63;8883.713;0.2928545;0.7113247;0;
21865.83;14514.08;1424.798;23844.48;11.06272;2.358162;21998.58;10948.93;0.2275928;0.3208059;0;
19045.04;13122.83;2354.055;20611.62;9.912529;4.030304;19012.48;9403.654;0.1623968;-0.004353174;0;
-8625.053;-6049.99;1830.795;-9077.335;5.884081;-3.743582;-9093.368;-4715.608;0.09726629;-0.3291855;0;
-25397.01;-17175.18;704.1147;-27608.25;0.1173926;-10.03603;-25933.12;-12595.52;-0.3576028;-0.3288547;0;
-14782.75;-7695.939;-1112.992;-17222.8;2.93129;-8.619369;-15243.71;-6057.062;-0.3572435;-0.1336223;0;
-22255.89;-14303.37;-3278.878;-24434.94;3.865374;-10.3522;-22658.68;-9720.756;0.2278215;-0.06852067;0;
-14939.25;-10176.64;-4179.754;-17033.26;-1.162352;-11.21258;-15278.96;-7446.346;0.29256;0.06148286;0;
16035.6;11740.65;-3621.489;16116.96;-4.510087;-12.07209;15950.5;8145.49;0.09736396;0.1263884;0;
22939.73;15136.24;-2648.634;25095;-2.964338;-10.98823;23109.18;11402.3;0.1622335;-0.0686406;0;
19069.94;12377.66;-816.2833;20962.85;-4.56895;-9.972449;19161.59;8938.394;0.03213578;-0.003604288;0;
21930.79;14581.7;1474.948;23909.79;-0.2110781;-8.555848;22065.66;11017.16;-0.0978312;0.2562687;0;
19137.8;13171.91;2391.161;20715.73;4.745627;-6.805756;19109.04;9451.917;0.1621365;0.3209786;0;
-8330.181;-5870.202;1858.056;-8747.329;0.5212998;-5.25831;-8791.205;-4599.678;0.1619736;0.06078665;0;
-25401.05;-17129.2;711.5772;-27569.15;2.128366;-2.908685;-25936.42;-12537.7;0.2267781;-0.1341764;0;
-15554.33;-8248.12;-1134.148;-17942.82;-1.491095;-4.312404;-16013.88;-6363.704;0.4214523;-0.2639763;0;
-22876.63;-14850.84;-3304.323;-25029.44;-5.105943;-6.183532;-23278.32;-10147.51;-0.1636772;-0.0038417;0;
-14974.03;-10200.68;-4211.467;-17091.97;1.329549;-2.158464;-15328.23;-7592.893;-0.2934475;0.1910642;0;
15975.08;11744.29;-3671.708;16034.36;2.734733;1.661671;15879.51;8097.01;0.1616188;-0.1989318;0;
22829.43;15027.51;-2693.446;24982.02;8.290714;-3.765495;23000.75;11317.31;0.0315217;-0.3286666;0;
19088.77;12391.83;-851.0703;20981.82;11.76598;-5.838121;19179.86;8940.084;0.226392;0.06146765;0;
21886.75;14545.32;1432.575;23871;16.30851;-6.16717;22022.37;10986.83;0.09622989;0.1913406;0;
19028.37;13067.99;2348.362;20599.63;23.52677;-10.31379;19000.08;9353.297;0.03116586;-0.2636231;0;
-8433.816;-5938.077;1822.984;-8865.067;15.79997;-2.868507;-8892.894;-4679.912;0.3559712;-0.5232275;0;
-25439.6;-17193.32;690.7203;-27618.78;11.42984;1.287196;-25964.26;-12586.58;-0.03419048;0.06200426;0;
-15462.35;-8257.641;-1124.218;-17876.7;13.62916;-0.7905077;-15924.19;-6437.498;-0.03415613;0.1269093;0;
-23101.99;-15096.17;-3285.408;-25252.2;14.55347;1.219713;-23490.55;-10386.82;0.1607802;-0.1980549;0;
-15508.94;-10670.34;-4198.662;-17582.24;7.638993;-3.33623;-15806.35;-7822.044;-0.03428336;0.06201345;0;
15857.93;11652.04;-3641.783;15935.77;1.268304;-6.949894;15794.18;8124.694;-0.2291509;0.1918858;0;
22946.43;15137.92;-2670.048;25095.79;5.956079;-5.067389;23115.84;11385.89;-0.3588554;0.1267257;0;
18960.63;12267.05;-857.6027;20860.41;5.145811;-3.454768;19059.26;8843.827;-0.2935275;0.1265983;0;
21804.09;14463.5;1433.327;23793.6;11.9058;-9.345673;21945.03;10899.11;-0.2282652;-0.003463555;0;
19002.86;13035.9;2371.727;20561.65;21.60672;-14.62781;18978.08;9337.2;-0.2930031;-0.1333948;0;
-8623.793;-6140.707;1849.011;-9082.074;12.27426;-7.379079;-9069.665;-4751.729;0.09709531;-0.2631954;0;
-25432.33;-17223.79;726.4354;-27623.64;7.305437;-2.950913;-25941.32;-12614.25;0.1619651;-0.3278983;0;
-15164.86;-8009.232;-1064.114;-17572.55;16.20671;-3.550794;-15601.67;-6248.8;-0.2280017;-0.2626015;0;
-22623.95;-14646.05;-3191.99;-24791.56;18.60132;-1.738748;-23003.17;-10005.6;-0.09783792;-0.06743558;0;
-14965.88;-10126.92;-4081.709;-17087.94;22.2673;1.344153;-15294.95;-7510.528;-0.162707;0.1275342;0;
15903.04;11705.22;-3541.002;15966.38;28.87538;3.017314;15822.72;8061.398;-0.4224128;0.1923734;0;
22626.39;14828.23;-2572.242;24796.75;21.41163;7.569061;22806.85;11128.41;0.032783;0.3221148;0;
18799.45;12107.69;-733.4708;20707.47;17.63907;11.64735;18901.21;8676.625;0.2276521;0.4517258;0;
21609.05;14259.53;1561.02;23604.35;20.90387;10.02806;21755.67;10696.78;0.162456;0.3213372;0;
18783.97;12854.62;2510.598;20340.34;20.14594;10.28592;18765.99;9190.063;0.5520968;-0.2636917;0;
-8867.858;-6384.634;2017.572;-9319.902;22.40287;9.002904;-9311.141;-4971.854;0.6165094;-0.1984594;0;
-26068.72;-17754.73;907.8201;-28212.86;23.18464;8.257046;-26568.64;-12973.27;0.1611185;0.191544;0;
-16057.29;-8640.093;-881.7556;-18412.12;24.43317;4.229895;-16489.98;-6642.896;-0.1638801;-0.1984525;0;
-24183.27;-16085.7;-3030.836;-26281.32;26.4857;-2.338499;-24537.76;-11142.58;-0.2286827;-0.0683184;0;
-16876.02;-11863.63;-3932.71;-18928.38;23.5787;3.960063;-17145.64;-8716.442;-0.2934203;0.06168493;0;
15290.56;11274.92;-3362.231;15355.23;20.87569;7.77405;15236.7;7881.306;0.1616459;-0.3281811;0;
22823.87;14998.12;-2382.547;24975.22;23.13189;2.675658;22998.46;11223.47;0.6812223;-0.1979167;0;
18731.68;12036.85;-557.0065;20644.46;24.98465;4.481447;18837.18;8631.598;0.2257663;0.2570536;0;
21631.77;14290.09;1747.614;23631.74;19.26612;-2.489098;21779.1;10730.02;-0.03432987;0.1268606;0;
18831.65;12906.62;2700.94;20387.18;17.37075;-9.720632;18815.8;9242.232;0.2905414;-0.1981035;0;
-9039.587;-6515.247;2196.572;-9484.96;13.33481;0.00147836;-9471.85;-5060.058;0.5501187;-0.06796981;0;
-26185.22;-17880.13;1093.044;-28325.24;7.158494;2.14487;-26676.99;-13151.01;0.354664;0.06203317;0;
-16201.2;-8850.735;-692.1266;-18568.6;13.71538;7.702176;-16631.25;-6952.408;0.1594056;0.06197084;0;
-24450.35;-16404.73;-2838.555;-26552.2;15.71133;14.92841;-24801.54;-11566.72;0.6140168;-0.1329935;0;
-16939.62;-11845.97;-3752.992;-19018.98;16.901;11.0955;-17209.2;-8845.183;0.2885631;-0.06789248;0;
15299.99;11405.66;-3209.273;15314.57;21.57306;13.09372;15241.38;7944.473;-0.1015309;0.2570125;0;
22862.54;15042.42;-2213.22;25013.97;14.9873;8.726797;23038.58;11289.65;0.4183099;0.1917869;0;
19103.35;12396.14;-357.3963;21022.5;9.211468;4.36426;19211.56;8981.709;0.2879549;-0.1332426;0;
22080.84;14756.27;1941.807;24067.88;16.03472;5.967404;22226.78;11209;-0.2970405;-0.2630433;0;
19099.01;13130.36;2872.575;20681.89;20.03709;1.942554;19081.9;9430.357;0.3529314;0.127025;0;
-8688.501;-6185.315;2357.196;-9120.16;13.78767;7.366097;-9130.052;-4843.651;0.8073481;0.5816688;0;
-25775.29;-17524.77;1243.667;-27948.07;14.37703;11.91335;-26285.05;-12851.23;0.1568635;0.3212149;0;
-15560.59;-8302.743;-553.0861;-17962.71;5.856113;4.868418;-16006.34;-6437.389;-0.03819617;0.1909575;0;
-23070.23;-15049.47;-2696.109;-25213.86;-4.59862;2.988004;-23442.2;-10285.95;0.3516462;0.06083092;0;
-15624.84;-10785.04;-3585.061;-17690.28;9.070031;0.2387624;-15915.32;-7875.948;0.1563909;-0.2640669;0;
15738.11;11547.57;-3000.235;15814.06;16.69673;-4.316195;15675.54;8043.64;-0.2335703;-0.1988342;0;
22890.71;15081.79;-2021.243;25042.66;13.46477;-0.8288065;23065.85;11340.9;-0.1034009;-0.003732415;0;
18892.57;12201.01;-227.987;20798.56;15.19255;0.9805045;18995.72;8788.497;-0.03832968;-0.06869601;0;
21750.23;14403.14;2064.465;23747.68;17.45446;-1.230857;21893.95;10846.91;0.09164352;-0.1335943;0;
19023.39;13070.69;3021.221;20575.32;16.83469;0.1770219;19004.26;9384.255;0.2864535;-0.003525402;0;
-8766.308;-6323.498;2510.971;-9245.073;23.18078;-2.569395;-9215.642;-4984.566;0.1562309;-0.0684892;0;
-26284.91;-17970.16;1382.702;-28446.6;27.71184;-5.915899;-26804.85;-13227.91;0.2210413;-0.1333877;0;
-16496.76;-9009.662;-439.8658;-18872.06;24.13403;1.457985;-16937.22;-6898.873;0.1558519;-0.198221;0;
-23684.3;-15594.36;-2583.643;-25861.45;27.45868;4.537673;-24050.1;-10749.86;-0.2341088;-0.1330545;0;
-15536.41;-10716.15;-3451.281;-17659.89;14.90613;7.547285;-15838.47;-7971.326;-0.4287756;-0.06795349;0;
15720.51;11579.25;-2874.617;15773.75;4.642401;12.49626;15653.04;8023.32;-0.103508;-0.1328526;0;
22632.79;14825.91;-1897.484;24788.05;9.929998;9.737521;22815.56;11110.33;0.3513674;0.06218297;0;
18774.09;12074.86;-76.64807;20678.65;6.571118;10.59851;18881.61;8656.75;0.0261776;0.1920552;0;
21591.41;14253.7;2210.811;23586.79;12.59274;7.506711;21740.95;10707.33;-0.2337181;0.06192751;0;
18814.71;12840.3;3149.71;20375.47;15.19205;3.145339;18802.28;9166.184;0.3512228;-0.0680694;0;
-8850.534;-6442.102;2645.391;-9330.785;18.25824;7.496008;-9291.505;-5047.293;0.02603322;-0.1329684;0;
-26024.22;-17773.21;1526.169;-28220.93;25.13877;9.096005;-26521.16;-13019.9;-0.4937317;0.06206729;0;
-16179.09;-8817.267;-283.2998;-18567.45;16.47235;7.278388;-16596.14;-6845.007;0.2863725;0.06200492;0;
-24109.55;-16069.77;-2424.938;-26232.2;13.30797;7.539006;-24444.08;-11201.62;0.4809868;0.12691;0;
