Fp1;Fp2;O1;O2;POLY3;POLY4;A1;A2;Video;Audio;event;
21736.96;14783.81;475.6825;23216.02;17.54629;-11.71399;21395.57;10617.88;0.1721635;-0.3451065;0;13:07:39 Рука;
25294.06;17407.67;2680.971;26894.89;8.151533;-9.960666;24926.84;12804.94;0.04205578;-0.0848904;0;
17101.42;12218.87;3280.256;18091.26;0.1053901;-8.142179;16787.48;8695.161;-0.3477905;-0.01983775;0;
-15703;-11348.22;2632.877;-16179.26;11.49214;-10.81325;-15611.85;-8237.554;-0.2824737;0.1101169;0;
-26773.03;-18244.13;1376.424;-28258.94;12.81976;-11.60618;-26423.36;-13081.81;-0.2172226;-0.08489581;0;
-17507.66;-10103.02;-673.7414;-18983.71;18.09817;-11.39357;-17215.75;-6766.922;-0.346939;-0.4096472;0;
-26440.65;-18289.65;-2760.843;-27868.59;26.319;-13.52552;-26000.87;-12570.34;-0.1516883;-0.2793009;0;
-9484.479;-5715.898;-3333.748;-10928.81;13.56653;-8.488329;-9227.945;-4536.775;-0.08656858;-0.01915091;0;
21751.01;16403.63;-2681.646;22158.92;8.596409;-4.326919;21522.02;11771.71;0.04345309;0.3706724;0;
24830.25;16690.88;-1594.903;26592.21;3.765;-8.20752;24464.31;12218.23;0.1733441;0.1753979;0;
21702.79;14741.83;504.27;23184.61;-2.066909;-8.735137;21363.47;10560.89;-0.2166341;-0.2145824;0;
25307.62;17418.6;2705.219;26905.29;-5.748527;-10.33389;24944.13;12828.32;-0.2813838;0.11047;0;
17122.94;12315.04;3308.103;18099.09;-14.1155;-12.60086;16813.93;8783.49;0.04373566;-0.08454309;0;
-16432.5;-11993.59;2634.616;-16911.07;-5.728568;-11.31559;-16331.53;-8874.979;0.04369172;-0.3443275;0;
-27719.89;-19176.72;1379.817;-29170.34;-0.9673892;-11.3712;-27340.05;-13917.52;-0.2811889;-0.01914481;0;
-18002.98;-10612.02;-651.9243;-19431.74;-4.851183;-12.49842;-17670.68;-7225.364;-0.2809063;0.1108091;0;
-27201;-19027.94;-2763.957;-28571.39;-5.113752;-14.22736;-26726.35;-13171.35;-0.02075473;0.1756651;0;
-10231.28;-6374.342;-3339.874;-11595.84;-2.228226;-11.73476;-9946.458;-4896.17;-0.4755053;-0.08438077;0;
21715.37;16414.88;-2664.808;22168.89;3.332742;-9.378625;21495.13;11872.04;-0.3450928;-0.4741;0;
24917.37;16761.06;-1587.655;26672.56;-6.985734;-11.64656;24551.06;12243.25;0.23996;-0.08381961;0;
21677.56;14724.22;509.621;23164.1;-15.41783;-9.893362;21342.43;10578.31;0.1747516;0.2411013;0;
25320.47;17435.8;2705.973;26927.1;-8.503465;-14.63909;24959.55;12824.69;0.2395433;-0.2139123;0;
16783.77;11962.38;3287.492;17708.33;-8.293849;-20.25082;16482.21;8511.195;0.3692373;-0.2786647;0;
-16408.62;-11975.58;2629.487;-16943.9;-8.151793;-11.85779;-16298.13;-8703.661;0.2389316;-0.01851536;0;
-27073.78;-18535.72;1376.567;-28518.39;-5.129493;-9.233603;-26689.64;-13335.85;0.1087569;-0.01849675;0;
-17770.33;-10360.2;-672.5684;-19186.22;-11.15256;-6.143232;-17435.01;-7021.975;0.04368024;0.1114565;0;
-26546.12;-18401.57;-2755.736;-27942.28;-13.48588;-0.1087172;-26081.19;-12696.55;0.1086037;0.04637718;0;
-9067.451;-5366.452;-3328.193;-10466.83;-13.47233;-5.802035;-8802.135;-4272.471;0.3683639;-0.01863676;0;
21928.16;16529.16;-2693.354;22376.87;-15.86969;-8.073564;21703.44;11885.58;0.2380591;-0.1485527;0;
24736.69;16604.77;-1617.578;26499.92;-10.42873;-6.256973;24372.41;12144.17;0.1728526;-0.01846877;0;
21675.24;14719.97;486.8188;23153.7;-6.800932;-6.853472;21338.91;10546.92;0.4325483;0.2414192;0;
25243.71;17353.8;2675.698;26848.17;-6.726749;-6.779603;24881.82;12769.01;-0.1525925;0.04627455;0;
16804.36;12069.05;3260.495;17770.15;-5.984032;-7.308654;16494.48;8559.933;-0.2823738;0.1111954;0;
-16454.89;-11927.85;2598.488;-16956.74;-0.8868287;-7.368293;-16355.61;-8756.78;0.1726813;0.176051;0;
-26833.65;-18300.16;1359.186;-28324.79;5.477075;-8.633565;-26470.64;-13242.63;0.2374751;0.2408415;0;
-16989.11;-9594.621;-672.097;-18473.14;0.5150786;-6.280548;-16687.34;-6455.103;0.1073018;0.1756321;0;
-26356.79;-18206.74;-2774.927;-27763.39;-1.160378;-3.728886;-25908.77;-12430.31;0.2371287;-0.1493811;0;
-9447.524;-5776.404;-3338.588;-10804.5;1.587454;-7.87802;-9183.899;-4479.329;0.3668251;-0.2791657;0;
21895.3;16474.41;-2672.895;22375.71;0.9826464;-10.21445;21664.14;11848.45;-0.2182495;-0.01901578;0;
24736.34;16605.47;-1603.433;26493.48;4.330562;-9.936251;24366.5;12127.92;-0.02312821;0.30584;0;
21611.59;14656.44;497.3421;23090.93;4.460908;-11.19894;21270.25;10491.5;0.756503;0.2405654;0;
25258.11;17367.22;2691.895;26859.95;9.211848;-12.05841;24889.72;12773.73;0.3659389;0.1753563;0;
16875.81;12115.04;3280.081;17793.83;14.7623;-13.51991;16574.64;8600.889;0.4305386;0.4350495;0;
-16114.31;-11623.47;2618.054;-16669.58;8.986688;-13.37236;-16007.88;-8456.918;0.04030193;0.3046777;0;
-26898.66;-18366.4;1339.533;-28389.49;8.308073;-11.55039;-26549.19;-13162.83;-0.609412;0.3043715;0;
-17806.98;-10423.04;-718.5602;-19265.23;4.414958;-16.83031;-17512.77;-7066.57;-0.2189956;0.2390984;0;
-26841.56;-18687.51;-2792.046;-28269.47;-1.551324;-20.29645;-26399.15;-12941.09;-0.02387352;-0.2159133;0;
-9408.617;-5649.156;-3351.942;-10814.23;3.474076;-17.66379;-9158.079;-4482.287;-0.1537842;-0.345631;0;
21838.65;16478.87;-2702.352;22306.58;3.805378;-18.31587;21605.2;11842.62;-0.1536297;-0.02044702;0;
24663.35;16520.33;-1615.603;26423.95;5.007003;-13.87665;24295.89;12049.96;-0.02354064;0.3044102;0;
21584.09;14630.2;487.7295;23062.81;8.15078;-9.441955;21243.72;10474.37;0.04145035;0.04423499;0;
25239.34;17354;2674.14;26840.55;4.658989;-10.70514;24872.79;12748.98;-0.283428;-0.4105808;0;
16683.9;11921.08;3268.684;17581.33;4.922728;-8.617976;16382.91;8490.629;0.04169349;-0.2152663;0;
-16503.69;-12001.11;2611.822;-17076.66;2.573257;-8.743222;-16386.23;-8667.531;0.1715863;0.3696561;0;
-26600.02;-18079.91;1377.817;-28113.68;-1.582515;-9.337283;-26235.45;-13046.71;-0.2833575;0.434252;0;
-16708.94;-9305.539;-624.312;-18208.77;5.720093;-4.371286;-16413.2;-6244.17;0.04176391;-0.1508904;0;
-25995.46;-17859.48;-2705.451;-27423.19;10.67084;-0.2140739;-25545.48;-12113.16;0.5614607;0.1091306;0;
-9041.954;-5510.997;-3275.741;-10430.33;7.779728;-1.754466;-8775.417;-4271.473;0.2360598;0.693727;0;
22056.85;16520.8;-2618.404;22514.97;8.10768;-2.958274;21827.58;11892.26;-0.2189488;0.5630953;0;
24707.92;16594.87;-1559.225;26473.73;8.970189;2.403211;24339.3;12137.06;0.1710753;0.2376928;0;
21559.09;14606.05;525.3879;23039.56;7.419959;4.544128;21219.57;10445.5;0.04096869;0.1075192;0;
25224.94;17328.71;2717.976;26828.37;12.70476;6.482067;24860.25;12737.22;-0.6737132;-0.08749083;0;
16552.63;11889.93;3320.222;17511.94;16.71049;10.29346;16244.64;8432.052;-0.2832322;0.2374338;0;
-16716.13;-12121.09;2682.861;-17237.58;11.40241;4.790637;-16620.53;-8898.323;0.2367911;0.3021626;0;
-27344.34;-18827.93;1439.539;-28830.18;7.639909;1.302834;-26985.74;-13559.32;-0.0233162;0.1719243;0;
-18131.92;-10753.42;-586.8894;-19571.58;8.770332;2.239285;-17817.61;-7216.499;-0.08826011;0.3666536;0;
-26734.28;-18596.38;-2648.373;-28138.09;8.695147;1.232291;-26283.22;-12827.38;0.2366653;0.04144841;0;
-8871.549;-5282.208;-3218.923;-10253.98;3.930988;0.3602751;-8624.315;-4239.407;0.1714601;-0.02356058;0;
22058.7;16583.66;-2585.068;22546.61;3.323826;0.8287936;21824.14;11924.25;0.2362552;0.1713651;0;
24666.01;16547.93;-1501.311;26431.6;-4.717466;-1.449459;24303.5;12105.57;0.5608545;0.366095;0;
21674.62;14721.41;603.1714;23154.24;-13.8224;-4.127198;21337.67;10561.8;0.3653889;0.0408904;0;
25271.59;17384.29;2785.406;26875.89;-3.694459;2.173223;24907.49;12784.23;0.1051524;-0.8037261;0;
16541.37;11830.21;3378.963;17457.04;0.7972314;5.988945;16236.79;8446.522;0.2999488;-0.2831798;0;
-16850.12;-12312.64;2724.271;-17395.15;0.3952648;6.920688;-16748.28;-8982.599;0.4295821;0.3667782;0;
-27535.59;-19013.13;1472.317;-28990.35;2.672043;8.588185;-27173.23;-13631.33;0.1692811;-0.02339444;0;
-18439.47;-11061.27;-550.8958;-19843.72;4.745463;11.86172;-18121.53;-7397.739;-0.09075839;0.1065638;0;
-27469.23;-19318.89;-2628.36;-28844.98;6.884149;16.20357;-27001.25;-13356.67;0.2991368;-0.08844535;0;
-9683.215;-5988.61;-3205.553;-11064.48;9.020685;10.62783;-9410.076;-4621.817;0.4937383;-0.4781605;0;
21817.53;16394.38;-2556.391;22281.35;15.24091;5.861481;21591.1;11847.18;0.0384708;0.04205866;0;
24665.82;16542.51;-1476.192;26434.41;4.307258;8.400821;24296.69;12047.13;-0.02653519;-0.08791829;0;
21497.8;14548.71;621.2377;22981.72;-5.141541;6.717929;21157.57;10416.09;0.1034262;-0.477634;0;
25154.48;17261.88;2806.109;26754.74;5.246101;6.175315;24786.65;12649.37;0.03835489;-0.1523174;0;
16148.75;11572.16;3379.687;17099.99;7.719077;9.317185;15840.84;8235.111;0.2332184;0.04273771;0;
-17660.9;-12971.4;2707.065;-18186.06;9.051467;-2.012048;-17567.48;-9588.053;0.2979514;-0.08723991;0;
-28026.4;-19489.07;1463;-29490.17;12.79244;-8.57417;-27675.6;-14113.72;0.1677173;-0.02218491;0;
-18626.87;-11239.31;-552.6764;-20024.66;10.56976;-7.627794;-18309.39;-7486.469;0.0376141;0.1077721;0;
-27533.5;-19348.71;-2615.802;-28922.69;10.49179;-14.58617;-27076.19;-13423.41;-0.09235837;-0.08723825;0;
-9545.657;-5760.921;-3187.854;-10927.38;10.81604;-0.2375336;-9296.121;-4574.755;-0.1572329;-0.0871506;0;
21833.71;16481.99;-2552.156;22322.49;9.466002;10.07783;21600.72;11904.31;-0.2870096;0.3027411;0;
24632.28;16497.08;-1468.838;26389.98;10.93036;5.044108;24266.78;12026.78;-0.02685185;0.3674042;0;
21531.42;14584.82;615.1378;23015.04;11.45524;8.589013;21190.66;10446.25;0.2330445;0.172133;0;
25142.32;17257;2768.5;26743.51;8.563341;4.293598;24778.12;12649.09;-0.2869284;0.2369274;0;
16033.51;11473.4;3349.549;16920.1;7.080868;1.275173;15730.37;8161.353;-0.2216728;0.3016567;0;
-17775.14;-13050.46;2690.482;-18338.47;4.193365;2.948343;-17671.81;-9584.713;0.1033867;0.3663209;0;
-27933.7;-19401.42;1431.566;-29381.66;1.577183;2.074725;-27564.28;-13994.77;-0.3514886;0.04111608;0;
-18507.61;-11114.28;-602.3818;-19904.76;0.302801;0.7999644;-18188.12;-7398.388;-0.0262987;-0.3487293;0;
-27295.12;-19135.48;-2673.657;-28677.7;-1.572537;-1.94714;-26838.71;-13223.62;0.2335971;-0.1534768;0;
-9083.673;-5467.333;-3230.127;-10457.93;-1.638306;1.33698;-8820.691;-4294.576;-0.221409;0.1715141;0;
22063.62;16600.96;-2582.877;22551.1;-2.038802;3.478969;21831.66;12010.51;0.1686175;0.1063744;0;
24632.88;16518.17;-1511.819;26394.61;-0.4291627;0.5953292;24263.05;12049.54;0.2334154;-0.02366718;0;
21570.18;14623.49;578.9628;23053.38;2.720076;-0.6109618;21232.48;10487.97;-0.02668848;0.1062913;0;
25160.41;17273.47;2734.891;26762.68;0.7076113;0.3274131;24794.52;12661.35;0.1682404;0.4310212;0;
16081.46;11515.03;3294.173;16959.5;0.1710368;2.336572;15778.29;8184.118;-0.09179806;0.3006534;0;
-17484.1;-12769.18;2630.882;-18064.49;3.988282;-2.890322;-17384.21;-9361.149;-0.4165425;-0.08945273;0;
-27556.39;-19024.67;1367.122;-28989.04;3.850553;-6.571418;-27196.93;-13650.41;-0.4810913;-0.1543302;0;
-18519.25;-11117.66;-684.0335;-19887.99;11.95198;-4.421422;-18187.86;-7317.809;-0.4156406;-0.2191425;0;
-27494.15;-19325.07;-2754.071;-28886.54;20.91496;-6.225458;-27025.26;-13375.55;0.03954845;-0.5437589;0;
-9035.415;-5500.815;-3304.713;-10428.81;11.58319;-1.865495;-8783.263;-4389.758;0.104476;-0.6081799;0;
22124.27;16575.32;-2661.464;22610.45;5.074818;2.021389;21889.48;11966.07;-0.02556361;-0.3476995;0;
24592.48;16484.53;-1589.202;26362.61;12.30339;-2.200567;24226.44;12038.3;0.2343314;-0.0225134;0;
21613.69;14668.98;509.8245;23098.31;14.83662;-4.40867;21275.54;10526.31;0.2990633;0.1074439;0;
25223.63;17328.02;2666.947;26825.03;9.060936;-3.26553;24858.77;12721.75;0.2337955;0.04236861;0;
15913.33;11377.61;3211.71;16836.1;6.573585;-2.726386;15611.13;8111.977;0.2985279;-0.02264131;0;
-18008.54;-13274.09;2527.95;-18541.62;3.687568;-7.412391;-17906.61;-9791.383;0.2332606;-0.02261856;0;
-28264.58;-19743.75;1253.081;-29691.27;2.477438;-9.481353;-27902.07;-14187.3;-0.09181048;0.04237151;0;
-19116.79;-11750.17;-794.8214;-20474.96;-2.615266;-12.88789;-18778.96;-7775.524;-0.2866203;-0.1525731;0;
-28015.29;-19851.5;-2854.518;-29377.95;-7.971273;-15.5542;-27530.83;-13786.79;-0.1563976;-0.5422238;0;
-9533.447;-5874.194;-3385.913;-10899.25;-3.274214;-16.81119;-9260.941;-4539.692;-0.2212078;-0.4117443;0;
21973.77;16530.15;-2709.255;22461.61;-4.945864;-21.28209;21749.27;12017.97;-0.3509202;-0.02152655;0;
24662.76;16545.12;-1606.633;26418.15;5.240511;-12.01724;24297.96;12046.81;-0.2206329;-0.08647226;0;
21631.38;14683.94;515.4158;23118.39;16.6221;-4.972144;21296.42;10562.93;-0.09047651;-0.2163201;0;
25359;17467.29;2690.211;26963.59;6.959856;-7.713387;24999.12;12869.46;-0.02541826;-0.28107;0;
16097.27;11597.98;3228.486;16996.34;4.608338;-5.964141;15799.97;8242.26;0.299444;-0.345755;0;
-17616.34;-12825.29;2535.307;-18179.13;5.876505;-5.08737;-17501;-9426.255;0.2991431;0.04439651;0;
-27433.51;-18910.29;1269.114;-28908.43;2.387976;-5.350191;-27060.28;-13555.3;-0.02599419;0.3042213;0;
-18551.69;-11165.21;-787.3472;-19971.54;7.274721;-2.933429;-18226.51;-7501.837;-0.09093541;-0.02092113;0;
-27828.11;-19664.54;-2852.127;-29216.24;11.55432;-1.456979;-27357.32;-13753.5;0.1690253;-0.1508348;0;
-9151.338;-5595.763;-3362.316;-10518.83;2.70145;-4.201693;-8883.633;-4380.101;0.2987902;0.1091862;0;
22164.26;16656.82;-2675.984;22653.68;-3.329484;-6.072932;21933.82;12073.7;-0.02634676;-0.02085825;0;
24613.39;16503.84;-1554.654;26373.89;1.630354;-6.200796;24244.94;12036.44;-0.2861896;-0.2807067;0;
21756.96;14810.53;599.1854;23231.57;5.446133;-5.524797;21417.61;10679.43;0.103902;-0.08552258;0;
25421.48;17533.13;2772.99;27027.34;-1.793008;-10.47586;25057.42;12931.14;0.4286343;0.04449803;0;
16184.2;11616.97;3298.907;17169.9;-8.55636;-14.8191;15877.58;8286.384;0.1683342;-0.08548136;0;
-17291.44;-12573.13;2597.256;-17763.03;2.90644;-10.98631;-17191.79;-9173.795;-0.221639;-0.4102322;0;
-27382.97;-18855.18;1299.141;-28812.42;10.40561;-10.57337;-27019.97;-13463.43;-0.1564489;-0.3448526;0;
-18814.06;-11431.53;-784.0085;-20185.46;5.237589;-7.012712;-18493.08;-7618.507;-0.02635705;0.1752326;0;
-27709.3;-19548.65;-2842.842;-29093.02;2.887802;-1.781181;-27254.69;-13631.87;0.03863677;0.3049912;0;
-8832.981;-5313.633;-3341.187;-10197.46;8.176186;-5.396347;-8593.769;-4255.131;0.2984673;0.3046848;0;
22205.27;16634.85;-2650.596;22723.53;11.51687;-6.998454;21963.25;12021.73;0.3631347;0.3043786;0;
24558.24;16455.46;-1527.153;26317.06;7.553185;-2.637593;24195.37;12006.29;0.3627699;-0.02076394;0;
21632.62;14691.54;623.4109;23115.56;8.885743;-1.563337;21295.47;10555.2;0.4923401;-0.2156451;0;
25259.88;17366.35;2796.942;26868.76;0.9062114;0.3137556;24895.83;12766.31;0.426878;-0.2154284;0;
15899.05;11448.88;3336.234;16841.79;-4.989197;3.729448;15597.92;8134.318;0.4914164;-0.1502446;0;
-17830.64;-12989.44;2643.166;-18350.12;-3.645013;-1.431863;-17729.25;-9546.426;0.1660859;-0.02015896;0;
-27583.56;-19069.78;1355.937;-29052.62;-10.07171;-3.506773;-27219.03;-13695.96;-0.02898298;-0.1500734;0;
-18552.42;-11157.57;-699.4401;-19953.93;3.334994;-4.976874;-18220;-7393.064;0.3608502;-0.01998791;0;
-27415.44;-19269.47;-2738.806;-28798.95;12.5077;-8.521847;-26949.12;-13376.23;-0.02931644;0.4348036;0;
-8484.608;-5136.378;-3233.054;-9834.017;9.012503;-5.030293;-8230.893;-4097.466;-0.3541237;0.304432;0;
22505.72;16844.05;-2541.089;23032.52;14.22836;-4.020495;22272.77;12243.66;0.1010035;-0.1506453;0;
24678.16;16593.66;-1420.035;26439.04;7.046767;-3.011711;24309.93;12139.93;0.100902;-0.08552659;0;
21734.11;14785.36;721.2378;23213.74;2.752779;-0.9323363;21395.19;10653.74;-0.02913404;0.1744287;0;
25384.19;17490.46;2884.988;26992.27;4.491325;-0.7304507;25020.77;12895.75;-0.2889741;0.1092861;0;
15981.49;11493.91;3408.793;16942.16;1.205258;1.279771;15675.9;8165.692;-0.4186184;0.04420896;0;
-17457.44;-12657.52;2701.128;-17958.63;6.026818;0.608656;-17355.41;-9195.165;-0.2232958;-0.2157048;0;
-26765.97;-18239.54;1410.03;-28255.21;10.30767;0.5410615;-26409.39;-13113.11;-0.3530061;-0.6052921;0;
-17736.86;-10326.69;-656.6299;-19179.06;4.87133;3.018886;-17425.03;-6909.716;-0.0278147;-0.4097819;0;
-26555.01;-18400.55;-2708.969;-27967.45;0.9143199;4.087458;-26099.03;-12637.23;0.1671153;-0.08453345;0;
-7767.87;-4468.743;-3224.175;-9123.746;8.951353;7.0306;-7521.38;-3624.404;0.03701267;0.1104535;0;
22586.43;16870.43;-2560.283;23124.39;15.239;10.17161;22349.12;12170.69;0.1019428;-0.0845595;0;
24607.54;16526.72;-1442.068;26379.58;10.60199;10.09441;24243.28;12118.61;-0.02809429;-0.2144092;0;
21770.21;14830.51;700.0865;23251.7;10.45663;10.15125;21432.22;10680.47;-0.4828374;-0.1492264;0;
25441.62;17548.75;2858.235;27052.41;9.776543;13.69102;25075.83;12966.12;-0.417385;-0.08410915;0;
16143.01;11616.24;3373.572;17138.47;4.207014;14.74899;15841.78;8240.164;0.3626425;0.3057794;0;
-17296.55;-12531.16;2652.23;-17765.39;15.45592;17.34651;-17184.22;-9188.625;0.4922128;0.1755375;0;
-26562.17;-18025.52;1369.209;-28027.84;24.14793;21.61586;-26195.49;-13046.03;-0.02802048;-0.2794103;0;
-17663.47;-10209.51;-692.0689;-19054.1;13.54109;15.1639;-17327.97;-6924.692;-0.157927;-0.2141622;0;
-26563.42;-18419.06;-2747.84;-27941.58;9.173228;11.66568;-26085.24;-12673.76;-0.09280097;-0.08401232;0;
-7538.946;-4404.727;-3242.001;-8870.58;8.829218;12.2568;-7291.732;-3533.959;-0.2876098;0.2409088;0;
22768.3;16940.07;-2574.265;23331.53;6.475822;9.565166;22529.58;12264.26;-0.3522881;-0.01920263;0;
24607.24;16553.93;-1481.273;26378.48;4.19214;11.69901;24245.31;12148.32;-0.02709742;-0.149118;0;
21839.35;14896.58;649.6136;23321.06;3.249922;11.95519;21506.13;10753.01;-0.2219722;0.2408359;0;
25430.18;17533.51;2801.473;27044.47;0.2998956;12.47904;25069.63;12955;-0.2867165;-0.08424284;0;
15996.3;11572.04;3323.144;16990.95;-1.776511;14.07397;15696.52;8192.011;0.1033756;0.1757112;0;
-17018.86;-12150.94;2623.53;-17488.11;0.4351012;12.51934;-16905.2;-8775.024;-0.2215649;0.435404;0;
-25927.96;-17400.76;1328.762;-27406.34;-2.110931;13.98026;-25559.88;-12444.01;-0.2863097;-0.0198049;0;
-17138.81;-9698.993;-737.3477;-18535.02;8.407388;9.746412;-16805.66;-6438.227;0.3636514;-0.019785;0;
-26064.66;-17922.91;-2771.475;-27436.94;14.29344;4.512072;-25607.74;-12239.45;0.4932207;-0.08473247;0;
-7189.133;-4093.901;-3282.01;-8534.749;16.75732;10.067;-6972.844;-3398.134;-0.0270136;0.04528736;0;
22863.04;17027.82;-2618.435;23414.55;27.59148;9.989902;22614.51;12299.06;-0.2218885;0.1102092;0;
24651.04;16599.77;-1494.289;26423.88;9.881233;12.12332;24288.77;12222.88;0.03820384;-0.01983622;0;
21876.09;14930.66;641.5769;23352.09;-0.5111716;16.53189;21536.34;10775.87;0.2980348;0.3699878;0;
25521.94;17627.71;2800.784;27127.87;4.445835;7.271875;25159.23;13053.78;-0.02710136;0.4995507;0;
16233.05;11714.26;3340.01;17228.44;2.03047;3.312576;15931.51;8361.622;0.1028606;-0.2805594;0;
-16892.61;-12136.06;2637.911;-17351.5;2.899086;-1.178487;-16781.97;-8713.295;0.3626266;-0.8649835;0;
-25989.05;-17453.42;1347.439;-27491.9;-0.92222;-7.942396;-25628.21;-12563.26;-0.1574765;-0.6692123;0;
-17163.53;-9722.492;-717.9396;-18617.33;10.46556;-5.657057;-16846.66;-6590.847;-0.2222856;-0.3437032;0;
-26282.74;-18133.55;-2767.609;-27677.58;18.96151;-5.718356;-25823.71;-12348.3;0.1677418;-0.5382599;0;
-7585.421;-4387.904;-3261.345;-8911.638;16.19677;-7.454105;-7352.051;-3477.201;-0.1572635;-0.7326211;0;
22694.61;16899.32;-2575.317;23265.62;20.86954;-6.575837;22446.83;12198.18;-0.09213813;-0.4720156;0;
24550.56;16490.13;-1456.431;26323.66;14.14979;-7.975871;24186.42;12103.47;0.2327912;0.04819743;0;
21740.69;14799.72;682.0675;23212.37;11.05412;-10.7141;21405.16;10659.18;0.1026226;-0.146753;0;
25411.13;17514.83;2831.083;27019.28;8.900531;-2.196742;25047.34;12928.04;-0.02741524;-0.4714423;0;
15782.2;11407.31;3361.689;16764.83;4.537331;3.699841;15481.35;8112.561;0.102547;0.04877017;0;
-17446.68;-12529.89;2674.155;-17924.26;3.929559;1.887706;-17333.16;-9101.224;-0.02749073;-0.01624618;0;
-26617.31;-18099.26;1364.718;-28091.32;-4.246063;4.498022;-26256.81;-12890.72;-0.1573978;-0.2760992;0;
-18382.94;-10976.97;-716.6698;-19792.7;9.758002;1.077495;-18065.54;-7250.67;-0.0922723;0.04901491;0;
-27026.84;-18874.51;-2739.839;-28428.45;21.33515;-0.7991102;-26573.71;-13094.4;-0.3520489;0.308835;0;
-7422.849;-4226.028;-3220.889;-8783.555;8.453962;-1.937017;-7199.448;-3576.33;-0.2867279;0.04865535;0;
22621.18;16825.29;-2541.602;23171.01;8.712912;-5.752976;22372.47;12126.15;0.1033643;-0.01636089;0;
24251.22;16196.03;-1436.806;26021.92;-2.079485;-3.134861;23887.55;11819.24;0.1032604;0.3734596;0;
21526.77;14584.33;675.9363;23005.55;-14.60333;-3.399643;21188.45;10438.34;-0.02677801;0.1781823;0;
25149.87;17253.71;2810.746;26757.98;-3.804035;-2.927346;24787.7;12664.02;0.03821624;-0.2118008;0;
15302.05;11002.5;3341.716;16243.03;-0.250239;-0.3121925;15001;7791.395;0.1681125;0.04828142;0;
-18236.94;-13251.94;2666.384;-18760.77;-1.522785;-6.072289;-18128.43;-9682.748;0.427813;0.2431349;0;
-27087.89;-18561.42;1389.345;-28558.28;3.100445;-9.549178;-26718.86;-13304.35;0.3624158;-0.1469134;0;
-18359.39;-10948.84;-672.3279;-19758;-1.725441;-7.932054;-18023.16;-7201.496;0.03721489;-0.3416678;0;
-27334.07;-19173.51;-2710.268;-28719.46;-9.627937;-9.129715;-26863.46;-13185.75;-0.2226919;0.2433816;0;
-8008.207;-4759.386;-3205.732;-9326.41;10.07496;-7.646978;-7768.286;-3768.523;-0.1575008;0.04823498;0;
22470.99;16705.88;-2539.719;23048.86;23.12566;-6.232653;22225.98;12082.92;-0.02740782;-0.1467155;0;
24260.33;16195.1;-1454.446;26023.23;15.06544;-7.967947;23896.14;11776.2;0.03758706;0.3082033;0;
21357.03;14416.32;658.0171;22834.54;16.92534;-8.361837;21021.14;10301.89;0.167484;0.4378283;0;
25055.04;17157.05;2800.81;26654.54;9.674665;-7.348692;24690.29;12547.74;0.037381;0.3074537;0;
15001.81;10751.04;3337.818;15864.66;3.234583;-4.863;14715.53;7659.284;-0.0276239;-0.01769195;0;
-18886.72;-13846.85;2669.642;-19463.77;3.365054;-8.207199;-18752.41;-10094.45;-0.09256349;-0.1476089;0;
-27657.96;-19133.64;1392.631;-29080.37;0.4812852;-10.20838;-27284.41;-13741.15;-0.4173072;0.04744148;0;
-19007.48;-11619.39;-667.2021;-20348.41;-3.336616;-5.375473;-18678.76;-7728.563;0.2327855;0.1123612;0;
-27880.28;-19714.69;-2686.329;-29266.05;-10.50056;-3.226618;-27423.23;-13802.63;0.5573884;0.5020523;0;
-8065.106;-4744.359;-3176.07;-9431.882;-1.045536;0.3935803;-7839.943;-3917.661;-0.2877472;0.6314825;0;
22416.02;16691.17;-2516.021;22958.49;7.194537;2.80457;22170.56;12052.69;-0.3524254;0.3060113;0;
24128.97;16055.89;-1390.573;25894.73;-1.7213;6.820606;23765.87;11654.3;0.2976022;0.1757692;0;
21349.86;14412.75;761.3214;22823.55;-3.260788;8.890101;21010.63;10285.62;0.1024011;0.2405599;0;
25018.01;17120.49;2896.983;26618.66;-2.721648;13.16795;24653.46;12511.17;-0.02763647;0.1103835;0;
14736.88;10538.61;3406.377;15633.42;-5.598325;20.72367;14445.79;7503.941;0.1672933;-0.01966213;0;
-19385.28;-14295.15;2703.743;-19947.6;1.105105;9.182029;-19258.06;-10483.94;-0.2226788;0.3051943;0;
-27926.83;-19416.08;1427.291;-29375.07;5.591973;3.680325;-27542.31;-13962.44;-0.09252039;0.4997897;0;
-19025.41;-11631.33;-623.675;-20378.63;3.375551;3.07378;-18676.25;-7675.021;0.557246;0.1744508;0;
-28209.26;-20034.24;-2659.9;-29575.88;4.443887;-2.890545;-27731.38;-13965.57;0.361784;0.2392429;0;
-8528.859;-5233.43;-3130.598;-9877.437;2.162246;4.279289;-8279.606;-4121.005;-0.2882529;0.1740351;0;
22379.33;16636.56;-2441.219;22925.93;-2.194184;7.155255;22142.13;12088.79;-0.4178979;-0.02104178;0;
24204.47;16133.55;-1330.574;25965.04;3.90359;8.688551;23840.63;11684.48;-0.1576087;0.4987181;0;
21300.28;14363.01;822.8067;22781.5;8.186575;11.76104;20965.82;10267.05;-0.09248296;0.4332497;0;
25108.88;17211.85;2972.212;26704.47;2.552271;13.2897;24744.86;12587.02;-0.2223247;-0.1518918;0;
14648.69;10466.72;3462.384;15466.34;4.826882;15.8217;14361;7469.53;-0.5469381;-0.2167065;0;
-19410.5;-14308.6;2757.476;-20047.86;-6.028959;14.66709;-19271.89;-10425.81;-0.4814211;-0.08655406;0;
-27592.26;-19079.81;1480.627;-29033.8;-19.41949;13.84856;-27205.69;-13728.76;0.2986707;-0.1514344;0;
-19034.86;-11650.99;-595.5994;-20382.91;-1.381688;12.09321;-18692.08;-7763.883;0.4932726;-0.08631492;0;
-28064.31;-19909.69;-2620.967;-29469.01;6.791374;10.27252;-27585.04;-13916.89;0.03800559;-0.1511955;0;
-7926.981;-4616.425;-3069.341;-9280.046;4.708446;5.43955;-7675.925;-3750.807;-0.1569346;-0.08607627;0;
22436.4;16721.29;-2387.801;23012.74;9.056995;1.013333;22196.96;12079.3;-0.741483;-0.02102244;0;
24029.84;15957.5;-1269.291;25798.97;5.029407;-1.399071;23667;11557.03;-0.4159012;-0.2808707;0;
21370.44;14431.1;892.0236;22839.3;1.540752;-4.009877;21036.44;10309.29;0.3641247;-0.6703925;0;
25015.33;17119.01;3020.557;26614.12;6.160904;-6.149302;24649.12;12507.43;-0.02604518;-0.2799149;0;
14651.89;10470.41;3517.521;15547.05;11.64707;-7.750653;14364.41;7454.319;-0.415823;0.2401052;0;
-19384.33;-14279.37;2820.054;-19942.34;-1.894941;-8.07778;-19251.88;-10487.22;-0.4154052;0.04496186;0;
-27981.11;-19488.91;1509.877;-29430.05;-12.07347;-11.08383;-27617.26;-13990.79;-0.09015112;0.2398187;0;
-19362.38;-12007.28;-582.2453;-20724.23;-5.162459;-2.43202;-19038.4;-7905.019;0.3647108;0.04467571;0;
-28511.6;-20343.5;-2623.009;-29889.41;-5.358343;5.072268;-28045.41;-14226.39;0.1694424;-0.4751079;0;
-8636.578;-5302.143;-3088.841;-9964.413;-2.606292;0.6464195;-8401.274;-4180.11;-0.2205319;-0.08482648;0;
22279.16;16545.81;-2391.961;22852.02;2.151749;2.25336;22034.97;12006.97;-0.2852777;0.1101608;0;
24057.1;15981.68;-1275.462;25812.18;-0.9318721;0.1746253;23694.2;11532.28;-0.2849911;0.3049521;0;
21121.05;14184.32;878.5349;22602.09;-2.471177;-2.035987;20783.9;10083.34;-0.4146394;0.6294824;0;
24895.86;16994.07;3012.673;26488.11;4.966045;0.3104614;24528.83;12363.02;-0.5441574;0.2390459;0;
14252.29;10148.58;3481.002;15067.78;11.123;-0.7615774;13974.85;7225.332;-0.5436106;0.04390363;0;
-20175.1;-14999.56;2761.302;-20795.47;7.360776;1.851522;-20024.9;-11061.07;-0.4131297;0.2387616;0;
-28567.41;-20067.12;1459.087;-30022.55;5.813139;2.452508;-28194.12;-14492.66;0.1719914;0.108587;0;
-19982.58;-12637.31;-636.3266;-21360.09;8.95513;3.655615;-19658.1;-8432.965;0.5616227;-0.1513915;0;
-28959.17;-20794.02;-2671.086;-30361.1;9.147202;6.733156;-28490.6;-14711.83;0.4311237;-0.2811741;0;
-8613.22;-5156.318;-3133.684;-9956.097;8.535775;0.6980489;-8371.991;-4186.004;0.4956578;-0.2159242;0;
22166.19;16540.87;-2444.911;22743.74;6.78491;-2.785643;21922.63;11953.33;0.1703231;0.04416211;0;
23875.04;15788.22;-1303.605;25636.91;7.448654;-2.849827;23510.56;11356.91;-0.1546848;0.1740524;0;
21145.48;14205.79;876.5004;22621.93;11.45966;-4.119639;20808.43;10100.65;0.04037267;-0.4108285;0;
24871.24;16976.65;3002.363;26462.88;-2.014817;-6.459841;24504.04;12342.68;-0.02463523;-0.6053178;0;
13952.8;9907.742;3456.773;14753.63;-12.59634;-9.869419;13672.19;7014.171;0.1702915;0.2398659;0;
-20483.39;-15236.74;2735.91;-21115.57;-4.880524;-6.711365;-20339.19;-11264.58;0.6248918;0.3045922;0;
-28569.9;-20068.38;1431.097;-30001.4;-2.732166;-5.900887;-28186.45;-14430.12;0.2344599;0.2393188;0;
-20196.25;-12843.46;-672.5971;-21535.04;-6.01195;-4.354351;-19859.94;-8565.733;-0.1555797;0.369013;0;
-29613.7;-21435.08;-2702.963;-30995.26;-10.09175;0.4056907;-29150.87;-15280.04;0.1044459;-0.08612914;0;
-9012.827;-5600.923;-3136.731;-10354.41;-0.7035076;-6.627742;-8771.839;-4494.838;-0.09056103;-0.2159773;0;
22255.61;16579.45;-2420.063;22837.49;5.25807;-11.04189;22014.69;12047.77;-0.1554374;-0.08582558;0;
23981.79;15894.83;-1280.655;25743.74;3.04296;-6.342056;23613.93;11437.06;0.4294249;-0.020772;0;
21112.45;14179.98;882.1074;22594.27;9.134496;-6.134795;20775.91;10084.07;0.1041567;0.1091836;0;
24918.89;17019.98;2998.532;26507.26;-5.877884;-3.851211;24552.67;12377.36;-0.285752;0.4339106;0;
14007.78;9955.251;3445.98;14749.58;-18.66535;-1.235129;13731.88;7106.549;0.03937181;0.2385726;0;
-20558.21;-15324.32;2716.601;-21240.54;-10.14013;-3.37722;-20408.03;-11285.76;0.1042996;-0.5412753;0;
-28678.87;-20182.36;1417.929;-30117.2;-9.92887;-4.579519;-28307.34;-14550.88;-0.09070724;-0.6056987;0;
-20210.81;-12873.09;-677.3182;-21563.88;-12.66556;-3.03431;-19888.73;-8565.415;-0.09061609;-0.1503187;0;
-29219.98;-21065.17;-2706.742;-30607.43;-13.32242;-1.490776;-28756.44;-14938.65;-0.09052504;0.2396364;0;
-8495.395;-5053.665;-3143.536;-9824.578;-14.51448;-5.240201;-8257.584;-4095.705;-0.1554014;0.2393956;0;
22301.57;16668.11;-2441.432;22890.67;-14.2998;-7.043413;22054.81;12081.52;-0.2851799;-0.4105184;0;
23952.35;15869.44;-1299.395;25720.72;-15.89205;-7.237285;23586.21;11433.2;-0.08999138;-0.3451386;0;
21252.05;14312.96;874.9432;22733.96;-16.94781;-7.765876;20913.94;10205.05;0.04003373;0.04501227;0;
24892.56;16995.5;2977.132;26484.12;-15.85905;-8.092987;24523.91;12360.71;0.1049608;-0.2149023;0;
13875.51;9896.935;3427.881;14654.54;-15.70939;-10.09428;13594.05;6997.683;-0.02507931;-0.0847517;0;
-20670.51;-15367.05;2705.423;-21318.04;-14.82295;-3.787866;-20537.09;-11420.56;-0.4798255;-0.01969921;0;
-28900.31;-20397.96;1370.874;-30328.64;-13.73633;0.5027255;-28521.8;-14669.21;-0.3494087;-0.4744508;0;
-20682.06;-13322.28;-749.1414;-22025.17;-13.58881;0.6361862;-20330.86;-8884.765;0.1057138;-0.3440394;0;
-29965.52;-21792.08;-2772.074;-31361.69;-11.36435;3.515691;-29498.33;-15583.08;0.2355423;-0.2787264;0;
-9146.88;-5682.756;-3195.013;-10496.98;-14.63546;1.368827;-8915.205;-4537.071;0.3002729;-0.213479;0;
22102.26;16476.76;-2479.207;22683.15;-18.23808;-0.7760025;21857.68;11944.69;0.04010184;-0.08332976;0;
23785.67;15702.1;-1344.364;25545.65;-11.11883;1.770129;23419.02;11242.32;-0.2198078;0.1766233;0;
20943.46;14002.31;822.1489;22432.33;-7.089169;3.241853;20606.73;9906.404;-0.08965227;0.1764459;0;
24798.69;16903.58;2940.758;26381.88;-7.81898;-1.048191;24431.89;12248.36;0.3002419;-0.4734048;0;
13367.58;9525.924;3385.609;14082.71;-6.203533;-2.386674;13102.49;6770.177;0.2999402;-0.6028638;0;
-21798.18;-16371.1;2648.045;-22468.72;-6.398371;-6.001354;-21626.16;-12268.17;-0.02519791;-0.4073561;0;
-29815.51;-21324.39;1342.258;-31201.13;-7.396319;-10.55004;-29408.5;-15388.02;-0.479944;-0.4719141;0;
-21537.81;-14209.58;-750.6179;-22847.34;-3.637843;-6.319577;-21175.6;-9444.645;-0.4144944;-0.08163586;0;
-30761.6;-22575.49;-2754.809;-32130.7;0.7864413;-5.174578;-30280.33;-16278.57;-0.02427386;-0.2114885;0;
-9471.283;-5880.064;-3157.493;-10794.78;-5.979503;-3.762737;-9225.534;-4736.667;-0.1541841;-0.5361127;0;
21916.71;16372.32;-2444.74;22511.42;-11.06371;-1.213727;21675.93;11872.09;-0.4138986;-0.4056394;0;
23602.85;15504.83;-1295.063;25362.26;-5.560236;-1.614405;23238.32;11029.39;-0.283548;-0.2752971;0;
20850.05;13907.81;882.6285;22339.13;-4.215479;-1.880715;20515.69;9814.523;0.0415736;0.3096856;0;
24591.77;16700.72;2978.094;26174.01;-4.344965;1.470322;24226.8;12043.18;0.3014012;0.6342112;0;
12855.37;9136.763;3437.088;13539.66;-4.005806;5.353733;12597.22;6401.702;0.3660657;0.2437699;0;
-22362.67;-16820.56;2734.642;-23065.15;-1.992049;-1.081886;-22193.09;-12695.29;0.3007305;0.1785576;0;
-30094.63;-21627.39;1437.576;-31500.67;2.496955;-5.635517;-29694.21;-15624.15;-0.02440837;0.2433455;0;
-21471.02;-14143.63;-635.2644;-22797.66;-5.275086;-3.151486;-21100.39;-9278.319;0.0405835;0.04819895;0;
-30439.07;-22250.12;-2634.683;-31813.27;-12.50345;-3.550217;-29945.84;-15978.72;0.1704774;0.1131179;0;
-9289.612;-5726.712;-3084.059;-10631.13;-3.649632;-4.953291;-9034.001;-4647.225;-0.2844653;0.3079062;0;
21864.71;16314.12;-2406.377;22443.2;-0.1623643;-5.149262;21629.09;11802.16;0.04065726;0.1776622;0;
23547.35;15451.72;-1262.83;25312.84;-2.373004;-7.153515;23181.96;10977.15;0.3654531;0.1125163;0;
20733.37;13788.97;909.5355;22226.26;-0.02609495;-8.887823;20397.75;9696.353;-0.08968548;0.1124033;0;
24550.71;16658.81;3017.905;26128.9;-6.121637;-7.338346;24181.6;11997.81;0.04033931;-0.1475791;0;
12835.38;9130.174;3479.545;13522.24;-11.3404;-7.464938;12583.99;6437.541;0.3651355;-0.2773655;0;
-22751.96;-17194.73;2757.691;-23445.18;-6.907399;-4.778181;-22565.77;-13022.38;0.2998013;-0.2770868;0;
-30299.53;-21830.02;1475.751;-31711.96;-5.493938;-1.022458;-29897.92;-15898.74;0.2345327;-0.01693898;0;
-21186.88;-13874.13;-578.3876;-22532.22;-7.163358;-3.767609;-20829.42;-9123.332;-0.09053969;0.1779801;0;
-30601.46;-22411.38;-2595.074;-31975.98;-6.620296;-3.495891;-30116.08;-16051.08;-0.1554161;0.1128339;0;
-9789.815;-6197.903;-3043.349;-11106.15;-8.757098;-3.29143;-9531.992;-4883.436;0.03964213;0.3076226;0;
21819.86;16276.77;-2351.122;22413.63;-12.36562;-5.163645;21585.45;11832.84;0.1045696;0.3722808;0;
23675.63;15566.68;-1216.938;25424.7;-5.453344;0.668937;23307.88;11057.36;0.03949722;-0.01789734;0;
20827.23;13887.17;944.4026;22318.2;0.5130063;3.213494;20491.68;9807.702;-0.2204118;0.04708798;0;
24695.71;16799.73;3037.214;26261.9;-5.515729;5.8226;24325.53;12119.76;-0.155223;0.30691;0;
12787.88;9026.048;3481.968;13392.52;-6.649263;11.24224;12530.92;6368.215;-0.02513237;0.371569;0;
-22669.36;-17157.1;2746.868;-23424.27;-6.977374;5.403555;-22492.66;-12930.89;-0.1550418;0.241261;0;
-30222.37;-21756.95;1426.646;-31618.72;-10.38564;2.25005;-29833.33;-15821.53;-0.154886;0.1110839;0;
-21961.46;-14639.42;-653.1183;-23287.19;-4.615403;4.793018;-21609.25;-9800.092;0.04017164;-0.01896245;0;
-30984.9;-22817.6;-2650.458;-32376.52;-2.869453;3.850441;-30504.43;-16589.25;0.04013128;-0.08391074;0;
-9053.614;-5578.909;-3099.146;-10400.17;-0.4546965;5.320197;-8814.029;-4646.622;0.04009096;0.176043;0;
22103.15;16476.38;-2433.833;22692.93;6.109844;5.984681;21859.01;11917.65;-0.08988401;0.4357354;0;
23512.4;15425.23;-1302.971;25278.39;-3.609187;5.911684;23146.07;10970.14;-0.02482636;0.1104609;0;
20814.54;13867.25;856.3788;22305.58;-8.963219;7.446352;20477.72;9757.737;-0.02480141;-0.2794542;0;
24585.31;16688.15;2936.753;26161.85;-6.677037;5.228433;24216.27;12021.01;0.04019085;-0.214206;0;
12604.17;8955.59;3374.05;13258.91;-11.42575;4.419384;12340.4;6312.575;0.04015047;-0.0840561;0;
-23039.42;-17441.33;2637.247;-23766.39;-2.774081;5.01779;-22869.29;-13232.23;-0.2847266;-0.0190043;0;
-30541.63;-22083.34;1326.005;-31954.21;4.194932;4.342918;-30144.72;-16018.54;-0.4793425;-0.1489199;0;
-22012.74;-14710.92;-760.9822;-23349.71;-4.31575;7.821667;-21660.86;-9747.402;-0.6087955;0.04613177;0;
-31525.02;-23344.2;-2772.862;-32908.01;-8.129807;10.76093;-31047.22;-16969.52;-0.3483145;0.3059548;0;
-9971.705;-6372.232;-3193.66;-11308.47;-7.049911;10.41521;-9719.12;-5102.659;0.04183957;0.1107453;0;
21801.54;16266.54;-2504.296;22381.63;-7.578691;11.00759;21562.49;11825.37;-0.08813715;-0.01930063;0;
23507.68;15404.45;-1375.845;25258.42;-10.25039;13.27383;23137.39;10889.28;-0.02308125;-0.2791506;0;
20773.72;13826.48;797.9139;22265.11;-9.101017;14.13127;20435.63;9737.379;0.04190928;-0.1489354;0;
24590.08;16698.28;2871.851;26167.38;-16.52661;15.99259;24218.36;12015.21;0.3017365;0.4359203;0;
12359.36;8741.738;3296.625;13002.39;-22.47185;17.85204;12098.93;6116.94;0.431368;-0.0192891;0;
-23088.73;-17457.44;2579.109;-23828.79;-17.15799;15.42272;-22918.39;-13236.03;-0.02383679;-0.2141718;0;
-30546.68;-22092.66;1263.24;-31951.05;-20.15486;14.73739;-30146.1;-15971.16;-0.4136169;0.04591282;0;
-22334.55;-15015.86;-827.3073;-23646.07;-6.67067;11.70847;-21967.46;-9889.286;-0.3482339;-0.084068;0;
-31150.02;-22965.63;-2817.631;-32538.52;4.052326;8.213597;-30677.95;-16657.8;0.236822;-0.4088202;0;
-9197.476;-5650.17;-3248.082;-10560.14;1.167866;9.344054;-8962.856;-4613.422;0.4314861;-0.3434421;0;
21989.03;16413.83;-2567.362;22570.59;9.138271;9.602597;21744.77;11915.24;0.1711832;0.04670703;0;
23512.39;15412.45;-1434.694;25277.43;-4.066426;7.717548;23144.87;10920.18;0.3659132;0.3714968;0;
20788.1;13842.09;723.6005;22283.63;-14.57854;7.64281;20454.68;9738.514;0.4305129;0.1112542;0;
24628.21;16732.76;2800.423;26199.33;-6.794358;7.300216;24260.44;12053.04;0.3001456;-0.4735637;0;
12399.19;8800.951;3239.793;13039.07;-9.33215;6.087188;12152.49;6192.717;0.3648114;-0.4730878;0;
-23345.53;-17694.8;2524.802;-24088.39;-4.500002;11.03769;-23166.05;-13455.51;0.1045754;-0.08280845;0;
-30673.14;-22223.51;1219.326;-32088.4;0.3263145;13.50484;-30271.52;-16094.84;-0.02546434;-0.1476926;0;
-22159.66;-14840.65;-864.5244;-23474.39;-5.367441;15.76869;-21775.47;-9738.965;0.2344306;-0.0176095;0;
-31299.51;-23128.8;-2857.154;-32671.02;-5.763213;18.76696;-30806.99;-16730.54;0.1042604;0.2422776;0;
-9527.521;-6043.477;-3272.916;-10850.48;-7.900876;18.27922;-9278.043;-4795.262;0.03918827;-0.4076393;0;
21976.74;16351.47;-2575.835;22581.32;-9.970018;20.73922;21738.94;11908.19;-0.02581844;-0.2123277;0;
23516.18;15426.24;-1438.208;25268.47;-8.619853;14.82401;23146.76;10906.52;-0.5455312;0.4375591;0;
20705.94;13751.81;739.0024;22207.16;-9.147056;9.383616;20370.02;9664.917;-0.3500811;-0.3424887;0;
24599.38;16707.81;2830.021;26159.55;-7.262831;11.11574;24227.11;12011.47;0.4298788;-0.1472425;0;
11956.99;8487.211;3262.333;12522.07;-6.853391;7.286669;11720.05;5955.209;0.2995122;0.8274156;0;
-23801.82;-18049.7;2552.692;-24586.8;-4.167188;9.757594;-23604.07;-13727.27;-0.02562548;0.4367801;0;
-30801.5;-22347.21;1252.935;-32190.63;-2.220617;11.15443;-30384.26;-16208.74;-0.02559973;0.04653719;0;
-22732.65;-15385.05;-846.0818;-24020.58;-1.146659;5.583762;-22333.65;-10198.09;0.2992627;-0.2133789;0;
-31482.63;-23296.44;-2823.612;-32872.64;3.342472;5.578151;-30998.08;-16998.44;0.4288967;-0.08322985;0;
-8949.95;-5476.491;-3213.906;-10320.24;-4.698839;-3.33594;-8720.486;-4513.251;0.03866167;0.1117558;0;
22068.78;16438.09;-2524.99;22654.2;-10.18647;-9.159981;21823.99;11922.07;-0.02634452;-0.2781605;0;
23424.21;15332.51;-1374.092;25178.54;-6.894685;-10.15552;23051.2;10840.46;0.168584;-0.2129137;0;
20754.38;13798.04;820.7328;22250.27;-8.427999;-16.17366;20412.68;9682.517;-0.2213895;-0.01779773;0;
24462.11;16572.51;2897.739;26022.41;-5.338071;-6.244177;24089.73;11882.43;-0.416069;0.04718749;0;
11971.7;8525.505;3320.457;12550.82;-2.854461;0.5942342;11725.17;5930.52;-0.09081426;-0.01782727;0;
-23926.92;-18178.08;2588.737;-24700.14;-2.985315;-0.6790386;-23756.52;-13950.54;0.1691464;-0.0827767;0;
-31247.92;-22807.42;1259.583;-32633.29;-0.2366247;2.335876;-30839.03;-16571.76;-0.02592563;0.04724116;0;
-22900.71;-15570.45;-842.4388;-24187.63;-2.982077;4.878758;-22497.21;-10280.84;-0.1558343;0.112161;0;
-31903.51;-23711.04;-2830.686;-33290.99;-6.261611;8.758744;-31425.45;-17326.26;-0.02574299;-0.01788635;0;
-9768.486;-6182.37;-3225.72;-11118.93;0.8446281;8.281062;-9538.136;-4998.417;-0.1556518;0.1120663;0;
21818.94;16260.64;-2515.178;22421.7;6.403485;9.344468;21576.78;11810.28;-0.1554954;0.2418884;0;
23424;15314.36;-1360.277;25174.99;1.239487;10.00491;23050.26;10789.47;-0.3502412;0.176678;0;
20602.45;13645.46;830.9266;22093.48;-0.3020001;9.258043;20261.97;9544.173;-0.2849219;0.3714025;0;
24488.36;16595.83;2909.328;26042.91;0.9037521;13.73647;24113.66;11890.98;-0.02476627;0.500964;0;
11724.51;8292.831;3323.414;12291.19;-1.307959;15.86613;11476.79;5795.914;-0.1546761;-0.01927811;0;
-24544.79;-18770.59;2586.412;-25334.65;2.980263;18.4624;-24369.09;-14434.31;-0.0895533;-0.08422609;0;
-31714;-23265.98;1242.269;-33108.69;4.51751;20.92221;-31290.16;-16963.09;0.170406;0.1757279;0;
-23577.6;-16241.27;-878.0864;-24866.93;3.040078;22.30783;-23162.76;-10852.62;0.04030013;-0.3441874;0;
-32495.5;-24317.21;-2846.027;-33899.61;2.50116;24.16082;-32024.16;-17933.29;0.04025964;-0.6037109;0;
-9666.295;-6099.972;-3218.166;-11032.67;1.359571;22.79688;-9444.844;-4937.374;0.1051865;-0.01839823;0;
21902.88;16337.66;-2512.036;22505.51;5.846183;21.43444;21660.31;11897.52;-0.08982119;0.306457;0;
23319.49;15212.24;-1345.566;25068.35;-8.829075;20.40816;22947.58;10678.22;-0.08973093;0.111247;0;
20647.49;13691.07;860.2876;22142.26;-18.93426;18.04325;20308.63;9581.721;-0.1546081;-0.2137015;0;
24472.14;16581.15;2926.322;26026.06;-14.35991;16.41765;24098.92;11866.08;-0.2843874;-0.1485194;0;
11528.93;8132.621;3323.93;12075.94;-21.37905;15.79831;11293.72;5689.397;0.1057024;0.04653184;0;
-24771.27;-18965.29;2577.838;-25561.38;-4.67943;10.08901;-24575.01;-14566.72;0.4954002;0.3713218;0;
-31706.13;-23260.94;1246.604;-33100.45;6.913197;7.734466;-31271.54;-16925.5;0.1050984;0.6957854;0;
-23350.65;-16013.01;-861.7617;-24660.09;3.758418;4.042755;-22927.21;-10586.53;0.2349274;0.5001842;0;
-32591.9;-24401.21;-2856.939;-33993.84;11.85897;-1.252836;-32099.83;-17959.85;0.169724;0.174845;0;
-10078.61;-6500.526;-3244.732;-11432.41;0.8623378;5.714525;-9833.86;-5227.134;-0.4801199;0.2396366;0;
21796.88;16230.86;-2535.17;22398.86;-4.630885;7.5172;21561.99;11826.06;-0.5446048;0.3043632;0;
23315.01;15209.34;-1382.998;25062.72;-5.496888;13.60497;22945.59;10661.96;0.04064848;-0.02077937;0;
20541.73;13578.29;819.5981;22040.88;-14.06518;21.62913;20206.45;9473.124;0.105575;-0.2806278;0;
24461.6;16575.21;2884.611;25998.66;-3.668571;17.32061;24092.29;11859;-0.6091719;-0.1504112;0;
11187.91;7876.768;3254.994;11689.09;2.295986;17.43718;10958.7;5482.31;-0.4136578;0.1096093;0;
-25374.1;-19503.14;2484.109;-26173.88;-3.600819;17.48652;-25176.68;-15057.6;0.1064966;-0.02043552;0;
-32332.22;-23881.1;1121.672;-33673.73;-4.199437;16.06243;-31861.25;-17362.97;0.04142229;-0.410219;0;
-24071.13;-16702.93;-1019.63;-25339.13;-4.731081;15.91232;-23592.33;-11031.93;0.106348;-0.2149048;0;
-32618.07;-24424.09;-2998.204;-34025.57;-6.602337;14.89159;-32116.65;-18005.32;-0.2185956;-0.01978686;0;
-9581.439;-6056.172;-3368.785;-10931.6;-4.317552;12.86714;-9346.091;-4887.689;-0.08844123;0.1751351;0;
21838.35;16232.53;-2666.251;22454.78;-2.237108;11.44769;21601.05;11815.53;0.3014517;0.2399264;0;
23239.35;15135.12;-1501.906;24983.75;-4.310965;9.359714;22866.32;10582.79;0.04127942;-0.08515137;0;
20600.31;13637.72;701.1528;22094.41;0.4487886;6.470164;20263.81;9530.928;0.1062053;-0.3449352;0;
24447.25;16556.01;2748.419;25990.44;-8.058128;9.075875;24075.66;11835.42;0.3010006;-0.4745232;0;
11209.28;7915.333;3114.69;11721.03;-14.21295;10.20547;10969.35;5504.378;0.04082878;-0.3441118;0;
-25387.86;-19510.73;2335.732;-26206.42;-4.352056;9.056501;-25209.32;-15091.41;-0.2190816;-0.01892931;0;
-32316.15;-23868.19;966.822;-33688.23;-8.768312;8.377572;-31864.84;-17403.11;-0.1538941;0.1110244;0;
-24013.88;-16657.66;-1157.926;-25282.08;12.94248;9.775796;-23550.52;-11048.12;-0.02380482;0.2408475;0;
-33075.11;-24893.71;-3125.71;-34473.34;24.58377;12.24422;-32583.86;-18417.15;-0.08874825;0.1756382;0;
-10231.39;-6670.864;-3486.136;-11580.33;27.90797;7.342285;-10004;-5351.3;0.04127561;0.1104944;0;
21744.67;16155.79;-2761.809;22364.19;49.78299;4.789678;21502.75;11783.56;0.1711688;0.240318;0;
23243.76;15142.37;-1587.263;24992.41;7.735519;3.713138;22866.98;10563.11;0.2359642;0.1101419;0;
20475.23;13500.88;626.0482;21973.85;-15.91662;-1.180225;20136.43;9400.808;-0.154077;0.1749985;0;
24409.11;16532.69;2692.287;25946.16;-16.1017;4.514388;24034.86;11804.57;-0.3488242;0.23979;0;
10780;7708.41;3070.983;11278.85;-38.38974;8.327757;10538.42;5301.348;0.1712651;0.1096144;0;
-25860.7;-19802.23;2312.028;-26677.21;-15.04159;2.759928;-25674.5;-15372.81;0.171093;0.239439;0;
-32158.36;-23755.35;986.1509;-33549.68;-5.046141;2.556206;-31726.26;-17361.65;-0.2838503;-0.08563836;0;
-23889.55;-16560.6;-1117.002;-25185.49;-8.055181;-1.934097;-23464.78;-10987.87;-0.1536305;-0.215487;0;
-32843.05;-24648.46;-3086.436;-34231.43;-0.2775542;-5.683075;-32352.87;-18235.07;-0.1534761;0.2395009;0;
-9602.433;-6044.569;-3444.747;-10927.87;-5.233768;-4.40469;-9360.038;-4926.835;-0.08835452;0.2392603;0;
21922.2;16343.08;-2731.049;22559.09;-3.419848;-6.208803;21684.64;11889.01;0.3015383;0.3039872;0;
23188.15;15078.21;-1547.554;24936.92;-7.167456;-2.384659;22815.8;10523.18;0.1713006;0.1737471;0;
20609.79;13639.81;698.1694;22112.55;-7.964538;-0.372775;20271.43;9525.899;-0.1537082;-0.3461663;0;
24482.64;16600.81;2775.486;26005.34;-13.71633;0.7663094;24111.59;11867.51;0.171283;-0.3458184;0;
10899.87;7725.8;3162.345;11323.18;-21.00357;2.975854;10665.58;5360.611;0.5609149;-0.3454709;0;
-25581.67;-19592.94;2423.1;-26445.02;-14.5521;2.035103;-25394.9;-15101.09;0.2355146;-0.3451238;0;
-31806.99;-23383.6;1104.67;-33169.97;-15.67656;2.434956;-31365.54;-17108.74;-0.1545261;-0.01994031;0;
-23370.43;-16010.61;-982.4067;-24649.44;-6.015264;0.08822838;-22929.61;-10621.83;0.04053118;0.2399491;0;
-32151.63;-23968.48;-2933.11;-33549.57;3.971115;-0.5816896;-31662.1;-17603.54;0.1704251;0.04480596;0;
-9099.864;-5689.421;-3299.806;-10408.78;-0.5882024;-5.202806;-8866.073;-4610.759;-0.4794195;-0.0202064;0;
22171.81;16483.62;-2587.502;22825.53;-0.0517479;-9.350458;21930.47;12015.75;-0.7388071;0.1097486;0;
23382.81;15282.9;-1414.678;25129.81;3.967768;-9.140114;23007.32;10732.04;0.171478;0.1096383;0;
20716.75;13750.89;793.056;22213.64;8.18334;-12.01114;20377.56;9631.879;0.431175;0.4343649;0;
24627.61;16731.64;2860.095;26168.76;2.682761;-9.051878;24255.4;11998.9;-0.1539643;0.5638631;0;
11310.49;8027.949;3250.086;11799.08;-2.142706;-8.50692;11077.3;5603.783;-0.2837443;0.04355778;0;
-24959.07;-19059.16;2488.514;-25794.48;2.347425;-5.886098;-24762.68;-14615.87;-0.02358979;0.04351401;0;
-31240.5;-22816.5;1148.779;-32629.5;1.608133;-0.3207227;-30807.45;-16607.21;-0.02356608;-0.08646439;0;
-23117.49;-15786.55;-943.5269;-24409.49;4.821697;-8.35817;-22691.11;-10471.24;-0.4133464;-0.6710836;0;
-32002.05;-23826.16;-2895.925;-33410.58;9.438553;-12.83751;-31506.69;-17475.41;-0.4129311;-0.4755072;0;
-8877.811;-5440.493;-3268.28;-10209.82;2.864986;-10.27932;-8644.916;-4414.565;-0.0876795;-0.2801274;0;
22230.74;16563.65;-2568.799;22867.83;-0.6878664;-11.4077;21987.56;12069.07;-0.02262406;-0.1499113;0;
23407.32;15299.82;-1415.593;25156.74;1.38893;-9.721662;23037.04;10754.69;0.04236602;0.3050108;0;
20861.94;13898.68;773.7765;22349.42;-0.1527074;-6.831748;20526.21;9773.672;0.1072908;-0.02013244;0;
24828.32;16925.67;2834.244;26382.02;3.397419;-11.3796;24457.81;12192.72;0.1721503;-0.4099163;0;
11698.54;8292.443;3242.065;12277.79;8.685291;-15.25306;11455.4;5820.591;0.10701;-0.01970033;0;
-24321.45;-18506.86;2511.298;-25104.33;0.7059613;-8.472636;-24131.51;-14117.63;-0.08799955;0.1752215;0;
-30581.33;-22162.51;1186.283;-32005.95;-3.916448;-5.382968;-30164.71;-16089.37;-0.1528785;0.04511075;0;
-22801.59;-15479.33;-911.1833;-24116.47;1.981009;-4.506782;-22408.63;-10322.78;0.1721119;0.04506542;0;
-31874.55;-23716.83;-2873.469;-33291.63;3.653958;-0.751331;-31393.43;-17407.61;0.561743;0.1099875;0;
-8558.943;-5263.493;-3240.286;-9908.183;5.79374;-4.233567;-8332.244;-4289.512;0.3662765;0.04490962;0;
22491.96;16713.64;-2541.567;23128.2;7.730301;-5.368022;22241.59;12189.66;-0.08886293;-0.08507019;0;
23481.59;15394.39;-1408.738;25232.3;9.798639;-4.759782;23109.97;10854.4;-0.153741;0.04494997;0;
20984.7;14016.24;773.1442;22469.2;11.19629;-5.960692;20646.88;9883.979;0.3011849;0.3697415;0;
24939.56;17035;2832.269;26500.08;12.39049;-3.945215;24566.11;12299.45;0.3658496;0.6292394;0;
11704.31;8328.659;3229.847;12284.98;15.12373;-3.807285;11457.42;5843.817;-0.0892894;0.1738357;0;
-24066.1;-18234.46;2491.315;-24865.68;7.874863;-2.195991;-23882.46;-13848;-0.2841017;-0.216143;0;
-30066.02;-21668.02;1152.234;-31506.64;1.637659;-1.523955;-29670.09;-15694.09;-0.2188489;0.1089109;0;
-22490.43;-15175.63;-972.0443;-23817.4;2.640392;0.08516639;-22115.87;-10131.53;0.1711751;-0.08610058;0;
-31305.56;-23166.79;-2939.484;-32731.69;0.7627045;3.902986;-30826.66;-16934.96;0.4958398;-0.3458834;0;
-7713.883;-4554.546;-3296.412;-9041.334;-3.793389;-2.932951;-7496.431;-3751.091;0.04057015;-0.1506339;0;
22736.35;16853.15;-2601.245;23399.57;-6.602617;-8.288577;22477.01;12253.79;-0.1543726;-0.1504825;0;
23421.43;15357.03;-1448.069;25171.63;-11.95462;-4.998147;23050.69;10853.43;0.1056518;-0.02039662;0;
21039.75;14062.82;756.8724;22515.52;-19.44372;-5.997868;20701.26;9911.88;-0.024389;0.2394933;0;
24808.55;16904.62;2792.182;26373.77;-12.19051;-4.853132;24435.77;12176.2;-0.1542992;0.3691873;0;
11351.78;8111.418;3161.221;11958.72;-4.20766;-1.097333;11106.72;5653.377;0.04075789;0.4337837;0;
-24367.71;-18444.45;2403.767;-25148.91;-19.20761;-9.067017;-24185.58;-14060.15;0.235619;0.1085111;0;
-30351.44;-21953.69;1043.285;-31782.95;-29.43609;-14.14849;-29937.55;-15809.37;0.04048019;-0.1514673;0;
-22864.66;-15544.26;-1078.541;-24173.42;-18.62287;-9.177655;-22462.9;-10265.51;-0.2843972;-0.2162825;0;
-31536.8;-23393.38;-3026.931;-32959.94;-14.38362;-8.230672;-31061.37;-17131.65;-0.08920941;0.1087716;0;
-7877.706;-4624.733;-3396.483;-9213.394;-16.17783;-4.739351;-7667.73;-3820.583;-0.02415243;0.3035643;0;
22646.96;16848.22;-2726.125;23310.12;-13.68333;-0.313837;22392.62;12260.39;-0.4139322;0.04338992;0;
23467.58;15387.84;-1565.998;25218.24;-15.27717;-1.1843;23095.32;10872.34;-0.2835816;-0.08658837;0;
20980.22;13999.32;652.8514;22473.95;-15.73033;-1.250093;20638.69;9848.991;-0.2183293;-0.216436;0;
24778.14;16881.19;2695.012;26319.54;-12.76777;4.042693;24401.12;12136.02;-0.4779793;-0.1512512;0;
10997.55;7789.708;3049.594;11497.48;-10.7452;7.387656;10750.73;5435.077;-0.08769498;0.2387048;0;
-25396.68;-19441.64;2273.98;-26230.33;-11.13655;7.313372;-25214.85;-14940.02;-0.08760686;0.1085303;0;
-31071.14;-22687.15;941.4576;-32498.27;-13.40253;8.913491;-30671.07;-16529.41;-0.1524862;-0.08648081;0;
-23001.88;-15695.62;-1153.17;-24334.95;-6.490191;6.426289;-22621.58;-10409.26;0.1725037;-0.1513613;0;
-31927.68;-23783.29;-3107.045;-33362.67;-1.86197;4.544309;-31460.67;-17477.32;-0.2174736;-0.5410132;0;
-8353.803;-5114.018;-3466.147;-9683.575;-5.543794;4.338794;-8143.141;-4202.138;-0.3471898;-0.2806002;0;
22514.5;16681.64;-2772.089;23179;-4.466497;3.597622;22255.67;12127.5;-0.2169063;-0.02044892;0;
23332.16;15258.82;-1604.952;25082.84;-11.36088;2.053522;22962.6;10730.22;-0.2816556;-0.1503631;0;
20861.95;13876.72;621.5583;22358.36;-18.24932;0.6448171;20519.7;9726.56;-0.151438;0.1096574;0;
24758.72;16866.65;2672.403;26298.08;-15.0158;2.117794;24385.87;12118.94;-0.02135111;-0.02038748;0;
10612.11;7535.077;3028.1;11106.93;-15.13444;2.450458;10388.86;5240.712;0.3035071;0.04460035;0;
-25979.54;-19935.36;2260.473;-26801.3;-18.13334;4.59145;-25785.8;-15389.58;0.3681694;0.1095229;0;
-31777.73;-23374.44;924.0907;-33148.56;-19.38792;6.060461;-31320.62;-16959.36;0.1728975;-0.0854892;0;
-24225.14;-16884.09;-1190.978;-25480.56;-20.50654;7.862789;-23754.88;-11236.58;0.2376911;0.3044008;0;
-32928.8;-24777.24;-3135.319;-34343.05;-22.22822;9.529461;-32436.72;-18411.58;-0.08738446;0.4340296;0;
-8613.499;-5302.232;-3453.429;-9960.625;-19.3255;10.6586;-8395.396;-4370.805;-0.4121334;0.1087568;0;
22442.88;16670.93;-2734.147;23104.19;-17.43007;14.93467;22195.78;12157.47;-0.08688255;-0.3461239;0;
23284.58;15195.88;-1555.881;25034.2;-17.14511;6.614026;22909.79;10645.27;-0.2167299;-0.4757108;0;
20857.1;13870.78;680.0745;22356.67;-14.58229;-0.4926889;20516.45;9724.564;-0.4763815;-0.08542877;0;
24687.56;16801.1;2729.923;26231.48;-18.11761;5.670114;24313.63;12049.78;0.1088032;-0.08534293;0;
10523.74;7481.504;3090.06;11007.75;-21.71673;5.932348;10296.2;5204.696;0.4984979;0.1096449;0;
-26102.59;-20031.17;2321.559;-26925.94;-16.93948;7.065097;-25898.67;-15473.39;0.4330297;0.1095347;0;
-31980.3;-23584.65;959.9091;-33341.27;-14.84538;10.67495;-31507.58;-17128.35;0.1077579;-0.2154121;0;
-24465.27;-17122.8;-1166.409;-25726.61;-17.64448;5.506665;-23986.81;-11399.84;-0.1522198;0.1096411;0;
-33220.68;-25067.7;-3097.031;-34646.4;-17.96154;3.558626;-32720.71;-18674.22;-0.08709946;-0.1503385;0;
-8796.919;-5483.597;-3400.531;-10153.26;-20.48812;4.961692;-8572.208;-4529.088;-0.0220446;-0.4750241;0;
22507.67;16736.4;-2661.375;23164.83;-21.87405;4.085928;22261.94;12236.94;0.04294489;0.240094;0;
23338.74;15245.62;-1470.329;25091.83;-23.05849;7.631796;22966.32;10681.52;-0.08703294;0.6296567;0;
20848.37;13861.59;763.6823;22343.12;-24.24077;9.700599;20512.49;9720.466;-0.1519128;0.4990894;0;
24726.07;16834.88;2809.667;26259.17;-24.14907;10.2937;24355.24;12079.82;0.2380439;0.3686532;0;
10617.26;7574.543;3165.195;11097.38;-27.27361;10.4843;10398.17;5274.706;0.3677393;0.3033155;0;
-25758.97;-19678.34;2395.681;-26593.12;-18.0028;12.88503;-25543.81;-15123.73;0.1075005;0.3030107;0;
-31465.63;-23097.79;1031.115;-32845.75;-9.276201;15.5514;-31013.36;-16732.69;-0.542281;0.04283684;0;
-23877.44;-16556.73;-1098.648;-25144.46;-16.76897;10.57916;-23426.7;-10965.74;-0.4767687;0.1727285;0;
-32358.08;-24216.15;-3022.67;-33773.3;-20.43679;7.755249;-31856.13;-17874.57;-0.08648561;0.367457;0;
-8083.077;-4866.762;-3318.342;-9404.895;-14.05227;5.470159;-7857.872;-3971.508;-0.08639871;-0.2825857;0;
22672.7;16836.63;-2577.457;23362.32;-9.818589;2.651379;22424.18;12307.15;0.1085901;-0.02243238;0;
23339.23;15251.06;-1378.874;25084.36;-14.63149;-0.1644463;22966.1;10689.17;0.3033831;0.3673942;0;
20932.51;13945.79;870.1784;22424.67;-15.35373;-3.647272;20594.72;9798.554;-0.02175851;-0.217681;0;
24813.93;16915.03;2908.435;26349.73;-17.4144;-2.705968;24440.72;12148.66;0.0432307;-0.08752762;0;
10558.09;7439.677;3240.22;11009.11;-22.01861;-1.631522;10332.48;5224.258;0.4329913;0.3673317;0;
-25608.85;-19575.85;2476.534;-26466.01;-14.62909;-3.974163;-25387;-14889.73;0.4975236;0.237028;0;
-30451.99;-22099.87;1134.906;-31875.44;-11.39921;-5.510777;-30025.07;-16038.43;0.1072196;-0.2179816;0;
-22532.92;-15239.21;-994.0244;-23868.45;-11.52148;-1.687335;-22142.68;-10073.84;-0.2826922;-0.2177626;0;
-31470.78;-23369.29;-2928.787;-32894.98;-10.77297;-1.216759;-30988.02;-17061.26;-0.3473755;-0.0876091;0;
-7538.685;-4497.95;-3215.448;-8854.539;-8.283897;4.611857;-7313.139;-3619.052;-0.1521244;-0.2824231;0;
22992.83;17041.13;-2452.724;23661.99;-2.314703;11.97522;22739.83;12469.55;-0.2169389;-0.2821393;0;
23597.27;15533.71;-1239.868;25348.26;-12.9623;5.131053;23228.17;10986.52;0.1081158;-0.02198645;0;
21262.3;14269.17;1017.931;22746.11;-19.11121;4.25512;20923.85;10118.32;0.1080072;0.3678397;0;
25105.08;17200.1;3066.628;26650.71;-17.01591;0.4329389;24732.42;12440.04;-0.02203603;0.3025028;0;
11187.67;8036.355;3406.936;11717.51;-21.88795;-8.074145;10960.06;5657.805;0.4327575;0.1722641;0;
-24541.3;-18545.75;2636.211;-25373.62;-13.22577;2.383;-24329.43;-14066.25;0.107486;0.2370584;0;
-30096.19;-21720.76;1284.115;-31501.89;-7.652776;7.605152;-29655.91;-15628.25;-0.4123608;-0.1529839;0;
-23214.5;-15893.07;-826.7863;-24492.67;-9.989612;2.439947;-22784.37;-10576.23;-0.1520771;-0.2827649;0;
-31655.14;-23530.52;-2718.489;-33073.9;-7.768771;5.049829;-31148.55;-17297.16;0.1729124;0.1073233;0;
-7001.127;-3945.962;-2993.446;-8274.917;-8.900041;-4.399594;-6775.835;-3322.667;0.04280402;0.2371502;0;
23103.58;17154.59;-2249.748;23837.79;-7.752022;-13.10277;22849.73;12526.24;-0.2820757;-0.1528922;0;
23583.72;15509.89;-1011.405;25344.01;-10.22248;-5.386752;23212.63;10989.7;-0.0219229;-0.3476406;0;
21498.6;14513.17;1270.246;22980.69;-12.7578;-4.309612;21161.05;10342.52;-0.08686822;-0.0874219;0;
25211.22;17299.83;3287.924;26782;-9.195011;-2.965745;24839.3;12550.97;-0.6065196;-0.2172687;0;
11417.2;8164.566;3608.082;12024.38;-7.578181;0.4533643;11174.06;5716.974;0.2386652;0.04281894;0;
-24179.92;-18247.02;2830.096;-24963.33;-6.49884;-2.02546;-23977.24;-13827.56;0.6282294;0.1727106;0;
-29744.81;-21384.8;1465.437;-31168.29;-6.157517;-0.9516976;-29322.43;-15345.19;0.2377941;-0.08733231;0;
-22523.4;-15216.45;-653.3463;-23825.16;0.1453098;-2.826263;-22130.6;-10016.62;0.6923266;-0.02227722;0;
-30975.18;-22883.76;-2554.906;-32401.12;6.173384;-5.703568;-30477.21;-16652.84;0.4967289;0.1076799;0;
-6657.357;-3794.954;-2804.087;-7916.179;3.354141;-1.143119;-6429.622;-3124.035;-0.02350892;0.2375063;0;
23478.8;17398.26;-2027.174;24221.53;1.408388;-0.2711926;23219.95;12766.54;-0.0234853;0.107333;0;
23893.41;15847.26;-830.0815;25647.95;7.1004;1.939517;23522.02;11315.97;-0.08842904;-0.02270952;0;
21626.79;14634.47;1401.412;23113.41;11.78134;6.157371;21288.54;10472.55;-0.2832422;0.3671173;0;
25433.11;17520.79;3413.992;27000.9;4.602205;0.3237905;25061.25;12761.9;-0.4778596;-0.02305559;0;
11640.34;8402.419;3705.788;12232.51;0.8475128;-2.020937;11391.69;5913.089;0.1722939;-0.2829018;0;
-23718.74;-17783.51;2896.063;-24516.94;0.3771707;-1.683992;-23525.4;-13408.92;0.6268922;0.1721539;0;
-28764.13;-20409.9;1535.336;-30214.91;-2.972111;-3.356751;-28366;-14636.62;0.1065236;0.0420462;0;
-21803.38;-14497.4;-588.8585;-23129.1;-1.763676;-1.678927;-21439.84;-9581.903;0.3013186;-0.08793073;0;
-30488.45;-22399.25;-2505.412;-31932.39;-1.628182;-2.213104;-30004.91;-16306.58;0.4309505;0.3019617;0;
-6010.029;-3200.176;-2772.104;-7285.052;-3.434231;1.004301;-5799.644;-2766.46;-0.08922128;0.1717236;0;
23664.32;17552.8;-2012.886;24411.37;-5.173069;3.347572;23396.78;12833.2;-0.154099;-0.023351;0;
23840.42;15800.69;-797.6136;25595.83;-2.15376;3.679123;23470.39;11304.64;-0.08897679;-0.02332753;0;
21791.55;14797.79;1450.589;23273;1.465726;6.220778;21451.29;10612.28;-0.02392004;0.1066306;0;
25490.94;17579.56;3450.469;27065.05;-4.095452;2.999346;25116.93;12824.33;-0.218798;0.2364581;0;
11534.54;8295.793;3751.068;12148.09;-8.444617;1.991711;11277.47;5815.774;-0.5434149;-0.08861617;0;
-23562.88;-17624.85;2960.414;-24345.31;-3.814432;0.7840168;-23388.74;-13240.23;-0.2180322;-0.3483965;0;
-28234.25;-19908.86;1600.059;-29702.04;-2.336731;-1.494191;-27867.45;-14308.27;0.171991;-0.2830791;0;
-21262.67;-13959.99;-520.7962;-22600.75;-3.607181;1.722491;-20919.81;-9245.775;0.04188347;0.04204206;0;
-29867.23;-21810.65;-2435.217;-31294.77;-0.790517;4.600905;-29385.53;-15716.93;0.1068087;0.4318039;0;
-5402.564;-2789.563;-2706.726;-6646.874;-7.487528;2.787743;-5193.349;-2363.14;0.2366361;0.3664027;0;
23920.27;17691.98;-1944.372;24687.7;-11.96798;0.9095413;23651.95;12961.49;-0.1534057;-0.08873691;0;
23940.3;15924.35;-736.8526;25698.9;-7.937469;8.410472;23571.92;11438.3;-0.2831863;-0.08864775;0;
21843.84;14845.79;1497.421;23315.67;-8.330659;11.95212;21506.18;10663.81;0.1718697;0.3662127;0;
25554.9;17635.93;3494.974;27128.1;-3.031003;14.2174;25181.13;12884.52;-0.2181071;0.2359101;0;
11847.35;8574.393;3775.039;12509.06;0.5883888;17.21735;11608.92;6072.902;-0.2828553;-0.2190984;0;
-22947.08;-17034.48;2955.218;-23692.41;2.262737;14.72168;-22739.58;-12696.67;0.1722003;0.04099115;0;
-27676.96;-19338.7;1576.971;-29150.13;4.471266;14.57292;-27303.28;-13925.76;-0.2177767;0.3008193;0;
-20958.31;-13661.22;-557.4473;-22306.28;5.06901;9.132786;-20621.25;-9123.41;-0.3474926;0.0406477;0;
-29452.13;-21389.91;-2462.242;-30885.43;7.006299;6.176482;-28978.62;-15413.03;0.2375626;0.1705416;0;
-5030.409;-2411.948;-2717.935;-6255.076;2.779701;-0.5948786;-4838.496;-2169.067;0.1723566;0.2353375;0;
23904.15;17659.62;-1948.745;24687.11;2.844257;-7.828255;23631.54;12882.49;0.2371507;-0.02476832;0;
23903.31;15891.15;-717.7957;25653.14;-6.670422;-5.944928;23535.66;11437.48;0.4967818;0.04022391;0;
21969.92;14971.34;1530.109;23443.49;-17.0462;-8.216312;21628.77;10765.21;0.2364133;-0.1547185;0;
25520.83;17604.98;3523.599;27101;-9.325909;-3.787244;25146.26;12862.71;-0.08866097;0.1702736;0;
11601.31;8386.555;3823.344;12247.71;-8.780674;0.6373125;11345.48;5841.728;0.1063301;0.3000372;0;
-23132.8;-17188.54;3040.331;-23902.45;-6.226256;1.306502;-22947.36;-12906.27;0.1711906;-0.414905;0;
-27779.1;-19445.54;1716.94;-29260.65;-0.7276434;4.989128;-27407.03;-13907.99;0.235986;-0.0896514;0;
-21141.32;-13849.26;-341.0015;-22477.44;-5.081169;6.122825;-20802.74;-9167.487;0.2357489;0.2352754;0;
-29922.31;-21844.24;-2187.746;-31340.74;-6.482583;6.451587;-29441.64;-15719.43;-0.08932474;-0.02483038;0;
-5669.168;-2943.313;-2402.751;-6908.471;-2.390232;12.60729;-5462.079;-2455.795;-0.479039;-0.08977278;0;
23628.8;17454.08;-1594.929;24393.38;-0.5118204;17.95313;23359.91;12726.18;-0.543525;-0.02471523;0;
23730.72;15707.75;-356.2452;25483.03;-0.5786551;14.51909;23366.19;11232.3;-0.1531748;0.235179;0;
21554.63;14554.14;1886.423;23039.79;-0.6444465;14.77243;21215.25;10362.46;0.3017505;-0.1548614;0;
25307.63;17398.31;3911.009;26877.59;0.1595082;12.27922;24932.75;12639.46;0.3664146;-0.3496078;0;
11209.09;8064.996;4246.284;11804.78;1.968009;8.047078;10967.41;5703.097;0.4959811;0.1704822;0;
-24207.16;-18200.55;3474.153;-24988.6;-3.392603;11.99098;-24005.18;-13702.51;0.6254174;0.1053436;0;
-29047.9;-20707.29;2153.73;-30482.21;-7.809824;11.64402;-28651.47;-14857.76;0.4948543;-0.02469696;0;
-22439.54;-15140.38;86.19819;-23742.82;-6.998669;12.70393;-22074.79;-10088.56;0.4943571;-0.2195742;0;
-30819.39;-22757.85;-1762.381;-32258.9;-10.60798;13.82987;-30337.32;-16637.12;0.3639257;-0.3492882;0;
-5741.688;-3031.258;-1978.095;-7023.704;-7.918007;11.53868;-5538.691;-2641.456;0.2985927;0.04086679;0;
23585.69;17394.46;-1201.418;24340.36;-5.499153;12.33076;23312.66;12666.43;0.03842326;0.2357278;0;
23493.19;15480.03;32.26303;25249.59;-11.4545;6.156181;23125.94;11007.31;-0.3514194;0.4303929;0;
21505.9;14496.95;2285.91;22993.88;-10.70703;1.595278;21164.6;10295.82;-0.02622958;0.3000258;0;
25077.5;17181.85;4284.67;26640.22;-20.40819;1.861485;24702.51;12431.22;0.03876412;-0.0251124;0;
10502.29;7558.805;4619.632;11063.08;-30.77016;-0.01578566;10278.79;5242.089;-0.1561769;0.03988017;0;
-25195.04;-19049.86;3868.615;-25984.63;-20.82528;0.05121314;-24979.46;-14526.49;0.1688168;0.1048075;0;
-30112.82;-21765.18;2545.672;-31502.95;-18.72825;-1.489446;-29676.29;-15608.05;0.3635492;-0.1551672;0;
-23329.24;-16005.57;487.4913;-24589.61;-17.16919;2.463922;-22903.8;-10606.2;0.2332492;-0.479848;0;
-31609.73;-23512.69;-1345.952;-33021.59;-12.79768;6.21249;-31107.16;-17255.9;-0.1567892;-0.3494312;0;
-6517.849;-3648.37;-1561.21;-7779.613;-16.73693;3.794862;-6294.144;-3012.196;-0.1566317;-0.02424338;0;
23325.94;17247.26;-792.0424;24080.4;-17.12226;4.058981;23070.24;12607.72;0.4282318;0.1057157;0;
23531.51;15490.57;411.6956;25281.37;-17.70729;3.251107;23161.39;10962.12;0.3628342;0.2355441;0;
21387.03;14383.67;2630.167;22882.5;-16.88619;1.975165;21050.84;10212.37;0.03763286;0.3002748;0;
25115.15;17218.64;4607.06;26661.63;-21.15613;2.442061;24742.07;12446.85;0.1025624;0.1700384;0;
10453.22;7491.454;4902.53;10950.11;-25.01964;2.50659;10235.77;5237.805;-0.09244269;-0.1549692;0;
-25453.17;-19316.01;4111.687;-26279.5;-20.90866;0.5616882;-25228.74;-14716.24;-0.1573171;-0.02487877;0;
-30058.96;-21714.37;2769.634;-31442.79;-20.35179;0.2262092;-29618.13;-15649.98;0.232645;0.3649503;0;
-23296.53;-15970.72;679.0566;-24555.68;-16.51295;-3.056182;-22863.71;-10653.52;-0.1573928;0.2996162;0;
-31869.5;-23775.59;-1192.279;-33285.13;-14.28653;-7.942682;-31370.81;-17531.04;-0.5470387;0.03944581;0;
-6648.407;-3779.581;-1435.396;-7908.6;-10.78857;-1.035642;-6438.715;-3161.408;0.233119;-0.1554959;0;
23259.74;17173.79;-684.8926;24020.72;-7.897346;3.855031;22997.95;12526.38;0.03798277;-0.02540493;0;
23405.43;15365.46;523.095;25150.43;-7.287174;0.4351495;23036.93;10841.14;-0.1569574;0.23449;0;
21383.79;14377.18;2749.356;22882.93;-2.925595;3.180891;21044.8;10195.88;0.03810231;0.2992217;0;
25098.19;17206.35;4710.981;26622.37;-12.5682;-0.9751255;24724.78;12430.5;-0.2218053;-0.02591568;0;
10240.82;7324.58;4987.231;10655.74;-17.98155;-5.796795;10030.36;5124.476;-0.1566151;-0.480661;0;
-25605.21;-19445.23;4180.623;-26474.93;-20.5081;3.854328;-25380.5;-14795.96;-0.2214251;-0.285276;0;
-30283.79;-21926.77;2814.201;-31651.42;-28.25801;6.864565;-29830.42;-15788.23;-0.1562353;0.2347494;0;
-23953.9;-16611.05;713.2404;-25201;-21.93297;12.08221;-23502.52;-11198.01;0.03882374;0.3644482;0;
-32481.74;-24372.45;-1140.139;-33904.38;-20.90656;18.50031;-31993.17;-18144.37;-0.09114996;0.2991146;0;
-6870.799;-3943.014;-1338.674;-8141.435;-19.47903;14.66382;-6675.579;-3347.641;-0.1560257;0.1688794;0;
23184.27;17122;-550.1309;23943.56;-13.36389;14.71607;22920.47;12482.27;-0.2208363;0.038775;0;
23304.24;15258.37;654.4729;25049.32;-21.32106;11.68717;22932.47;10728.48;-0.3505491;-0.156166;0;
21296.09;14287.67;2878.76;22785.2;-23.71054;8.326282;20955.99;10099.26;-0.2852295;-0.09104172;0;
25082.32;17198.03;4841.754;26618.7;-22.41489;6.375532;24706.85;12421.81;-0.1550082;0.4287885;0;
9949.887;7149.122;5084.077;10425.15;-23.93261;3.689808;9733.523;4999.382;0.1050169;0.298423;0;
-26158.9;-19911.54;4248.074;-26996.92;-18.4162;-0.332753;-25935.64;-15219.73;0.1698787;-0.2216156;0;
-30631.69;-22312.24;2882.646;-32024.32;-16.05317;-5.422999;-30189.48;-16061.54;-0.09016132;-0.2863603;0;
-24230.65;-16927.34;787.1446;-25497.23;-10.81213;-3.140253;-23795.6;-11359.65;-0.2200054;-0.02620319;0;
-32819.49;-24718.14;-1058.266;-34239.73;-5.711054;-3.271063;-32324.18;-18432.59;-0.349719;0.5585292;0;
-7031.525;-4072.953;-1249.247;-8296.526;-4.902009;-2.932862;-6823.864;-3424.652;-0.219433;0.4280333;0;
23175.41;17141.42;-452.8287;23931.65;-3.289492;-0.3175806;22911.52;12529.26;0.430461;-0.1571029;0;
23351.72;15295.77;774.7283;25098.3;-2.21446;-5.608791;22979.04;10746.29;0.3000937;0.3627937;0;
21385.33;14375.29;3006.14;22875.48;-2.077537;-10.09089;21044.85;10192.73;-0.4798159;0.5573313;0;
25062.76;17175.15;4945.644;26605.03;-3.080804;-6.932674;24688.26;12393.76;-0.4793338;0.03703249;0;
9971.2;7139.709;5176.024;10468.11;-0.4647637;-8.064358;9749.383;4946.836;-0.3489175;-0.2228741;0;
-25746.64;-19518.18;4343.677;-26578.4;-13.86088;-7.453408;-25536.26;-14860.43;-0.08869749;-0.09271546;0;
-30246.16;-21913.24;2975.56;-31613.44;-26.10447;-3.694936;-29793.12;-15696.82;0.4311303;0.2322144;0;
-24105.67;-16766.97;879.4037;-25332.09;-17.57177;-15.88187;-23648.8;-11246.48;0.3007625;-0.2227903;0;
-32342.19;-24261.82;-951.0291;-33763.32;-15.94652;-22.83196;-31852.22;-18031.45;-0.02437644;-0.4824358;0;
-6421.203;-3584.914;-1119.035;-7682.47;-16.73478;-23.47884;-6226.438;-3018.948;0.0406154;-0.3520164;0;
23417.93;17319.28;-309.2393;24191.75;-13.43544;-28.07695;23153.66;12676.99;-0.1543274;-0.3516627;0;
23482.68;15437.25;916.393;25230.14;-16.30233;-24.69972;23108.44;10887.65;-0.2841071;-0.1564073;0;
21490.43;14480.76;3147.382;22976.08;-19.76857;-24.07205;21151.46;10300.94;-0.2838216;0.3634886;0;
25277.61;17384.37;5089.21;26832.93;-9.232509;-21.03369;24901.59;12595.82;-0.2185691;0.3631234;0;
10157.22;7292.648;5292.023;10712.31;-2.525427;-17.39554;9936.783;5107.981;-0.02344741;-0.02704556;0;
-25625.04;-19408.7;4429.98;-26428.46;-4.197828;-16.70829;-25398.88;-14737.9;0.1714782;0.1678836;0;
-29336.1;-21048.64;3060.309;-30791.88;-0.508939;-14.54811;-28935.9;-15155.12;0.2362732;0.362617;0;
-22826.78;-15543.84;942.3282;-24146.93;-6.336553;-13.66272;-22457.25;-10379.86;0.1710685;-0.02755143;0;
-31619.73;-23560.86;-913.2802;-33049.38;-9.611739;-11.37163;-31136.17;-17367.37;0.3657986;-0.3523605;0;
-6039.266;-3328.579;-1073.563;-7295.725;-10.13795;-14.91018;-5829.874;-2833.529;0.2354964;-0.0271697;0;
23490.17;17303.88;-261.704;24260.59;-14.28094;-17.17261;23223.16;12617.9;-0.3494463;0.232727;0;
23421.62;15395.3;968.4095;25170.96;-10.71662;-17.28926;23048.19;10862.83;-0.4790299;-0.3522129;0;
21597.49;14580.52;3210.184;23085.58;-10.77223;-19.14741;21256.32;10393.22;-0.3486139;-0.2219244;0;
25317.3;17421.65;5132.147;26863.18;-8.685297;-18.12343;24939.7;12632.96;-0.08839423;0.4929394;0;
10218.84;7355.649;5312.897;10730.42;-5.461389;-18.37315;9989.124;5109.042;-0.2182401;0.2975421;0;
-25011.41;-18798.44;4446.272;-25849.68;-8.53736;-16.2113;-24795.87;-14190.39;-0.02311878;-0.2224956;0;
-28497.52;-20216.58;3079.521;-29953.93;-7.724499;-12.84592;-28109.92;-14520.96;0.1718065;-0.02737006;0;
-22439.62;-15158.13;977.669;-23763.83;-10.12861;-15.17736;-22082.75;-10207.17;-0.1532029;0.1025921;0;
-31173.2;-23109.77;-871.9466;-32618.76;-11.32388;-16.16685;-30698.55;-17007.65;-0.08808158;-0.2223477;0;
-5411.074;-2748.317;-1055.165;-6661.857;-12.11581;-12.39962;-5219.354;-2409.06;-0.4128298;-0.4170263;0;
23696.81;17468.61;-262.8779;24486.78;-16.65896;-11.85136;23421.42;12729.74;-0.7372517;0.1031315;0;
23455.52;15437.54;963.9572;25208.89;-7.264127;-7.21769;23085.42;10937.71;-0.3467068;0.3628972;0;
21683.53;14664.27;3198.802;23169.92;-0.49265;-1.985952;21340.13;10459.68;-0.1514564;-0.02727147;0;
25332.73;17442.02;5121.558;26881.04;-3.438916;-6.605658;24958.6;12661.62;0.1735325;-0.2221461;0;
10400.64;7548.506;5308.752;10922.52;0.1145129;-8.139566;10172.5;5272.104;0.3032928;0.1678812;0;
-24789.33;-18584.96;4442.257;-25615.95;-4.507302;-8.198371;-24579.53;-14002.57;-0.2167507;0.3626145;0;
-28497.36;-20187.27;3074.166;-29921.58;-9.526615;-10.33353;-28079.66;-14444.71;-0.2815003;-0.02755389;0;
-22338.66;-15014.83;966.5728;-23629.95;-2.751889;-9.251476;-21933.04;-10009.84;0.0436193;-0.1574609;0;
-31139.27;-23063.7;-879.9552;-32578.96;-3.083916;-9.911949;-30646.44;-16914.32;-0.08635922;-0.1573027;0;
-5575.907;-2880.769;-1033.915;-6798.618;1.47451;-10.77277;-5376.739;-2507.058;-0.3461418;-0.2870793;0;
23779.97;17583.28;-210.5395;24596.87;7.36655;-11.76669;23509.8;12849.73;-0.4107614;-0.09188882;0;
23659.89;15628.38;1034.859;25415.7;-0.6778277;-12.69256;23288.25;11118.01;-0.02054456;0.0381382;0;
21860.12;14850.29;3286.811;23343.07;-1.21301;-12.88076;21521.8;10651.96;0.3692801;-0.1568021;0;
25543.29;17641.65;5205.886;27113.24;-8.311738;-16.35087;25167.19;12859.22;-0.02089497;-0.2865793;0;
10649.71;7694.54;5383.001;11242.21;-15.26961;-17.67404;10415.53;5370.038;0.1090607;-0.2862913;0;
-24224.84;-18069.7;4516.057;-25029.13;-12.57495;-20.80441;-24010.34;-13561.34;0.3688205;-0.2210363;0;
-27954.06;-19658.88;3139.052;-29417.71;-18.59054;-23.93165;-27561.34;-14006.94;-0.02135415;-0.3507489;0;
-22226.61;-14925.6;1037.797;-23538.39;-5.443689;-22.50096;-21864.36;-9959.112;0.04363465;-0.4803311;0;
-30587.78;-22555.6;-784.8304;-32038.69;5.077979;-23.75102;-30117.32;-16491.38;0.1735255;-0.4148812;0;
-4650.675;-2151.215;-939.901;-5881.002;-2.161768;-20.31109;-4475.013;-1955.264;-0.2814203;-0.349497;0;
24042.36;17721.76;-129.8008;24861.25;0.5870705;-18.41522;23761.31;12944.76;-0.4760395;-0.2192111;0;
23622.01;15621.45;1109.675;25375.49;-7.51882;-17.32499;23251.61;11135.51;0.1091449;0.1708132;0;
21906.47;14889.02;3344.312;23388.8;-16.82104;-13.95856;21564.18;10674.94;0.3039372;0.3005763;0;
25562.12;17660.38;5261.642;27130.16;-7.829156;-17.56149;25188.98;12881.98;-0.08617221;0.3652416;0;
10647.77;7708.233;5449.758;11233.95;-2.864796;-16.941;10407.94;5403.02;-0.02111828;0.2999073;0;
-24340.99;-18183.1;4577.499;-25136.54;-11.97062;-20.40703;-24138.83;-13646.2;0.1088376;0.1047039;0;
-27942.7;-19639.4;3202.338;-29395.48;-15.70964;-22.5969;-27556.67;-14024.6;0.433565;-0.025336;0;
-22101.71;-14798.34;1108.984;-23419.08;-14.8232;-22.30626;-21743.2;-9905.696;0.952868;-0.1552452;0;
-30767.25;-22724.57;-710.779;-32216.93;-17.68869;-28.6471;-30289.34;-16604.06;0.4321719;-0.3499913;0;
-4960.912;-2440.935;-865.7053;-6183.41;-10.90576;-13.54752;-4773.922;-2123.63;-0.1529685;-0.1547376;0;
23954.35;17644.39;-65.61219;24769.09;-7.143759;-4.290449;23674.97;12891.57;-0.0878474;0.3001893;0;
23590.75;15586.19;1166.334;25340.09;-6.333273;-6.429531;23219.88;11088.4;0.1071429;0.364855;0;
21928.75;14910.86;3407.785;23404.7;-3.982385;0.8778859;21587.53;10702.7;0.1720026;0.0396517;0;
25610.52;17706.78;5313.839;27181.49;-4.58062;-10.50985;25234.21;12926.39;0.4966665;-0.02535548;0;
10597.57;7638.739;5481.413;11211.16;-3.169498;-16.7955;10353.79;5319.387;0.6261021;0.2345394;0;
-24018.17;-17880.66;4616.743;-24812.75;-8.458575;-16.37679;-23823.11;-13387.54;-0.2191025;0.299271;0;
-27710.03;-19423.66;3235.858;-29177.39;-10.92832;-22.8575;-27340.08;-13774.37;-0.6086864;0.1690357;0;
-22509.02;-15222.73;1126.728;-23811.23;-16.61077;-15.39961;-22161.54;-10238.58;-0.2182707;-0.02603623;0;
-30743.39;-22707.82;-685.6188;-32191.33;-24.89947;-12.10203;-30268.12;-16660.92;-0.0881167;-0.02601007;0;
-4572.435;-2066.599;-849.7533;-5808.4;-17.57344;-13.1616;-4390.358;-1882.227;0.04190652;-0.220886;0;
23902.65;17573.22;-68.979;24725.36;-12.1298;-10.33515;23620.37;12804.84;0.3667011;-0.1556967;0;
23484.84;15485.71;1150.04;25242.19;-20.15556;-12.87006;23114.16;11000.97;0.1064633;0.1692965;0;
21859.31;14837.78;3364.208;23343.04;-25.42757;-13.79488;21517.54;10620.98;-0.02357836;0.2340937;0;
25484.16;17585.11;5257.438;27046.29;-15.01954;-11.9055;25108.83;12808.64;0.1713473;0.1688912;0;
10364.44;7479.804;5434.375;10924.19;-7.36864;-10.48696;10128.54;5240.536;0.3660772;0.1037541;0;
-24599.38;-18408.89;4561.476;-25419.5;-10.57642;-13.22266;-24388.07;-13802.36;0.4956441;0.1036499;0;
-28008.45;-19720.76;3169.902;-29458.65;-9.627785;-17.29521;-27620.46;-14102.02;-0.08956005;0.03857837;0;
-22315.5;-15020.48;1054.904;-23617.97;-7.474657;-11.45044;-21956.04;-10131.87;-0.4143068;-0.3512644;0;
-31002.12;-22958.25;-786.4812;-32439.1;-9.208459;-8.223875;-30520.51;-16810.66;0.04088093;-0.3509115;0;
-5055.354;-2527.236;-964.4917;-6261.15;-2.032886;-11.49765;-4867.61;-2164.434;0.2357419;0.03924515;0;
23904.14;17585.6;-173.8414;24733.44;2.457135;-9.677622;23624.77;12845.77;0.1055703;0.2990751;0;
23525.11;15525.85;1038.599;25279.64;-0.5594438;-16.16512;23155.62;11018.4;0.1704316;0.1038726;0;
21780.73;14755.24;3239.698;23257.93;3.861748;-21.50733;21439.33;10551.8;-0.2195437;-0.2860359;0;
25520.19;17628.18;5124.088;27092.42;-11.41375;-17.53385;25145.63;12844.29;-0.2842905;0.03908825;0;
10149.65;7351.653;5283.638;10776.22;-26.13804;-17.91813;9913.524;5042.249;0.0408319;0.1689837;0;
-24837.06;-18580.73;4394.023;-25626.4;-13.78692;-14.61802;-24627.86;-14047.94;0.1707256;-0.0910555;0;
-27884.47;-19592.7;3010.239;-29358.2;-10.75896;-11.85709;-27481.76;-13999.33;0.4953907;0.103938;0;
-22377.38;-15068.08;911.4865;-23664.76;-13.09267;-10.37162;-21992.89;-10177.71;0.4299256;0.363703;0;
-31020.86;-22970.61;-918.3226;-32455.95;-9.462192;-6.878142;-30528.93;-16856.9;0.2345916;0.1034681;0;
-4814.866;-2251.778;-1087.986;-6062.115;-15.07974;-7.808992;-4625.182;-1982.509;0.1693885;-0.02657053;0;
23879.35;17606.38;-304.8327;24689.71;-19.15042;-7.064333;23602.25;12832.41;-0.09065104;0.1683582;0;
23540.2;15525.65;899.3684;25299.33;-11.96388;-7.660081;23170.55;11031.78;0.2992441;-0.1566477;0;
21964.33;14949.42;3096.266;23436.99;-10.34427;-10.59957;21624.38;10740.18;0.1690087;-0.2214576;0;
25714.17;17810;4978.114;27286.76;-6.046971;-5.766273;25339.15;13028.18;-0.3508998;0.1036016;0;
10730;7766.427;5150.835;11372.73;-0.4148167;-2.880213;10486.03;5426.781;-0.02571053;-0.02643717;0;
-24148.12;-18001.96;4261.354;-24927.11;-5.571964;-7.164165;-23943.27;-13536.33;-0.02568469;0.1035241;0;
-27562.61;-19261.98;2846.438;-29037.75;-6.169578;-7.290933;-27175.45;-13759.17;-0.4154629;0.2333547;0;
-22294.42;-14993.63;713.3356;-23591.83;-9.243861;-12.50815;-21942.82;-10187.96;-0.5449802;0.03821823;0;
-31248.93;-23206.93;-1134.859;-32678.59;-13.11934;-17.65315;-30772.89;-17058.13;-0.3495305;0.1031472;0;
-5059.573;-2563.276;-1289.765;-6280.443;-12.03443;-14.68822;-4871.563;-2179.302;-0.08930996;-0.02689115;0;
23994.5;17656.2;-475.6277;24809.26;-14.03207;-15.27631;23714.32;12914.46;-0.02425288;-0.2217662;0;
23639.78;15638.81;742.9879;25383.62;-11.94186;-13.98829;23270.32;11130.23;-0.2840979;-0.4164453;0;
22009.88;14989.66;2954.879;23478.25;-9.316921;-13.10351;21669.2;10780.58;-0.4137471;-0.2211249;0;
25737.85;17836.47;4841.772;27308.5;-12.65744;-11.28181;25362.8;13050.47;-0.153462;0.2338687;0;
10590.95;7671.293;4997.233;11219;-14.9219;-7.519549;10351.38;5337.184;-0.2182751;0.1686664;0;
-24036.45;-17865.35;4107.657;-24828.21;-10.41892;-10.32522;-23832.36;-13394.02;-0.1530885;0.1035296;0;
-27515.41;-19222.25;2689.178;-28985.27;-7.796486;-9.310097;-27131.67;-13617.67;0.04196738;-0.1564438;0;
-22706.25;-15417.83;544.6147;-24006.27;-7.520233;-10.77437;-22342.51;-10458.42;0.04192521;-0.2862213;0;
-31151.41;-23105.6;-1284.545;-32598.84;-3.828981;-13.64368;-30655.42;-17004.03;0.3667198;0.1688377;0;
-4572.454;-2068.245;-1429.274;-5783.215;-10.32187;-6.462984;-4374.762;-1805.094;0.2364166;0.1037007;0;
24015.62;17673.89;-618.2138;24854.57;-19.01903;-3.710251;23737.54;12926.11;-0.4134943;0.03862913;0;
23559.66;15558.58;617.1617;25311.45;-6.006454;1.317075;23194.65;11054.33;-0.1532095;0.6232964;0;
22018.65;15001.39;2840.83;23497.01;1.97116;8.348716;21683.89;10794.66;-0.02312087;0.8175721;0;
25677.15;17777.46;4725.964;27246.49;-7.877434;4.656387;25304.68;12984.34;-0.3479343;0.03714252;0;
10334.33;7444.316;4888.568;10952.33;-11.0847;3.178084;10114.89;5209.838;-0.02274803;-0.1577968;0;
-24337.56;-18136.59;4014.812;-25129.12;-13.61916;8.46642;-24105.6;-13528.75;0.04224217;0.3621005;0;
-27096.98;-18821.2;2614.636;-28576.17;-16.7533;12.00801;-26714.55;-13470.74;0.1721344;0.1668346;0;
-21639.71;-14331.07;477.238;-22953.38;-20.01802;8.244899;-21283.44;-9684.754;0.1719614;0.03673228;0;
-30265.79;-22234.41;-1367.065;-31698.7;-24.08375;5.624402;-29768.22;-16178.1;-0.6078194;0.1016627;0;
-4048.898;-1709.559;-1515.772;-5211.993;-21.98344;8.164102;-3853.504;-1534.335;-0.6072087;-0.1583088;0;
24316.15;17884.73;-704.4996;25183.09;-19.48311;8.356726;24039.44;13094.99;0.04307484;-0.02821506;0;
23726.05;15743.83;515.3455;25473.51;-24.2863;8.281345;23358.87;11257.68;-0.2168378;0.03678064;0;
22202.49;15185.05;2740.396;23677.5;-30.82598;8.473973;21864.36;10971.41;-0.2166199;0.101711;0;
25945.54;18042.78;4642.092;27524.56;-16.26032;7.728768;25571.17;13257.5;0.1734018;0.2315435;0;
10794.15;7859.263;4804.656;11453.17;-5.795133;7.587037;10556.46;5515.605;0.1082602;0.1663435;0;
-23525.2;-17353.89;3903.872;-24288.39;-12.01762;7.177516;-23310.86;-12864.79;0.04318408;0.2311437;0;
-26514.05;-18237.36;2465.671;-27993.44;-9.996794;7.77315;-26138.3;-12939.21;-0.3466634;0.1009768;0;
-21665.22;-14347.59;308.9634;-22978.3;-13.93886;5.286971;-21316.23;-9728.789;-0.6061844;0.1658427;0;
-29774.18;-21780.29;-1507.262;-31236.38;-17.5412;1.664702;-29291.92;-15838.42;-0.2807386;0.4255454;0;
-3097.544;-917.3606;-1624.86;-4289.568;-15.11268;7.289474;-2927.301;-977.4379;-0.08555447;0.2951831;0;
24587.67;18077.7;-814.1964;25457.87;-15.69973;10.69816;24300.67;13239.4;0.1744009;0.03501713;0;
23826.18;15865.14;428.9972;25574.22;-13.60785;8.142056;23461.03;11403.2;0.1742256;0.03498195;0;
22492.15;15466.98;2672.469;23957.12;-11.85287;9.071636;22153.21;11238.76;0.04411587;0.0349468;0;
26057.07;18154.72;4542.499;27643.62;-10.56816;7.053154;25684.91;13387.06;0.1740062;0.2298137;0;
11101.61;8163.871;4680.738;11789.98;-9.418465;6.376238;10853.75;5636.674;-0.02107064;0.09964812;0;
-22809.25;-16635.98;3778.142;-23576.31;-6.663311;6.436814;-22614.18;-12371.03;-0.5407882;-0.2252887;0;
-25609.34;-17327.03;2332.821;-27109.57;-7.3262;5.760517;-25237.51;-12212.71;-0.4752775;0.03480701;0;
-20628.52;-13264.19;168.9069;-21931.11;1.321349;7.563268;-20278.22;-8838.314;0.3697755;0.2296741;0;
-28933.17;-20977.77;-1662.108;-30371.71;13.10902;6.282993;-28458.12;-15047.17;0.369404;0.2944106;0;
-2681.511;-732.9538;-1783.236;-3852.283;-4.118158;13.17568;-2516.576;-761.1434;-0.54051;-0.09568925;0;
24836.51;18221.1;-941.9597;25713.96;-14.76394;18.32;24550.83;13377.09;-0.2800975;-0.2904951;0;
23995.38;16065.15;317.8853;25753.23;-7.314366;16.69413;23629.35;11601.24;0.3698573;0.2295355;0;
22627.76;15596.79;2561.781;24095.27;-7.910229;20.16034;22288.28;11379.6;0.1745837;0.03440283;0;
26217.26;18310.83;4438.169;27806.67;-7.767583;13.77683;25844.43;13533.01;0.1094409;-0.3554358;0;
11412.09;8401.058;4563.457;12150;-7.759778;9.677149;11152.02;5850.314;0.3692003;-0.225144;0;
-21901.21;-15781.98;3646.674;-22636.63;-5.207361;10.47122;-21721.9;-11556.79;0.4337967;-0.09498305;0;
-24648.89;-16341.48;2188.022;-26150.41;0.08915664;6.910725;-24289.5;-11480.86;0.1734914;-0.02992027;0;
-20203.83;-12823.13;-3.200867;-21520.09;-5.403289;11.65945;-19856.98;-8597.973;0.2382845;-0.1598249;0;
-28155.3;-20198.34;-1826.734;-29647.27;-8.277272;14.19296;-27683.23;-14467.41;0.3679797;-0.1596643;0;
-1773.542;118.4849;-1928.144;-2959.616;-3.714604;13.10697;-1628.808;-282.7144;-0.02219408;0.03539816;0;
24994.18;18331.4;-1102.667;25897.09;-6.724981;14.03156;24696.83;13411.44;-0.08713912;-0.02960475;0;
23971.78;16050.74;156.4804;25725.53;5.539287;14.62031;23607.68;11637.95;0.2377851;-0.09454234;0;
22780.14;15747.6;2413.064;24241.04;18.46082;17.15097;22437.7;11504.43;0.1725789;-0.02948;0;
26318.45;18412.99;4273.984;27912.46;3.70651;12.11014;25944.13;13651.88;-0.2823659;-0.4192544;0;
11468.36;8459.079;4381.977;12209.59;-0.9189146;6.404546;11205.29;5903.628;-0.2171149;-0.3538658;0;
-21718.41;-15604.17;3455.006;-22469.62;-2.994096;13.76599;-21543.44;-11386.1;0.04297266;0.03629379;0;
-24107.92;-15798.69;1990.269;-25640.89;-11.83235;17.77113;-23753.81;-11131.39;-0.3468746;-0.1586447;0;
-19442.49;-12041.32;-197.0074;-20776.81;-2.175891;13.26542;-19109.7;-8020.03;-0.2165913;-0.4183547;0;
-27622.34;-19699.97;-2025.234;-29110.31;2.850137;13.18511;-27160.01;-13909.96;0.108463;-0.2230323;0;
-1517.681;239.4831;-2125.32;-2676.664;-2.712432;9.420938;-1372.039;-91.79679;-0.02158067;-0.02790614;0;
25200.96;18474.95;-1288.729;26117.46;-1.235838;3.584078;24904.38;13562.71;0.2383104;0.361926;0;
24118.73;16212.89;-37.64008;25859.49;-5.722575;10.34563;23753.6;11792.62;0.1731036;0.6214316;0;
22862.04;15825.88;2216.421;24319.17;-8.797308;14.42107;22519.98;11595.92;-0.2818418;0.4259052;0;
26368.04;18466.28;4095.873;27963.1;-5.104773;8.244274;25994.25;13695.19;-0.4114932;0.1656079;0;
11515.5;8531.603;4214.415;12254.63;-6.506163;5.958693;11249.65;5940.254;-0.1512104;-0.02946054;0;
-21212.29;-15069.61;3303.073;-21977.25;1.136185;5.282876;-21039.69;-10908.58;0.3686803;0.1005038;0;
-23216.82;-14921.89;1872.472;-24768.72;5.689394;3.602994;-22856.58;-10533.77;0.1734078;-0.09449926;0;
-18605.61;-11148.95;-287.8558;-19947.8;6.755404;3.264459;-18256.92;-7373.25;-0.08663581;-0.4842083;0;
-26136.98;-18313.59;-2099.125;-27630.23;12.10725;2.658333;-25672.43;-12863;-0.08654875;-0.4187545;0;
79.03798;1408.126;-2202.681;-1040.228;4.92779;1.450091;206.0293;554.3585;-0.1514291;-0.483301;0;
25583.92;18664.12;-1381.614;26556.52;3.115153;-0.627837;25279.81;13674.24;-0.02134229;-0.2229461;0;
24148.19;16302.68;-114.0965;25891.52;-1.778097;1.985128;23786.3;11953.07;-0.08628819;-0.09278737;0;
23053.62;16002.24;2156.908;24511.19;-9.21105;3.389653;22710.87;11738.65;-0.4110382;-0.5474655;0;
26391.31;18490.31;4029.455;27989.56;-2.370267;2.582574;26017.55;13749.5;-0.2806905;-0.2220787;0;
11689.39;8701.264;4154.81;12408.47;-0.2908047;4.790294;11423.98;6010.921;-0.08550643;-0.02695355;0;
-20990.09;-14860.09;3248.869;-21769.55;0.1106531;-1.041913;-20820.72;-10800.53;-0.2803226;-0.3517632;0;
-22955.33;-14655.26;1802.705;-24547.59;0.9148251;-5.863515;-22609.11;-10380.76;-0.4099756;-0.221475;0;
-18168.35;-10719.1;-363.5184;-19554.65;5.200814;-1.16894;-17832.04;-7084.433;-0.3445963;0.03861687;0;
-26064.07;-18215.87;-2181.473;-27547.51;8.745562;1.511552;-25588.31;-12708.64;-0.2792827;-0.02638928;0;
-177.7995;1206.372;-2299.737;-1300.179;8.870496;-1.30325;-30.79592;460.4075;-0.2140347;-0.2212648;0;
25555.8;18660.76;-1463.97;26502.32;12.14411;-1.904787;25255.35;13675.36;0.1759844;0.03882691;0;
24160.28;16311.71;-181.8612;25904.29;5.83527;0.7094615;23795.1;11964.38;0.1758076;0.3636246;0;
23008.38;15957.87;2084.776;24461.04;1.877292;0.8427144;22666.67;11704.86;-0.2141731;-0.09151216;0;
26435.61;18538.98;3963.517;28031.42;1.674334;6.334346;26061.55;13794.31;-0.1489906;-0.02645287;0;
11495.65;8542.665;4082.847;12257.23;-0.8719673;9.810972;11239.93;5945.714;0.04606115;0.2984104;0;
-21223.63;-15052.67;3166.61;-21961.33;-1.004813;11.74362;-21041.04;-10926.77;-0.1488872;-0.02672613;0;
-22903.42;-14594.29;1731.273;-24483.42;-3.616748;16.48748;-22553.5;-10360.38;-0.2786722;-0.156634;0;
-18259.77;-10806.14;-426.6329;-19639.77;0.2052795;11.84922;-17917.03;-7130.915;0.1763792;0.03842545;0;
-26208.31;-18358.7;-2228.861;-27704.94;1.677966;11.77033;-25744.07;-12859.76;0.1112346;-0.09154784;0;
-137.1003;1231.298;-2335.769;-1275.047;3.28387;7.136802;-17.60324;396.6484;-0.4086159;-0.2213905;0;
25442.41;18531.29;-1517.301;26392.2;8.572832;-0.5063018;25138.39;13554;-0.4731727;0.2336033;0;
23960.47;16120.07;-238.3407;25707.22;1.329573;9.139505;23599.49;11785.38;-0.2777952;0.5582053;0;
22903.01;15852.61;2025.667;24357.99;-0.0109332;12.68042;22561.41;11590.02;-0.2125487;0.2328077;0;
26311.91;18421.99;3879.105;27911.2;-3.226103;13.2704;25942.94;13695.46;-0.01743313;0.1676064;0;
11374.42;8464.991;4001.332;12139.6;-11.12709;18.74954;11102.8;5829.344;0.5672905;0.1024707;0;
-21313.5;-15129.19;3113.006;-22056.74;1.276298;12.6355;-21149.62;-11032.04;0.2418837;-0.1575017;0;
-23091.68;-14789.98;1703.491;-24706.02;6.63365;9.273659;-22750.79;-10536.54;-0.4730001;-0.4172128;0;
-18698.88;-11270.71;-434.3034;-20106.93;6.559635;13.48414;-18387.14;-7643.217;0.04721393;-0.7416303;0;
-26832.93;-18945.19;-2239.084;-28307.8;10.37046;13.33663;-26374.79;-13366.72;0.4369705;-0.4160483;0;
-647.7425;898.9578;-2353.339;-1751.845;8.953522;16.2035;-500.6768;247.266;-0.08320726;0.03914108;0;
25245.61;18420.84;-1533.651;26206.91;14.57158;19.06736;24945.77;13448.83;-0.01815631;0.1690364;0;
23855.9;15992.14;-264.1687;25606.24;1.093002;15.9671;23492.92;11652.22;0.566568;0.1038993;0;
22677.1;15632.38;2007.361;24137.31;-11.96891;13.87459;22336.6;11381.62;0.241162;0.03882751;0;
26167.29;18278.68;3915.353;27760.34;2.577799;15.20031;25794.57;13545;-0.08391702;0.3636252;0;
11079.24;8181.503;4095.889;11806.29;6.862116;15.45297;10816.74;5632.486;0.5008734;0.1033905;0;
-22130.99;-15940.63;3222.866;-22893.74;7.190014;12.62416;-21957.77;-11737.41;0.5653374;-0.2215501;0;
-24062.46;-15765.42;1810.492;-25623.07;9.995829;11.20495;-23710.04;-11251.8;0.4348347;-0.1563602;0;
-19506.46;-12088.78;-311.355;-20851.89;10.92379;8.514376;-19167.46;-8171.002;0.3044631;-0.2861378;0;
-27413.37;-19503.09;-2096.036;-28877.76;13.72585;6.831369;-26942;-13838.39;-0.02067954;-0.2208829;0;
-932.1478;702.4377;-2203.609;-2052.826;10.16209;5.216914;-789.2675;134.4185;0.1092759;-0.09072626;0;
25150.38;18356.94;-1377.449;26096.26;7.607257;3.403133;24849.7;13419.5;0.2391008;-0.1556024;0;
23774.23;15900.87;-91.13297;25517.58;6.460537;5.878082;23411.29;11543;0.04395853;-0.2853808;0;
22586.35;15544.28;2194.622;24050.9;4.511663;6.943902;22245.52;11305.54;0.1088817;-0.1551593;0;
26093.77;18209.19;4105.799;27686.46;0.3539437;9.348189;25719.46;13467.65;0.1087723;0.1048659;0;
10772.95;7927.805;4285.769;11491.17;-2.25838;9.673711;10505.88;5452.876;0.303565;-0.2200761;0;
-22523.17;-16299.27;3419.77;-23287.98;-5.33757;15.55837;-22355.95;-12034.33;0.4331947;-0.02495299;0;
-24224.7;-15933.58;2032.655;-25800.51;-8.480039;20.23142;-23873.12;-11419.34;-0.216914;0.2999088;0;
-19859.76;-12447.36;-61.05525;-21227.15;-7.132347;17.26396;-19517.57;-8466.25;0.04317332;-0.02522927;0;
-27954.73;-20043.03;-1840.506;-29430.11;-9.201285;18.65313;-27488.22;-14276.88;0.432934;-0.3500406;0;
-1165.201;512.9888;-1956.035;-2302.079;-2.761678;11.13255;-1026.564;34.02869;-0.02227242;-0.6095582;0;
25090.45;18323.54;-1135.543;26030.48;0.4562773;6.298711;24792.02;13403.34;-0.08721738;-0.3490764;0;
23649.18;15773.68;145.8292;25393.5;5.546034;2.07258;23286.82;11401.46;-0.2170644;0.04107838;0;
22494.85;15452.76;2435.969;23956.85;19.13812;-5.029572;22152.87;11233.26;-0.4767157;0.2359391;0;
26033.7;18158.73;4352.682;27610.51;2.104979;-3.082013;25659.26;13406.7;0.1734367;0.4955714;0;
10520.59;7767.633;4516.754;11181.43;-4.862385;-6.562029;10268.02;5335.388;0.4980992;0.1052694;0;
-22688.95;-16382.46;3631.721;-23503.92;1.974028;-2.000718;-22501.32;-12083.19;0.3026966;-0.02477103;0;
-23924.98;-15645.23;2234.616;-25503.92;-3.11817;2.55601;-23576.21;-11293.52;0.2374252;0.3000906;0;
-19428.07;-11986.92;131.3956;-20802.38;15.43814;-2.33619;-19096.24;-8163.658;0.3671213;-0.3498844;0;
-27379.12;-19491.19;-1620.075;-28865.25;21.71926;-0.1903891;-26913.74;-13856.84;0.4966871;-0.4794675;0;
-554.6554;938.0222;-1696.408;-1660.901;37.10278;-7.759086;-421.7635;285.7321;-0.08851807;0.235655;0;
25218.57;18355.07;-888.2961;26187.61;59.70549;-13.31075;24913.41;13406.47;-0.3482985;0.1054836;0;
23643.07;15794;376.5862;25381.99;36.87179;-10.55114;23278.95;11453.29;0.3017249;0.04041023;0;
22614.34;15564.94;2648.534;24073.1;29.80214;-13.42074;22271.93;11324.23;0.2364544;0.105337;0;
26035.67;18164.52;4511.373;27619.16;26.02115;-6.240264;25661.32;13430.01;-0.02365258;-0.02470356;0;
10396.62;7655.995;4634.401;11053.3;14.47443;-0.1386694;10135.98;5258.052;0.1063059;-0.08964608;0;
-22974.15;-16669.44;3727.635;-23791.25;20.21968;-3.822469;-22796.79;-12337.2;0.1711664;-0.089556;0;
-24562.7;-16283.58;2293.421;-26109.42;19.32871;-5.560185;-24211.71;-11720.17;0.3009291;-0.08946602;0;
-20234.13;-12813.6;149.974;-21577.43;16.62997;0.473744;-19896.29;-8747.743;0.170692;-0.1543435;0;
-27833.74;-19938.15;-1619.1;-29315.44;12.52743;5.697815;-27367.49;-14270.61;-0.2842509;-0.0242537;0;
-642.6256;889.7216;-1694.684;-1743.409;19.34734;0.06564521;-507.8023;246.5174;-0.4138999;0.23564;0;
25212.82;18356;-881.0146;26188.62;23.48011;-0.2023525;24910.71;13427;-0.218582;0.2354033;0;
23625.33;15771.92;391.2628;25373.43;18.43365;-4.488935;23262.12;11422.22;0.1064743;-0.02470263;0;
22621.06;15576.28;2669.849;24089.24;15.1326;-9.374057;22280.37;11345.71;-0.02356735;0.1052569;0;
25965.88;18095.82;4540.881;27554.39;14.17939;-3.805176;25593.32;13362.63;-0.08851101;0.4299878;0;
10338.78;7628.983;4685.493;11017.24;19.92592;-1.992935;10084.2;5268.44;0.3663493;0.03975172;0;
-22558.91;-16227.62;3804.507;-23353.11;-8.896031;1.090282;-22376.37;-11858.68;0.1710792;-0.02525557;0;
-23793.36;-15522;2374.62;-25349.11;-32.86625;3.03157;-23451.12;-11036.69;0.1059399;0.1047045;0;
-19429.93;-11985;212.7254;-20787.45;-21.17893;10.12859;-19099.15;-8012.257;0.3007355;0.03963194;0;
-27225.85;-19353.23;-1578.916;-28705.65;-21.96095;17.1515;-26755.94;-13654.07;0.1055313;-0.02537522;0;
-440.7277;990.526;-1661.178;-1539.09;-24.55183;15.32573;-306.0744;401.6697;0.1054253;-0.1552844;0;
25310.76;18429.26;-851.4775;26282.41;-22.65115;15.91317;25006.42;13506.71;-0.2195174;-0.09016103;0;
23742.55;15900.38;414.2735;25483.25;-20.35122;16.76796;23378.97;11547.13;-0.2842641;-0.1550378;0;
22739.08;15690.82;2703.738;24197.46;-13.0971;17.62177;22396.84;11471.62;0.0408582;-0.02494732;0;
26174.09;18302.65;4564.521;27764.63;-11.47635;12.04473;25800.77;13566.93;0.1057845;0.3648818;0;
10641.21;7879.444;4673.565;11336.46;-7.043211;6.205229;10375.42;5428.865;0.6254169;0.03967845;0;
-22045.94;-15745.66;3772.789;-22847.24;1.135539;7.605514;-21878.67;-11477.53;0.5598212;-0.2202308;0;
-23632.2;-15350.1;2310.356;-25189.78;0.06267136;6.660233;-23276.63;-10841.72;-0.02544742;0.1697946;0;
-19822.34;-12371.15;112.2944;-21164;25.78308;3.036462;-19471.26;-8326.194;0.2344475;0.2345913;0;
-27005.8;-19157.42;-1680.292;-28507.08;47.66022;1.024045;-26548.3;-13616.59;0.1042773;0.3642903;0;
224.4753;1573.118;-1759.517;-888.2245;35.35482;-1.18742;340.0881;725.0031;-0.2856316;0.3639242;0;
25426.11;18504.24;-957.2291;26412.01;37.66383;-4.736201;25121.63;13566.46;0.1044595;-0.09121285;0;
23789.33;15957.83;311.4081;25532.21;27.84672;-1.583366;23428.15;11629.06;0.2992565;-0.2210559;0;
22945.49;15898.57;2598.164;24403.31;14.55587;-0.4430651;22602.72;11666.95;0.2339885;-0.3507684;0;
26208.61;18334.67;4434.286;27805.37;21.90961;-2.05021;25836.1;13619.66;0.1038187;-0.155514;0;
10915.3;8135.725;4521.222;11619;20.28001;-1.713236;10650.45;5548.381;-0.02622029;-0.02542302;0;
-21410.02;-15112.3;3601.389;-22210.8;14.83364;-4.524675;-21240.15;-11018.26;0.0387734;-0.09036482;0;
-23024.8;-14741.26;2128.103;-24600.41;10.46546;-4.051249;-22678.26;-10354.52;-0.2861023;0.4944321;0;
-19316.81;-11854.66;-53.62771;-20678.09;9.784382;-11.08026;-18980.07;-7908.072;-0.2858148;0.2340659;0;
-26751.82;-18930;-1830.556;-28238.79;10.64618;-17.90121;-26279.71;-13316.37;-0.09062558;-0.1559734;0;
208.1892;1440.169;-1893.762;-873.4736;4.406195;-12.65867;347.7147;713.5879;-0.02556718;-0.02588196;0;
25442.73;18471.54;-1064.884;26433.76;1.655101;-11.44032;25140.04;13546.03;-0.02554149;-0.2857253;0;
23798.89;15988.85;213.138;25537.62;2.05558;-11.36184;23435.49;11652.24;-0.3503525;-0.1555035;0;
22875.55;15821.49;2495.901;24338.25;0.9144387;-10.54663;22534.16;11608.25;-0.1550985;-0.09037994;0;
26183.55;18314.89;4329.064;27775.98;5.53522;-7.253931;25810.08;13589.08;-0.02500794;-0.1552565;0;
10761.12;7996.527;4415.575;11451.46;9.950288;-2.825952;10499.06;5465.522;-0.4797542;0.1697363;0;
-21501.69;-15199.31;3510.497;-22313.86;9.940289;-5.10041;-21328.29;-11065.73;-0.4792722;-0.2202384;0;
-22719.43;-14433.24;2046.142;-24310.44;9.126994;-5.497182;-22373.32;-10273.34;-0.08898652;-0.4149191;0;
-18940.83;-11464.64;-141.347;-20319.29;18.02643;-4.285966;-18604.12;-7729.591;-0.02392977;-0.2845675;0;
-26212.04;-18391.48;-1913.08;-27711.72;24.10389;-6.626062;-25754.57;-12974.23;-0.4137098;-0.1543469;0;
820.7703;2008.724;-1972.861;-258.9438;23.94497;-1.327875;933.5624;998.1952;-0.2833594;0.365547;0;
25610.61;18615.08;-1134.768;26611.17;30.88713;3.228177;25300.97;13660.87;0.1067294;0.5600817;0;
23854.75;16049.26;167.7809;25591.13;18.93338;-2.267545;23493.71;11747.37;0.0416548;0.1697149;0;
23022.57;15971.57;2457.336;24477.15;10.67533;-0.5906935;22679.73;11740.45;-0.1532891;-0.1552924;0;
26278.04;18407.34;4281.012;27875.54;13.81342;-9.029766;25907.28;13701.32;-0.08816772;-0.09016901;0;
11051.84;8246.144;4369.132;11765.79;3.885574;-17.99616;10780.63;5613.814;0.3666923;0.2997257;0;
-21050.76;-14775.82;3465.32;-21857.59;22.70424;-7.595969;-20889.05;-10752.42;0.3013565;0.2994245;0;
-22299.23;-13992.64;1996.918;-23906.36;38.28784;-6.181756;-21949.88;-10000.39;-0.3486198;0.1691889;0;
-18552.75;-11075.01;-192.1146;-19935.74;21.70495;2.1972;-18216.73;-7509.229;-0.08840009;0.1040516;0;
-26216.45;-18376.65;-1968.154;-27694.53;21.14728;13.84966;-25758.07;-12800.24;0.04162342;0.2338817;0;
546.16;1788.395;-2014.761;-482.4008;11.68156;6.19993;667.8268;984.5278;-0.5431245;-0.02622266;0;
25624.29;18646.92;-1155.215;26656.47;0.2156152;5.523871;25315.75;13693.92;-0.2827094;-0.2210983;0;
23922.4;16107.31;161.3163;25656.87;10.66522;8.599413;23561.46;11797.71;0.4971828;0.3638299;0;
23028.47;15985.19;2466.37;24487.02;12.99903;5.97856;22688.67;11770.18;0.3667485;0.493399;0;
26347.57;18472.4;4284.946;27945.87;14.59258;15.61785;25976.16;13760.97;-0.02342403;-0.09180284;0;
11078.9;8248.63;4336.394;11789.61;17.59301;23.57288;10805.38;5610.981;-0.1533352;-0.09171059;0;
-20577.17;-14316.23;3408.781;-21391.94;20.45474;15.57847;-20427.9;-10348.61;0.04172092;0.1032836;0;
-21675.62;-13390.5;1931.66;-23311.48;23.78407;11.87888;-21348.73;-9431.944;0.236581;0.1031798;0;
-18619.44;-11128.52;-278.3902;-20014.45;25.23306;13.67536;-18292.96;-7517.456;0.04144128;0.1680435;0;
-26019.99;-18238.18;-2045.706;-27500.15;26.27943;11.71924;-25565.55;-12867.21;-0.08853504;-0.1569621;0;
1179.81;2222.415;-2088.878;129.5484;28.99969;12.77907;1291.712;1113.87;0.1064559;-0.02686969;0;
25673.7;18613.36;-1257.493;26700.84;36.4053;14.64175;25363.03;13654.95;-0.08855305;0.2330267;0;
23873.89;16096.06;69.26059;25610.03;20.82868;7.794899;23511.98;11810.55;-0.4782681;-0.2219789;0;
23202.87;16145.74;2387.182;24661.79;9.019727;3.232349;22860.06;11921.61;-0.3478529;-0.4166578;0;
26352.26;18490.32;4192.5;27954.6;17.7182;5.104623;25979.65;13789.18;0.0423007;-0.09140247;0;
10939.23;8203.164;4240.511;11642.33;15.02108;5.032511;10666.2;5538.032;0.3670949;-0.156278;0;
-20775.56;-14453.19;3311.121;-21589.38;23.51245;4.491591;-20621.37;-10506.67;0.1068567;-0.6108923;0;
-21480.96;-13188.6;1855.712;-23145.45;31.6605;3.080436;-21147.89;-9472.319;-0.2830547;-0.8051805;0;
-17820.22;-10314;-308.2225;-19270.75;25.66684;7.096317;-17490.36;-6965.197;-0.2827703;-0.4145674;0;
-25587.82;-17759.53;-2080.256;-27089.63;25.90947;9.433467;-25138.79;-12301.5;-0.2824862;-0.2192488;0;
929.868;2063.889;-2150.708;-141.4303;23.80733;9.22304;1036.51;1100.165;-0.412137;-0.08909386;0;
25585.3;18570.55;-1307.204;26588.99;20.9694;11.42421;25276.08;13614.58;-0.3467556;0.170865;0;
23790.75;16001.56;6.746653;25530.36;20.07767;6.724046;23429.32;11720.88;0.0433969;-0.08917603;0;
22854.29;15804.42;2305.428;24312.59;17.44553;4.372888;22511.85;11583.18;-0.02161405;-0.4139231;0;
26202.63;18346.28;4142.375;27795.44;16.08883;2.292023;25830.05;13638.52;-0.2164944;-0.08867051;0;
10624.25;7917.925;4220.515;11344.97;16.60852;-0.1215439;10360.22;5372.57;-0.4761462;-0.1535488;0;
-21212.4;-14852.17;3318.35;-22004.36;9.960404;-1.059183;-21045.14;-10783.69;-0.6705698;-0.2183618;0;
-21601.15;-13314.21;1883.61;-23267.78;5.998281;-2.799675;-21273.04;-9520.785;-0.2151246;0.3015963;0;
-18119.06;-10591.46;-286.9733;-19576.24;7.197702;-0.9213396;-17797.17;-7137.927;0.1099283;0.1713586;0;
-25552.59;-17779.75;-2041.443;-27051.8;3.841568;-1.188346;-25104.76;-12441.24;0.04485047;0.04125174;0;
1508.622;2432.669;-2094.208;469.2321;13.81804;3.903429;1609.312;1263.845;-0.1500966;-0.02375705;0;
25642.35;18527.88;-1267.487;26674.42;21.2389;7.851378;25328.87;13560.69;-0.2798805;-0.4135372;0;
23651.43;15898.27;57.85496;25383.97;21.35128;8.178404;23290.49;11643.65;0.1102048;-0.2182197;0;
22997.29;15933.81;2365.418;24446.72;28.02861;10.51459;22653.66;11702.15;-0.2147426;-0.02309839;0;
26146.7;18299.5;4175.13;27740.2;21.7038;8.896433;25771.99;13612.09;-0.4094289;-0.08804252;0;
10341.16;7715.419;4248.553;11050.96;15.98857;9.825255;10077.36;5189.846;0.3056233;-0.2178887;0;
-21565.07;-15161.68;3338.645;-22370.34;23.80938;4.389887;-21396.31;-11058.14;0.3702835;-0.1527025;0;
-22167.26;-13881.79;1885.738;-23786.11;23.98653;-0.6381218;-21829.88;-9927.109;0.1100421;0.1722877;0;
-18785.13;-11271.16;-279.0699;-20174.15;26.84282;0.8361439;-18441.34;-7658.052;-0.08497052;0.2370819;0;
-26173.66;-18355.17;-2028.332;-27661.22;33.37993;-1.977979;-25703.6;-12844.36;0.04504954;0.2368437;0;
1001.307;2073.495;-2066.305;-39.72949;19.0118;0.7703083;1115.227;1128.393;0.4997757;0.2366057;0;
25565.11;18519.72;-1220.356;26598.58;9.481849;2.31002;25256.85;13583.11;0.3693388;0.1714006;0;
23696.75;15921.22;75.84426;25429.05;13.28974;1.370059;23338.31;11646.69;-0.02083636;0.3661304;0;
22841.91;15788.6;2347.626;24304.54;10.99921;3.378049;22502.17;11581.61;-0.4106195;0.2358279;0;
26121.67;18275.74;4164.603;27716.34;9.782708;-0.979114;25750.61;13577.26;-0.3452395;-0.02427848;0;
10249.39;7612.242;4243.189;10938.11;6.021834;-4.126206;9995.093;5187.078;0.04491141;0.04071326;0;
-21898.82;-15501.95;3338.847;-22711.53;11.50814;-2.313643;-21713.33;-11254.09;0.174801;0.170607;0;
-22356.4;-14078.05;1909.646;-23964.54;18.59652;-2.244335;-22014.9;-10052.58;0.5644294;0.3003703;0;
-18680.45;-11168.78;-237.9756;-20070.62;7.12461;-3.045875;-18348.04;-7531.558;0.1740582;0.1051665;0;
-25789.69;-18011.6;-1975.535;-27275.68;2.362029;-2.841866;-25325.95;-12604.05;-0.3458554;0.04009344;0;
1358.438;2369.891;-2017.918;340.6062;3.565105;-3.441735;1473.741;1283.129;0.3691328;0.2999225;0;
25533.78;18479.83;-1184.246;26588.27;2.95831;-3.773191;25225.73;13533.79;0.3037946;0.2346538;0;
23602.77;15836.86;120.4761;25339;1.68254;-1.492102;23245.13;11567.49;0.1735546;-0.02545134;0;
22884.67;15830.38;2389.215;24348.4;-2.337639;0.3849193;22546.19;11632.09;0.1084129;-0.0903931;0;
26076.03;18231.84;4188.658;27671.56;7.376625;1.389277;25706.56;13532.05;-0.2165327;0.2345344;0;
10271.91;7640.539;4286.585;10969.27;13.46478;2.124571;10020.9;5148.129;0.1085216;0.1043641;0;
-21435.79;-15027.23;3403.126;-22243.3;13.25018;5.806497;-21253.11;-10885;0.1084125;-0.02567546;0;
-21701.73;-13422.2;1967.146;-23343.28;16.92056;8.814773;-21356.41;-9659.504;0.04333624;0.1692524;0;
-18426.11;-10884.29;-179.3465;-19842.24;15.63174;9.073848;-18080.32;-7446.64;0.2381947;0.493919;0;
-25700.12;-17932.76;-1916.933;-27193.21;18.69652;10.60534;-25248.92;-12548.56;-0.02191399;0.5583901;0;
1607.464;2497.826;-1962.187;567.2682;11.64513;10.05882;1700.261;1356.708;-0.1518266;-0.02687709;0;
25686.65;18569.96;-1138.534;26735.54;4.934649;9.914744;25377.12;13616.74;-0.2816088;-0.2217521;0;
23635.13;15888.7;141.5606;25375.51;10.75782;9.569867;23277.68;11643.19;-0.4112605;0.03834007;0;
22875.79;15815.25;2409.154;24334.35;9.004718;8.354559;22533.17;11605.64;-0.08601055;-0.09163313;0;
26117.2;18276.87;4224.381;27710.72;16.63246;9.015994;25744.85;13593.57;0.04401055;-0.3514104;0;
10265.75;7657.884;4308.874;10957.39;24.38528;8.270122;10008.38;5202.028;-0.08596835;-0.2211227;0;
-21752.39;-15333.37;3397.969;-22568.94;17.99776;9.13259;-21582.5;-11176.59;-0.2158167;0.1039363;0;
-22081.92;-13793.88;1947.938;-23720.58;16.37209;10.46307;-21751.91;-9975.773;-0.1506325;0.2337665;0;
-18701.77;-11166.34;-218.2757;-20112.83;15.41763;7.304361;-18364.63;-7643.042;0.04442092;0.7532703;0;
-25909.98;-18142.45;-1964.71;-27417.63;8.569636;5.890502;-25461.89;-12774.9;-0.3454278;0.8824481;0;
1533.722;2458.858;-2004.496;481.2565;16.7327;5.34872;1621.878;1285.793;-0.7348847;0.036986;0;
25591.13;18489.67;-1190.858;26637.84;25.15598;4.338602;25277.72;13540.28;-0.1494402;-0.4827899;0;
23488.86;15741.57;102.5012;25219.48;7.112416;4.669157;23131.16;11500.75;-0.01935539;-0.2874027;0;
22866.12;15804.05;2391.685;24326.84;1.746634;4.329551;22525.86;11602.47;0.0456314;-0.3520813;0;
25972.1;18142.69;4183.224;27561.43;-6.962658;5.597876;25601.98;13458.78;0.3704222;-0.02689084;0;
9800.493;7270.162;4252.89;10454.4;-19.68169;6.463029;9542.795;4904.406;0.3050827;-0.02686382;0;
-21827.96;-15350.93;3363.53;-22677.22;-6.065229;7.52814;-21652.23;-11094.06;0.1098741;-0.5465755;0;
-21813.81;-13545.75;1925.778;-23462.92;-4.049403;8.860234;-21483.72;-9706.511;-0.02017095;-0.2211896;0;
-18698.96;-11171.14;-234.3851;-20117.15;7.14045;8.516417;-18376.04;-7607.074;0.304686;0.2987714;0;
-25783.07;-18020.11;-1975.462;-27301.08;18.52013;7.503116;-25336.96;-12644.66;0.2394125;-0.02636558;0;
1741.299;2621.758;-2023.186;683.9977;19.6406;9.505064;1835.292;1422.465;-0.2155994;-0.2212411;0;
25626.82;18501.84;-1199.894;26677.65;30.06971;11.23707;25312.49;13564.95;-0.1504154;0.03885056;0;
23568.86;15828.29;111.9963;25305.49;20.59502;6.938871;23210.69;11594.6;-0.08529696;0.1037789;0;
22883.4;15822.35;2404.762;24341.63;17.02436;4.85555;22542.48;11621.72;-0.02024391;0.03870725;0;
26048.26;18217.85;4204.69;27642.5;16.33767;3.042132;25676.86;13546.15;0.1097111;-0.02629899;0;
10002.42;7458.067;4264.839;10702.63;8.484368;1.766522;9745.87;5061.611;-0.2802032;-0.4160766;0;
-21929.52;-15463;3350.48;-22723.89;17.6519;-0.4456901;-21747.63;-11242.38;-0.02005226;-0.1557892;0;
-22026.65;-13747.58;1907.618;-23657.28;19.24175;-3.325386;-21690.4;-9893.127;0.04493523;0.2341714;0;
-18612.31;-11082.21;-251.0269;-20027.32;22.50494;0.3618942;-18283.51;-7507.365;-0.1500119;0.2989035;0;
-25772.68;-18000.46;-1981.483;-27273.58;31.18987;0.4954965;-25308.09;-12568.98;-0.08489387;-0.02623359;0;
1605.52;2517.39;-2005.854;565.3329;18.7673;6.255409;1719.052;1400.231;-0.6045473;-0.3510439;0;
25572.17;18458.67;-1176.613;26624.87;12.4518;12.27734;25262.8;13518.62;-0.4740052;0.2340149;0;
23456.06;15717.92;140.064;25188.86;16.05661;9.049948;23099.91;11489.71;-0.2136595;0.3637144;0;
22849.35;15788.17;2451.074;24308.96;12.95902;9.442752;22509.77;11592.36;-0.2784122;0.1034796;0;
25947.25;18125.96;4246.801;27539.21;19.37636;9.366282;25576.66;13452.44;0.1116716;0.2982776;0;
9616.316;7142.692;4303.972;10274.83;25.7199;9.82575;9364.395;4809.979;0.1115594;0.03810856;0;
-22144.11;-15630.17;3396.664;-22975.33;17.58973;6.868629;-21965.82;-11339.02;-0.08345471;0.1030376;0;
-22440.62;-14168.39;1932.266;-24035.69;11.67756;3.177788;-22104.57;-10061.48;0.04656383;0.1029341;0;
-19507.59;-11971.08;-235.6804;-20876.24;20.90923;6.456758;-19166.79;-8113.94;0.1114844;-0.4169081;0;
-26106.82;-18361.68;-1937.744;-27608.05;27.58602;6.383287;-25637.7;-12980.95;0.241307;0.3631189;0;
1758.667;2634.712;-1935.922;712.9948;20.99422;7.24753;1873.452;1439.839;0.3709993;0.4277214;0;
25517.58;18410.41;-1092.775;26578.73;21.24154;7.374213;25208.54;13499.99;-0.1491122;-0.3523165;0;
23368.84;15636.16;229.503;25103.08;16.12901;9.175343;23010.8;11401.56;-0.08399507;0.2327436;0;
22743.33;15677.8;2544.265;24210.95;5.865026;13.72084;22406.01;11492.99;0.240926;0.2325098;0;
25903.83;18089.51;4344.708;27486.01;21.73396;6.272192;25535.71;13414.92;-0.08415276;-0.09256059;0;
9494.303;7059.837;4390.724;10099.82;31.15562;3.385624;9258.7;4777.468;0.04586648;0.1024345;0;
-22492.73;-15940.04;3476.113;-23353.66;20.94389;3.047307;-22282.19;-11567.7;-0.08411429;-0.1575378;0;
-22270.99;-14005.68;2022.131;-23856.35;16.23379;-1.510472;-21911.77;-9973.244;-0.01906243;0.1024898;0;
-18974.84;-11438.81;-153.2774;-20338.62;19.70011;6.461893;-18624.21;-7653.166;0.3057934;0.4272236;0;
-26024.51;-18267.71;-1877.288;-27507.54;25.57481;9.134595;-25551.33;-12783.67;0.1105841;-0.02797713;0;
1690.655;2515.727;-1873.059;683.5226;7.464452;14.01505;1803.869;1404.031;-0.279331;-0.222851;0;
25617.69;18459.43;-1015.451;26690.01;-5.671215;23.1104;25308.62;13536.75;-0.3440177;-0.09269244;0;
23432.68;15714.26;304.0942;25161.12;0.7648454;14.11171;23076.42;11484.57;-0.01883531;0.2322374;0;
22775.56;15708.57;2600.572;24236.76;-2.384731;10.74851;22438.07;11527.55;-0.2137184;-0.09283265;0;
25840.31;18035.8;4375.502;27429.2;4.115376;12.68009;25471.55;13364.46;-0.1485363;-0.3526087;0;
9129.969;6761.535;4411.929;9783.429;10.5416;8.916427;8876.258;4540.646;0.436319;0.1674843;0;
-22853.68;-16276.81;3491.894;-23688.66;7.716994;14.73486;-22681.68;-11852.04;-0.2787602;0.2972507;0;
-22585.9;-14323.89;2009.004;-24169.67;8.312453;17.6002;-22254.59;-10235.94;-0.5383494;-0.1578194;0;
-19323.12;-11778.99;-184.7256;-20682.53;12.65836;14.63539;-18984.24;-7953.84;0.2417996;-0.2875955;0;
-25846.44;-18088.34;-1897.21;-27359.82;16.79785;15.69241;-25398.05;-12773.94;0.1765893;-0.1573718;0;
2020.048;2885.975;-1890.494;988.2838;14.50379;10.72003;2104.75;1573.709;-0.08345751;-0.09224636;0;
25529.4;18404.32;-1044.987;26604.02;15.4936;7.89597;25214.96;13485.03;-0.08337365;0.1677157;0;
23360.81;15635.43;281.0843;25087.67;12.06275;7.419156;23004.01;11417.29;0.1116121;0.2974819;0;
22766.8;15702.22;2594.358;24229.95;8.299589;6.273113;22426.83;11512.78;0.2414347;0.1022809;0;
25923.73;18117.46;4369.545;27507.79;11.17164;4.860168;25554.15;13458.75;0.3061594;0.1021782;0;
9440.235;7056.57;4367.872;10070.86;9.351751;-0.972108;9181.693;4719.235;0.5007538;0.1670428;0;
-22666.1;-16095.87;3405.246;-23529.07;13.22712;12.09017;-22482.11;-11797;0.175414;0.1019076;0;
-22320.75;-14053.01;1926.316;-23961.6;14.01714;23.19695;-21977.79;-10094.67;0.1102704;0.4916093;0;
-19287.43;-11759.71;-269.9232;-20697.62;12.46281;14.19817;-18957.49;-8065.31;0.4999636;0.426148;0;
-26744.39;-18952.65;-2006.748;-28238.65;9.36883;15.32262;-26284.75;-13391.95;-0.02027749;-0.1589863;0;
1230.514;2200.648;-2005.731;226.025;9.828907;10.68552;1337.569;1223.187;-0.4100612;0.1010428;0;
25415.7;18319.26;-1165.98;26490.08;16.44949;3.775662;25101.79;13399.35;-0.2797145;0.1009413;0;
23230.76;15495.79;163.7424;24960.92;-8.751648;12.74734;22873.43;11277.06;-0.08453137;-0.4188989;0;
22704.25;15639.81;2490.19;24167.37;-22.47423;14.47608;22366.03;11462.58;-0.01947909;-0.3535106;0;
25803.1;18011.07;4251.863;27381.36;-30.02011;17.94453;25434.82;13344.56;-0.08442686;-0.02831869;0;
8847.107;6564.527;4240.563;9464.639;-51.62556;24.28975;8600.305;4388.604;0.04559266;-0.02829024;0;
-23336.88;-16704.33;3284.094;-24197.52;-24.98158;18.23701;-23149.26;-12251.96;0.1754815;-0.09322915;0;
-23287.56;-15041.14;1776.706;-24855.61;-7.876198;16.81204;-22936.64;-10727.14;0.04537052;0.1667339;0;
-20473.05;-12930.61;-435.5933;-21813.84;-20.1258;17.73291;-20117.79;-8845.102;0.240227;0.2315337;0;
-26786.77;-19012.55;-2137.706;-28304.16;-16.28815;16.77733;-26327.18;-13638.99;0.5648223;-0.353405;0;
1793.875;2683.359;-2125.313;762.1645;-19.75441;18.36806;1886.368;1446.266;0.239418;-0.5479519;0;
25439.44;18313.46;-1289.347;26518.25;-23.61933;17.14391;25126.85;13413.23;-0.02069189;0.1022721;0;
23176.77;15455.07;31.94147;24898.86;-14.88806;21.21265;22821.69;11238.94;0.3041656;0.427006;0;
22681.59;15615.99;2317.635;24139.69;-10.72089;23.2007;22341.75;11437.02;0.4337946;0.03677289;0;
25686.56;17897.74;4068.457;27268.68;-12.98729;23.31135;25316.66;13238.99;0.3034241;-0.0282314;0;
8737.723;6494.481;4081.235;9367.248;-13.77755;26.57009;8494.629;4335.395;0.4330539;-0.09317037;0;
-23398.66;-16725.86;3132.359;-24246.63;-12.42454;19.44333;-23204.3;-12252.2;0.1077821;-0.2230114;0;
-23092.96;-14846.77;1646.926;-24663.58;-10.67074;16.20873;-22748.29;-10564.3;-0.02226092;0.231984;0;
-20074.62;-12532.07;-538.6002;-21409.95;-14.61116;14.04899;-19736.79;-8458.438;0.1726635;0.1018163;0;
-26689.15;-18948.48;-2258.678;-28168.94;-17.07472;10.21697;-26224.94;-13395.5;0.04255529;0.1666813;0;
1580.756;2386.296;-2263.64;571.8425;-16.72277;12.35003;1697.33;1391.627;-0.02245481;0.6212852;0;
25402.01;18246.02;-1420.428;26468.56;-19.51901;11.73478;25094.29;13373.33;0.3673718;0.4257589;0;
23129.13;15425.5;-90.59086;24854.98;-14.61025;15.13912;22769.34;11189.5;-0.02280138;0.3603638;0;
22551.68;15474.72;2210.219;24017.25;-10.64346;16.19563;22213.47;11316.03;-0.6074845;0.7498057;0;
25646.94;17873.24;3966.427;27221.76;-13.5805;22.14059;25277.12;13201.91;-0.2820374;0.6191176;0;
8382.848;6215.05;3975.965;9020.195;-12.96364;29.2854;8141.274;4162.103;0.04308267;0.3586262;0;
-23869.57;-17160.54;3034.129;-24705.89;-13.75392;23.49556;-23675.61;-12575.89;-0.02192797;0.0334291;0;
-23382.55;-15144.77;1550.637;-24945.31;-15.21397;22.33324;-23037.59;-10781.69;0.04306141;-0.2914412;0;
-20381.93;-12858.95;-629.3259;-21723.72;-11.44764;21.10523;-20034.65;-8655.984;0.1079855;-0.226181;0;
-26657.89;-18862.35;-2324.95;-28170.83;-8.555749;18.27074;-26202.86;-13461.3;0.3677464;-0.09601906;0;
1820.949;2779.364;-2323.286;816.6062;-9.81995;17.85049;1909.823;1506.814;0.3024095;-0.03095524;0;
25360.64;18256.99;-1495.663;26456.46;-9.676361;15.55525;25045.73;13362.46;0.1072036;0.1639779;0;
23101;15372.36;-169.2792;24818.86;-7.188392;16.54424;22744.06;11164.71;0.1070959;0.03387844;0;
22606.9;15542.41;2127.861;24068.82;-6.042093;18.67108;22266.41;11367.17;0.04202093;-0.1610576;0;
25617.45;17839.14;3874.032;27195.52;-3.222983;13.6957;25246.34;13182.86;-0.1529233;0.03400623;0;
8394.24;6213.508;3885.663;9007.162;-0.474054;8.926271;8155.736;4187.551;-0.08780232;-0.09596262;0;
-23915.94;-17208.37;2937.046;-24779.99;0.866569;15.88341;-23710.12;-12591.13;-0.2176488;-0.2258009;0;
-23414.99;-15177.97;1447.623;-24998.87;4.415672;17.94379;-23064.37;-10851.77;-0.3473648;0.2291974;0;
-20340.61;-12797.03;-706.5307;-21698.73;2.401503;19.86827;-19994.48;-8641.736;0.172723;0.2289671;0;
-26917.23;-19153.06;-2384.087;-28411.12;1.126292;24.53699;-26451.55;-13563.01;-0.1522873;-0.161067;0;
1542.461;2380.866;-2385.58;570.7982;5.881558;18.08209;1642.073;1370.116;-0.6069056;0.0989642;0;
25391.48;18233.83;-1563.048;26488.93;6.411512;15.65266;25075.32;13359.99;-0.08655708;0.3587341;0;
23011.92;15303.04;-250.8082;24723.97;13.16925;12.15382;22655.21;11073.29;-0.02150276;-0.1613651;0;
22418.04;15345.48;2039.543;23884.88;20.32331;5.510543;22080.18;11189.3;-0.2813505;-0.2911376;0;
25485.16;17713.16;3788.769;27051.18;14.87788;9.389894;25114.63;13042.22;0.04376889;0.1639263;0;
8022.913;5882.217;3800.954;8592.563;12.04989;10.3852;7781.017;3935.261;0.4984963;0.03382691;0;
-24115.83;-17389.25;2876.816;-25014.04;15.38669;5.150221;-23923.24;-12707.47;0.5629628;-0.09614176;0;
-23470.28;-15245.03;1408.319;-25038.96;14.56695;3.336507;-23130.86;-10858.47;0.3025277;0.4886609;0;
-20736.15;-13206.37;-766.1915;-22076.11;15.49031;0.2520619;-20395.28;-8944.89;0.2372564;0.7480393;0;
-26763.2;-19012.62;-2450.653;-28300.69;18.7563;-1.489748;-26311;-13608.85;0.3669527;0.09761424;0;
2034.776;2872.217;-2454.671;1017.227;8.557026;-3.028858;2121.204;1579.369;-0.02322009;-0.4871899;0;
25339.63;18194.11;-1649.952;26442.75;1.984345;-5.102164;25021;13309.78;-0.0881641;-0.2917984;0;
23039.15;15329.95;-319.9929;24755.31;3.38887;-2.417842;22680.32;11119.78;0.3666959;0.03333153;0;
22614.38;15539.57;1984.046;24075.41;0.7725208;-2.482395;22272.79;11372.71;0.04149072;-0.2265713;0;
25505.94;17738.3;3707.216;27072.22;3.049896;2.878612;25133.21;13078.62;-0.08848566;-0.1613763;0;
8110.321;5984.343;3701.617;8675.872;3.246927;8.435181;7870.179;3988.633;0.04153794;-0.2261815;0;
-23806.34;-17064.53;2767.584;-24706.91;6.727264;5.814371;-23610.32;-12420.99;-0.3483078;-0.2909216;0;
-23040.72;-14816.38;1272.272;-24614.57;10.53792;6.411375;-22708.19;-10538.38;-0.0880885;0.2940768;0;
-20390.3;-12840.64;-929.4627;-21745.55;9.590304;6.270967;-20059.58;-8707.836;0.3018041;-0.03105539;0;
-26685.01;-18949.91;-2626.207;-28232.53;11.99157;5.661941;-26231.11;-13439.16;0.04163144;-0.6157302;0;
2026.288;2763.612;-2608.778;1005.036;8.027402;5.254354;2119.977;1627.593;-0.08834507;-0.0304055;0;
25475.15;18283.49;-1779.073;26569.82;4.268291;4.110365;25159.83;13409.18;-0.02328896;0.2944618;0;
23077.28;15382.02;-476.6421;24792.26;6.341084;3.704337;22720.07;11155.25;-0.1532002;0.03429652;0;
22529.56;15455.44;1797.725;23989.45;5.665127;2.561905;22190.33;11308.27;-0.2180136;0.09922941;0;
25618.46;17848.15;3537.106;27186.16;4.587708;3.564075;25247.03;13178.15;0.1070421;0.2940317;0;
8287.093;6137.329;3547.514;8879.626;5.252683;4.632221;8048.511;4090.205;0.4317713;0.0338669;0;
-23569.38;-16839.35;2614.479;-24464.28;1.29529;3.55584;-23372.94;-12293.78;0.3014027;0.2287349;0;
-22609.76;-14377.51;1130.877;-24215.67;-0.4473238;3.351318;-22271.45;-10277.22;-0.02373682;0.8132111;0;
-20236.13;-12665.4;-1061.72;-21597.31;-0.9163649;4.01778;-19892.74;-8659.542;0.1062217;0.4875573;0;
-26485.4;-18773.11;-2746.868;-27989.21;-4.264347;3.611845;-26036.17;-13490.64;0.106115;0.09726338;0;
2545.214;3172.84;-2723.634;1583.764;1.902856;6.287411;2623.503;1743.622;-0.08889367;0.2271003;0;
25544.31;18302.31;-1903.105;26666.3;3.508534;8.826445;25225.99;13414.17;0.04113034;-0.2928666;0;
22993.65;15315.38;-566.7385;24703.74;7.121355;7.07602;22636.99;11124.06;-0.02387833;-0.6174091;0;
22714.47;15637.79;1743.108;24173.85;13.54456;7.604773;22373.85;11471.5;0.1060803;0.1628194;0;
25579.88;17812.45;3458.368;27159.31;5.493;6.324456;25208.79;13160.69;0.3658431;0.4874926;0;
8209.634;6083.045;3454.425;8820.895;5.622178;4.777616;7969.273;4021.136;0.04063881;0.09719867;0;
-23299.41;-16550.29;2526.824;-24189.24;-4.363806;7.385027;-23109.71;-12036.79;-0.08933671;-0.03283369;0;
-22310.39;-14070.68;1036.127;-23939.5;-18.15815;8.717266;-21970.44;-10055.45;-0.1542143;0.1621013;0;
-19759.43;-12159.26;-1143.225;-21155.88;-3.47052;8.641523;-19407.3;-8199.335;-0.3489614;0.2269058;0;
-25744.51;-18084.79;-2808.973;-27285.5;2.762258;7.628097;-25302.86;-12736.17;-0.2836434;0.09674312;0;
2891.635;3388.175;-2780.117;1905.93;-2.46543;11.9742;2956.548;2009.299;-0.023489;0.2915479;0;
25634.11;18364.52;-1949.24;26753.41;-1.257504;15.51226;25312.88;13475.83;-0.0234654;0.2262876;0;
23109.69;15447.39;-614.3572;24819.15;-2.729133;13.08529;22750.2;11252.23;-0.3482785;-0.1637438;0;
22725.83;15641.45;1699.285;24185.14;-2.391598;14.67973;22382.98;11479.58;-0.1530266;-0.2285466;0;
25668.4;17903.97;3433.455;27238.79;-3.126129;10.24423;25295.34;13248.54;0.1719639;0.09651976;0;
8361.419;6219.646;3423.446;8936.687;-4.328437;6.348929;8110.11;4142.253;0.2367585;0.3562922;0;
-23122.12;-16387.07;2487.443;-24032.07;-2.046912;9.490747;-22943.34;-11887.54;0.2365206;0.2259995;0;
-22251.96;-14020.69;998.41;-23866.87;-2.178577;8.476467;-21931.64;-9977.94;0.1713156;0.03087034;0;
-19942.8;-12362.88;-1187.089;-21328.7;0.703024;12.08491;-19616.77;-8372.561;0.1061761;0.03083932;0;
-25726.56;-18055.95;-2853.917;-27267.71;2.444606;14.14923;-25285.84;-12840.83;0.04110207;-0.03415901;0;
3029.189;3562.129;-2833.105;2045.83;3.446527;15.27373;3103.478;2020.354;-0.02390657;0.09581001;0;
25571.27;18310.4;-1999.02;26695.23;7.194108;18.74137;25253.08;13420.95;-0.1538172;0.03074638;0;
23073.22;15410.64;-635.8832;24780.49;0.4890748;14.97162;22718.8;11232.79;-0.21863;0.03071549;0;
22762.88;15675.67;1680.935;24220.92;-4.803679;15.35847;22421.61;11514.55;0.04145903;0.1606193;0;
25627.78;17873.79;3393.322;27193.58;-0.7130147;10.58725;25255.36;13222.11;0.4312214;-0.09941145;0;
8064.109;5999.914;3377.044;8626.747;0.1583579;4.347443;7824.688;3942.032;0.6256902;-0.2292462;0;
-23324.69;-16537.52;2446.273;-24243.62;-1.649486;10.84017;-23128.54;-12028;0.1702901;0.03085347;0;
-21961.02;-13746.82;946.1616;-23600.21;-1.715178;11.63308;-21631.32;-9830.041;-0.3496198;0.2906919;0;
-19630.64;-12038.21;-1256.276;-21041.3;-2.85253;14.03277;-19303.14;-8149.394;-0.4142358;0.4203344;0;
-25546.12;-17900.98;-2915.008;-27087.54;-4.590976;18.30546;-25111.59;-12659.76;-0.4787869;0.03010803;0;
3197.188;3635.973;-2870.256;2219.668;-2.241839;13.9333;3262.607;2119.395;-0.4133385;-0.2297916;0;
25570.09;18279.71;-2030.449;26700.46;-2.708101;13.65137;25247.63;13400.2;-0.3479559;-0.1645934;0;
22996.36;15344.46;-675.3543;24709.71;0.3751034;10.48945;22641.27;11165.7;-0.02276951;-0.2943627;0;
22741.76;15655.99;1650;24200;4.728983;5.656262;22402.17;11501.85;-0.08771397;0.03076983;0;
25670.85;17913.35;3387.218;27234.02;-2.040923;9.535589;25299.77;13264.17;-0.1525932;0.3555756;0;
8240.617;6149.848;3386.094;8802.722;-3.847533;10.46365;7999.207;4076.14;0.4322662;0.03038163;0;
-22959.05;-16176.55;2459.312;-23885.2;-7.795782;8.108852;-22766.2;-11699.18;-0.02293951;0.09531846;0;
-21626.7;-13399.18;971.0254;-23275.27;-14.41841;7.832773;-21297.39;-9574.038;-0.1528511;0.16019;0;
-19431.29;-11826.91;-1223.379;-20845.85;-8.241976;4.542861;-19104.26;-8025.66;0.6269106;-0.424677;0;
-25217.57;-17609.52;-2878.817;-26768.01;-6.35866;0.5863028;-24786.51;-12461.19;0.3664112;-0.749087;0;
3548.181;3885.988;-2831.025;2571.344;-6.553342;3.666929;3610.542;2259.75;-0.2836303;-0.4234976;0;
25669.01;18343.38;-1999.816;26805.45;-3.130505;6.208473;25345.11;13449.32;-0.218378;0.0316993;0;
23039.12;15407.66;-632.3206;24747.07;-7.346919;-0.2278824;22681.25;11257.51;0.2366128;0.2265695;0;
22861.52;15764.9;1716.541;24314.43;-9.48299;-3.978698;22519.8;11592.29;0.3663098;-0.2933969;0;
25587.38;17845.35;3434.982;27158.22;-6.459352;-3.103922;25215.01;13217.87;0.1710397;-0.6179388;0;
7930.254;5900.319;3409.167;8499.208;-6.921376;-4.440462;7685.111;3880.18;0.3657698;-0.3574485;0;
-23283.31;-16466.92;2477.833;-24208.88;-2.828584;-3.230307;-23091.75;-11916.3;0.3004349;0.03271467;0;
-22053.99;-13828.99;977.2838;-23659.12;0.9253021;-1.351539;-21721.03;-9778.672;0.04026371;-0.09725288;0;
-20014.81;-12410.72;-1227.715;-21375.79;-2.826672;-3.895532;-19678.31;-8404.642;0.1701579;-0.3570245;0;
-25826.64;-18186.51;-2876.652;-27359.98;-5.235705;-5.030206;-25382.43;-12867.34;0.1050196;-0.1617638;0;
3159.905;3529.389;-2807.92;2199.244;-3.354434;-3.082768;3229.647;2108.084;-0.28489;-0.2265686;0;
25585.42;18249.25;-1953.917;26724.42;-2.414035;-3.146654;25262.39;13368.21;-0.349571;-0.1613736;0;
22920.04;15288.19;-579.5029;24627.44;-6.631168;-0.1292602;22563.71;11126.04;-0.08935042;0.2285926;0;
22659.77;15565.67;1759.998;24119.22;-7.963675;2.951963;22319.4;11403.21;0.04067404;0.09842827;0;
25497.83;17757.19;3470.368;27070.83;-12.30993;0.001869434;25124.78;13131.05;0.04063317;0.03336201;0;
7629.992;5624.947;3428.338;8226.947;-17.38778;-1.806672;7385.66;3713.354;-0.08934234;0.2282305;0;
-23971.21;-17159.44;2470.654;-24874.61;-14.15512;0.2045097;-23785.5;-12512.58;-0.2841546;0.09806652;0;
-22819.1;-14605.8;963.8967;-24418.8;-14.74411;1.811895;-22492.97;-10345.23;-0.2189017;0.1629353;0;
-20881.65;-13303.18;-1238.028;-22220.88;-10.1076;-2.610677;-20539.44;-9052.202;-0.02377975;0.422641;0;
-26697.35;-19018.73;-2886.736;-28228.79;-1.925768;-5.622164;-26247.23;-13594.55;0.1711462;-0.09752245;0;
2695.157;3236.826;-2815.713;1712.584;-10.56402;-4.410944;2767.85;1898.826;-0.1538625;-0.3572938;0;
25425.52;18164.41;-1963.78;26562.86;-15.04138;-5.277168;25106.62;13290.1;-0.08874056;-0.0320981;0;
22751.46;15101.54;-593.3068;24465.58;-6.251385;-3.2625;22395.77;10933.14;-0.0886514;0.03290149;0;
22494.09;15401.55;1741.397;23959.46;-4.704862;0.02294205;22153.44;11246.54;-0.6732684;0.03286843;0;
25356.45;17628.37;3453.255;26924.01;2.06502;-3.527176;24985.12;13001.47;-0.4776899;0.09780276;0;
7306.358;5376.396;3427.64;7857.586;7.220509;-6.537742;7063.483;3504.725;0.04252885;-0.2271322;0;
-24454.35;-17598.3;2481.67;-25366.93;7.480697;0.7697225;-24258.86;-12874.92;0.3023555;-0.09696933;0;
-23447.96;-15243.37;971.2778;-24986.71;12.56437;5.524615;-23105.25;-10751.21;0.4319864;0.2279648;0;
-21755.83;-14206.51;-1228.281;-23055.97;4.782214;4.246511;-21411.52;-9755.179;0.3016176;0.03283373;0;
-27495.51;-19765.03;-2869.455;-29018.73;3.035121;5.380831;-27048.11;-14260.92;0.1713799;0.1627354;0;
2209.947;2924.688;-2795.576;1232.598;-3.866805;6.6481;2286.678;1711.779;-0.02369437;0.3574739;0;
25222.56;18015.8;-1937.166;26350.22;-15.65192;7.981079;24904.25;13158.98;-0.2835399;0.2921474;0;
22648.66;14977.7;-560.0828;24352.12;-2.239602;7.370213;22293.74;10789.22;-0.1533203;0.2268865;0;
22388.91;15300.37;1779.929;23852.35;1.1789;6.692978;22048.56;11163.86;-0.0232316;0.1616912;0;
25258.6;17548.25;3492.591;26813.25;3.923406;8.762724;24886.03;12901.04;-0.1531429;-0.09834065;0;
6760.99;4957.769;3454.568;7284.676;11.42155;10.22754;6518.792;3233.322;-0.2829238;-0.4230785;0;
-25096.51;-18162.13;2515.817;-26040.44;3.907987;9.212523;-24908.36;-13323.89;0.04219725;-0.2277514;0;
-23275.71;-15100.27;1033.346;-24838.96;4.239829;7.528693;-22941.68;-10730.05;0.1720895;0.0323468;0;
-20976.78;-13387.95;-1154.719;-22294.8;-2.463213;11.0711;-20632.68;-9006.079;0.236884;-0.03265304;0;
