Fp1;Fp2;O1;O2;POLY3;POLY4;A1;A2;Video;Audio;event;
1714.581;2272.619;-525.2664;41.58922;-5.038126;-4.89181;1547.614;1600.784;0.04469753;-0.3856461;0;13:15:37 Рука;
23206.9;17323.44;-354.3087;26410.2;-9.587415;-6.092526;24290.97;13340.8;0.10962;-0.450226;0;
20647.53;14515.08;-16.1537;24845.06;-6.563672;-9.636439;21861.27;10955.11;0.2394445;-0.1249369;0;
20717.22;15000.55;68.77298;24497.41;-7.762525;-11.90411;21824.89;11536.35;0.3041712;0.4598947;0;
23013.88;16859.95;123.7699;26902.81;-8.290588;-9.346864;24154.75;12995.74;0.1089636;0.06962857;0;
4394.132;3340.697;472.4234;5277.715;-7.746395;-9.538421;4313.781;2191.728;-0.1510153;-0.3202454;0;
-26751.99;-20798.73;401.7496;-29491.57;-9.011409;-9.796768;-27966.31;-16416.28;-0.2158309;-0.1250216;0;
-25462.98;-18731.25;-51.67636;-29246.81;-8.600212;-8.916146;-26591.48;-13555.7;-0.02071198;-0.2548307;0;
-24761.75;-18492.35;-131.1938;-28209.4;-7.185051;-10.04584;-25753.22;-13465.18;0.6289822;-0.12464;0;
-29619.94;-23144.8;-269.305;-33505.98;-6.977737;-9.96882;-30612.42;-18305.58;0.7582849;0.395224;0;
902.8041;1573.607;-532.6831;-829.3028;-4.291409;-6.877649;747.9836;1037.987;-0.0220851;0.2648922;0;
23033.07;17179.8;-389.0167;26205.94;-3.215369;-6.602807;24117.95;13187.29;-0.2819323;0.004756674;0;
20383.98;14244.65;-26.47973;24555.68;-4.216516;-3.916916;21596.72;10704.51;0.04318772;0.1996539;0;
20391.03;14665.15;76.33896;24177.41;-2.470968;-2.841253;21502.42;11167.58;0.1081117;0.2644207;0;
22676.24;16547.57;133.546;26459.52;-6.821765;-6.723348;23807.07;12714.75;0.3029051;-0.1256491;0;
3268.389;2342.059;469.321;3830.611;-5.743184;-6.917541;3166.899;1474.087;0.2376334;-0.0605555;0;
-28649.42;-22637.22;378.3793;-31552.66;-10.22539;-9.790795;-29839.26;-17963.03;-0.08744212;-0.06049465;0;
-27868.04;-21138.64;-78.50578;-31673.39;-14.7031;-10.51771;-28922.24;-15376.12;-0.1523216;-0.2553359;0;
-27439.41;-21207.87;-161.9318;-30954.6;12.43964;-11.91378;-28374.01;-15696.43;-0.2171359;0.06975738;0;
-31774.33;-25250.32;-296.4045;-35797.55;18.85653;-13.44236;-32769.28;-20288.18;-0.3468524;0.2645893;0;
-304.7863;615.9417;-529.4426;-2316.716;5.240901;-4.051484;-504.726;362.8559;-0.2165692;0.06942143;0;
22512.91;16760.22;-356.263;25533.38;6.976947;-0.9662588;23574.63;12843.8;0.04351779;0.00438433;0;
20064.7;13889.88;-5.471767;24257.93;-6.895164;-5.185091;21284.22;10293.17;0.4332781;-0.1255548;0;
20099.93;14380;75.71168;23894.7;-13.65339;-4.242181;21216.42;10904.68;0.3678754;-0.3203306;0;
22460.91;16347.94;129.4991;26185.99;-0.5115041;-1.558662;23581.78;12509.18;0.04266905;-0.1900741;0;
2641.214;1809.331;449.2239;3084.308;0.09222231;-0.8202834;2506.791;1119.422;0.4324302;-0.0599484;0;
-29714.9;-23647.86;339.6399;-32602.87;-12.4338;0.7210873;-30917.54;-18828.33;0.2370937;-0.1898229;0;
-28384.47;-21668.07;-118.0184;-32084.04;-15.30072;1.725107;-29418.65;-15870.88;-0.1529486;-0.3845342;0;
-27365.29;-21116.92;-188.0833;-30816.19;-9.056054;-0.6209683;-28288.38;-15552.5;0.3019765;-0.2542131;0;
-32065.61;-25538.69;-315.9862;-35952.36;-8.980582;-0.5533614;-33046.04;-20535.5;0.1717384;0.3957158;0;
-652.5684;258.7984;-556.2197;-2513.075;-6.158519;-2.160396;-833.2025;54.63573;-0.2182382;0.2653835;0;
22678.75;16925;-389.2444;25755.6;-4.27632;-3.162908;23743.83;13024.91;-0.02311692;-0.1246872;0;
20323.07;14138.92;-41.76213;24538.95;-6.884968;-0.6144394;21543.61;10513.68;0.1718083;0.2652421;0;
20271.57;14560.42;36.77163;24054.5;-6.609631;-1.417617;21383.11;11103.68;0.1716357;0.00510622;0;
22717.73;16580.84;89.73929;26550.86;-8.21058;3.808354;23858.5;12714.81;0.2364306;-0.1898009;0;
3444.003;2494.754;428.51;4146.762;-9.877269;5.880937;3358.8;1585.875;0.3661277;0.2001938;0;
-28429.52;-22432.57;359.2234;-31231.55;-6.718536;-1.091014;-29623.9;-17797.63;0.7555638;0.26496;0;
-27485.24;-20757.05;-78.02726;-31207.05;-6.510715;-1.156901;-28533.89;-15088.45;0.3000333;0.1997264;0;
-26720.37;-20469.46;-166.4825;-30146.59;-10.52364;-5.57649;-27648.87;-15052.25;-0.2200069;-0.125311;0;
-31183.21;-24685.78;-299.1547;-35119.16;-10.11092;-8.852989;-32177.16;-19705.92;0.2349855;-0.3200871;0;
-66.91277;786.5903;-530.5814;-2016.895;-17.20071;0.399307;-258.6954;575.3228;0.1697821;-0.1248634;0;
22773.92;16999.03;-379.3427;25813.44;-20.19753;0.6668376;23836.02;13072.53;-0.0902579;0.005196729;0;
20423.57;14245.2;-29.79333;24635.88;-9.862112;0.5991846;21644.75;10630.92;-0.1551345;0.3300282;0;
20333.13;14617.19;53.33546;24114.67;-9.58476;2.675053;21443.9;11146.85;-0.3498807;0.394664;0;
22763.61;16616.43;97.58773;26556.11;-4.015423;-6.571096;23901.53;12749.89;-0.2845618;0.1993654;0;
3444.215;2464.053;455.1536;4062.857;-0.394066;-7.703142;3367.152;1622.802;-0.2842759;-0.3855411;0;
-29002.8;-23030.02;371.4569;-31872.57;-13.38811;-7.628419;-30193.47;-18330.89;-0.2190229;-0.5150883;0;
-27830.21;-21107.92;-103.0218;-31640.4;-16.52347;-9.496276;-28902;-15411.37;-0.1538355;0.1351027;0;
-26549.49;-20317.45;-164.075;-30054.4;-9.540643;0.3595127;-27498.25;-14881.41;-0.0237462;0.2649016;0;
-31882.26;-25345.07;-279.8206;-35832.14;-8.995193;3.30634;-32875.87;-20331.6;0.236147;0.3945701;0;
-965.6069;-5.468041;-528.5237;-2935.795;-20.37301;-1.050751;-1156.246;-166.4675;-0.02395963;0.3292063;0;
22624.52;16880.61;-371.0715;25641.24;-24.16995;-0.7147809;23684.6;12955.07;-0.02393555;-0.5806673;0;
20189.25;14004.37;-25.21608;24384.63;-15.70655;4.108586;21406.83;10383.64;0.1709905;-0.6450512;0;
20037.14;14310.64;66.41946;23830.82;-15.22128;5.377134;21148.94;10824.79;-0.02408331;0.07023773;0;
22478.64;16355.53;112.9231;26197.59;-15.8092;2.223594;23601.3;12496.69;0.1058756;0.2001019;0;
2934.215;2070.46;428.7289;3319.271;-13.98465;1.886445;2787.725;1285.734;0.4306059;0.1349335;0;
-29700.91;-23662.23;339.702;-32642.85;-15.37712;-0.8616896;-30930.66;-18912.98;0.4301732;0.2647326;0;
-29447.8;-22674.66;-145.5206;-33149;-13.55301;-2.200482;-30451.68;-16833.23;0.03993693;0.3294339;0;
-28660.8;-22398.4;-263.2838;-32114.96;-15.34805;-3.470886;-29546.1;-16884.63;-0.4798419;0.1342009;0;
-33078.82;-26515;-385.4109;-37076.38;-16.13691;-5.610791;-34084.82;-21458.9;-0.08955573;0.2640007;0;
-1459.606;-344.6048;-601.7584;-3587.91;-4.532771;-0.5815557;-1679.093;-327.2336;0.1704036;0.3287027;0;
22277.91;16605.86;-416.4029;25192.01;-1.715177;0.4237116;23324.86;12722.79;-0.1546043;-0.2563336;0;
19985.45;13767.78;-47.95073;24195.34;-2.181968;-2.122005;21201.01;10110.73;-0.2194163;-0.1261414;0;
19812.32;14101.37;55.686;23605.32;1.035405;-0.3113332;20921.16;10621.36;0.1706082;0.2637894;0;
22346.76;16206.98;115.5218;26064.4;-9.147041;-5.334618;23470.35;12333.44;0.3003715;0.3284917;0;
2843.578;1923.722;434.8701;3250.567;-11.6161;-6.133053;2721.541;1179.166;0.170135;0.1332596;0;
-30220.46;-24214.99;350.8502;-33146.09;-6.781653;0.5042366;-31430.22;-19433.91;0.5597681;-0.3216457;0;
-29579.82;-22830.74;-119.4536;-33318.95;-9.185737;0.8386446;-30605.92;-17010.36;0.4292709;-0.3862898;0;
-27917.29;-21685.06;-232.4954;-31404.06;-3.014565;7.736922;-28824.14;-16192.84;-0.0259318;-0.255967;0;
-33055.05;-26477.78;-367.8343;-37009.14;-2.408324;10.07343;-34055.09;-21391.6;-0.02590574;0.06912692;0;
-2051;-878.0112;-609.4212;-4155.165;-7.429746;6.580316;-2274.605;-793.3092;-0.4806511;0.2639595;0;
22355.09;16706.81;-432.6942;25260.7;-6.485251;7.3775;23395.34;12836.71;-0.3502335;0.003824889;0;
20181.8;13952.01;-59.33756;24399.39;-18.6689;0.6049324;21399.7;10275.99;-0.02504484;-0.0611463;0;
19837.59;14127.51;37.48592;23638.34;-22.40118;-1.405102;20949.12;10653.61;-0.08998701;-0.1260522;0;
22498.53;16352.66;93.38889;26217.82;-14.60914;-3.413118;23624.6;12466.14;0.04003809;-0.3208276;0;
3104.787;2170.641;427.5489;3522.889;-14.45976;-5.821012;2985.272;1369.673;0.2348999;-0.1905705;0;
-29593.8;-23591.26;364.151;-32500.98;-10.3594;-1.595361;-30805.85;-18858.46;0.4295659;-0.1254117;0;
-28909.52;-22194.9;-90.84579;-32640.04;-8.004464;-1.19186;-29962.95;-16381.88;0.1042975;-0.2552204;0;
-27561.95;-21358.03;-197.8882;-31041.53;-5.518175;-0.3868675;-28495.1;-15838.08;-0.2856113;-0.1250292;0;
-32359.99;-25811.93;-317.5978;-36306.36;-3.169081;0.6851871;-33358.1;-20775.77;-0.220357;0.1999331;0;
-1308.89;-217.391;-538.3707;-3406.789;-1.82575;3.69867;-1529.218;-258.7433;-0.2851029;0.004830196;0;
22348.1;16666.82;-360.6375;25269.42;0.1858162;5.637397;23391.18;12770.39;-0.1548817;-0.255044;0;
20095.15;13873.52;11.38178;24318.05;-5.977288;3.95722;21319.4;10212.73;-0.2196935;0.1350163;0;
19990.77;14280.29;97.68633;23771.06;-8.38218;4.489108;21098.09;10793.98;-0.2844401;0.199848;0;
22619.79;16458.39;138.1303;26375.31;0.3337798;2.47517;23758.97;12573.75;0.04068246;-0.2551242;0;
3460.492;2440.731;462.4066;3973.444;3.614998;0.7311267;3369.08;1595.675;0.1705763;-0.3198352;0;
-29350.78;-23393.04;366.9272;-32211.81;-13.93743;4.347409;-30544.28;-18691.5;0.1054375;-0.1246118;0;
-28907.93;-22132.79;-109.015;-32606.98;-19.01364;4.209075;-29919.99;-16315.37;-0.0246031;-0.05951927;0;
-27515.68;-21276.24;-201.8587;-30946.34;0.09450166;-1.019701;-28411.25;-15781.89;-0.02457838;-0.05945947;0;
-32862.02;-26310.85;-324.5785;-36813.85;2.640002;-2.894137;-33856.08;-21180.13;0.105381;0.1355023;0;
-1932.182;-806.9519;-579.2023;-4111.376;-0.6451802;-3.82899;-2153.429;-684.4006;-0.02465957;0.07039881;0;
22463.09;16802.43;-440.2992;25324.18;1.3652;-5.432673;23500.18;12926.09;-0.08960214;-0.1895413;0;
20320.62;14091.37;-79.25679;24554.42;-2.319867;-6.766872;21543.21;10403.38;0.300292;0.005551183;0;
20034.83;14326.33;48.24317;23821.11;-2.183814;-7.697773;21146.8;10849.61;0.2350229;0.07051294;0;
22714.98;16542.33;131.0905;26476.84;-4.994659;-9.09668;23847.08;12641.31;-0.09004999;0.005474753;0;
3703.612;2636.944;460.4651;4226.03;-7.334165;-10.02524;3594.284;1734.362;0.03997518;0.2003713;0;
-29112.12;-23183.43;364.5035;-31968.65;0.7111563;-7.938756;-30314.88;-18514.17;-0.02503233;0.20017;0;
-29477.38;-22692.87;-139.0629;-33132.07;2.385381;-7.863796;-30470.56;-16839.45;0.1049275;-0.05990056;0;
-28435.07;-22205.13;-285.4121;-31854.53;-5.856039;-6.58328;-29306.28;-16693.25;0.2347568;-0.2547424;0;
-32855.87;-26287.27;-395.929;-36829.88;-8.39575;-5.303989;-33856.81;-21242.8;0.1045862;-0.1245517;0;
-1612.032;-404.9019;-587.7939;-3763.691;-0.7515033;-7.442053;-1853.609;-390.5252;0.1694484;0.2653775;0;
22349.61;16721.6;-404.4514;25231.55;0.05353499;-6.295926;23384.01;12827.69;-0.3504606;0.2651108;0;
20294.47;14052.18;-18.20766;24520.1;-5.506224;-8.36601;21518.53;10369.31;-0.3501084;-0.1249596;0;
20108.57;14402.28;101.6566;23889.6;-5.299621;-8.290621;21217.46;10911.55;-0.08988725;-0.1248341;0;
22728.64;16551.41;155.9646;26510.86;-8.911618;-3.057743;23862.73;12647.54;-0.08979694;0.3950301;0;
3794.764;2729.531;481.0195;4371.319;-8.500522;-1.849039;3692.506;1779.632;0.1051953;0.4596005;0;
-29310.57;-23381.76;397.2967;-32160.85;-10.23329;2.037768;-30518.37;-18755.49;-0.2197471;-0.255502;0;
-29587.41;-22819.6;-90.65429;-33312.08;-11.29474;3.308335;-30614.63;-16973.02;-0.02462426;-0.5151147;0;
-28237.96;-22030.95;-213.3609;-31696.7;3.117576;7.055994;-29139.54;-16553.13;0.6900412;0.1350763;0;
-33590.19;-27001.03;-338.4741;-37545.26;6.865488;9.594133;-34590.41;-21855.42;0.4944459;0.5247446;0;
-2663.234;-1372.303;-581.5741;-4827.724;9.60428;-0.2616928;-2902.958;-1160.212;-0.0257897;0.004478639;0;
22282.95;16693.42;-426.4893;25134.97;13.1446;-2.404823;23311.83;12829.33;0.03920356;-0.3853299;0;
20312.88;14055.6;-40.08289;24538.65;11.25636;-0.1920305;21537.04;10348.44;-0.02580318;-0.1900407;0;
19853.6;14146.93;80.2719;23642.82;13.32116;-1.062616;20959.93;10663.91;-0.350614;-0.2548171;0;
22711.38;16529.19;112.5188;26458.45;3.662228;-3.539855;23841.17;12617.49;-0.02542495;-0.3844957;0;
3812.075;2721.923;446.847;4299.346;1.180301;-4.875896;3696.626;1804.602;0.4943393;-0.05927268;0;
-29454.68;-23544.41;410.4629;-32344.96;4.059504;-0.5842112;-30674.08;-18889.69;0.2339732;-0.2541152;0;
-30106.22;-23313.04;-89.62025;-33802.82;2.782627;-0.784573;-31105.56;-17461.88;-0.1560659;-0.3837945;0;
-29174.53;-22949.41;-255.5405;-32605.05;7.536229;4.708694;-30048.35;-17470.53;-0.4157785;0.2012972;0;
-34100.57;-27506.99;-380.8925;-38087.47;8.734105;7.986065;-35110.02;-22368.94;-0.3503933;0.590899;0;
-2580.649;-1243.708;-602.6637;-4851.325;11.94051;-2.270104;-2833.196;-1027.24;-0.02520455;0.3304359;0;
22210.45;16643.14;-431.1597;25001.2;14.20569;-3.138601;23232.82;12779.32;0.2346901;0.1352019;0;
20281.58;14012.13;-56.72693;24509.6;14.52621;-2.465618;21505.53;10297.55;0.2994217;0.2000334;0;
20075.79;14371.64;47.59016;23855.37;15.85078;-4.003748;21181.51;10881.45;-0.09068324;0.06989766;0;
22765.29;16575.41;99.26634;26521.09;13.8261;0.08617282;23899.09;12660.81;-0.2205268;0.004860085;0;
3873.102;2754.119;431.5308;4390.161;13.41006;-0.4497772;3776.784;1840.907;-0.02540319;-0.06011214;0;
-29274.35;-23379.09;371.4865;-32146.43;10.58355;4.641255;-30489.49;-18721.27;-0.2202797;-0.2549538;0;
-29978.39;-23182.48;-120.7333;-33660.64;7.558806;6.913951;-30986.34;-17334.16;0.2996804;0.005171782;0;
-28992.24;-22768.53;-277.1895;-32428.01;7.886003;0.3428592;-29874.92;-17303.4;0.624216;0.1351013;0;
-34166.43;-27574.27;-403.9253;-38125.34;3.858616;0.9453;-35184.53;-22408.43;-0.02608467;-0.1249039;0;
-2796.612;-1452.069;-617.2401;-4974.195;6.735127;-4.548128;-3048.641;-1170.901;-0.2209605;0.005156339;0;
22339;16782.22;-424.9037;25186.32;6.126123;-6.8879;23362.15;12937.34;-0.09080377;-0.05981619;0;
20461.91;14178.91;-25.05259;24705.38;-8.013554;1.424722;21686.32;10443.56;0.03922215;-0.3196254;0;
20082.86;14390.04;82.76215;23862.44;-11.15333;2.695966;21182.52;10909.1;-0.0257846;-0.1244023;0;
22984.95;16767.78;111.3208;26798.44;-17.17035;3.831906;24136.55;12834.09;-0.1556934;0.005657422;0;
4735.823;3467.969;437.9666;5416.683;-20.23455;5.636534;4695.622;2429.451;0.1043324;0.1355864;0;
-28204.66;-22388.72;398.1089;-30978;-16.66425;7.171477;-29407.96;-17820.38;0.1042276;0.5252542;0;
-29082.24;-22294.89;-73.97594;-32745.39;-17.45081;8.972811;-30125.25;-16449.3;-0.02581182;0.7845958;0;
-27738.71;-21527.85;-224.3416;-31147.71;-2.898589;6.753358;-28643.02;-16049.72;0.03918146;0.3290361;0;
-32763.64;-26223.36;-368.2469;-36687.47;3.132544;6.277692;-33799.4;-21104.14;0.03914209;-0.320968;0;
-1962.047;-788.2654;-591.249;-4099.269;1.856598;7.343111;-2227.48;-627.7767;0.1690374;0.1341259;0;
22640.23;16996.49;-406.2319;25492.45;6.677504;6.330988;23664.45;13118.83;0.03893291;0.4588279;0;
20713;14453.12;-33.83886;24941.06;2.250165;7.329371;21935.12;10724.6;-0.02607355;0.003595447;0;
20345.83;14639.69;67.0507;24107.99;1.176177;7.85787;21444.21;11152.68;0.2987894;-0.1913102;0;
23072.62;16851.15;118.6449;26908.38;11.62384;-1.326504;24218.86;12906.56;0.3634565;-0.191118;0;
4991.198;3724.703;455.6375;5714.353;13.95669;-4.942128;4942.158;2554.754;0.1681892;0.1988781;0;
-27623.41;-21828.38;402.7841;-30478.54;4.900336;2.49776;-28833.25;-17388.82;0.1030529;0.328613;0;
-28361.91;-21614.39;-56.85855;-32183.94;4.2922;2.227319;-29445.96;-15794.61;0.3628187;-0.386358;0;
-27134.72;-20979.59;-173.7739;-30648.73;1.80964;0.4165417;-28073.8;-15502.77;0.2974868;-0.6458391;0;
-32755.05;-26168.22;-319.0106;-36758.7;0.5350242;0.6840549;-33787.97;-21082.82;0.1022859;-0.2553861;0;
-2310.675;-962.9733;-569.0173;-4511.179;2.879011;-3.536435;-2588.012;-862.1449;0.3620525;0.2646092;0;
22451.29;16885.99;-403.8408;25298.17;1.40225;-4.872479;23466.57;12995.43;0.2967213;0.5891801;0;
20518.9;14237.74;-31.77808;24753.54;12.38653;-3.929883;21745.55;10516.38;-0.2882829;0.6535554;0;
20124.45;14421.71;72.98246;23889.08;14.98605;-4.997601;21222.36;10918.68;-0.2230259;0.2630946;0;
23006.21;16788.97;120.6195;26814.87;11.95688;-4.121862;24151.02;12848.44;-0.1578344;-0.3218758;0;
4909.852;3660.708;459.8278;5541.247;13.55246;-4.184703;4842.96;2521.007;-0.02774116;-0.1916177;0;
-28135.77;-22323.71;406.4392;-31009.34;4.831306;-5.587079;-29351.31;-17844.79;0.2971234;0.0684442;0;
-29322.47;-22554.23;-75.16482;-33067.85;2.615648;-5.179567;-30371.36;-16717.45;-0.02801184;0.1333428;0;
-27958.21;-21786.58;-195.7474;-31424.62;-0.4010901;-7.719654;-28872.34;-16333.87;-0.1579184;0.1332088;0;
-33203.88;-26621.08;-307.5569;-37189.27;-4.285453;-7.845862;-34238.61;-21509.78;-0.09279235;-0.1267944;0;
-2528.58;-1155.942;-560.5268;-4752.941;1.010139;-6.029501;-2808.124;-989.863;0.03723557;0.003267657;0;
22396.12;16849;-411.6787;25204;0.2058164;-5.889476;23407.24;12964.54;0.3620349;0.06823172;0;
20590.44;14296.87;-7.764787;24833.11;1.745851;-0.4580632;21816.7;10553.05;0.1667691;0.1331305;0;
20232.09;14535.4;123.9268;23988.9;3.620107;1.953722;21330.13;11038.18;0.03666681;0.06802939;0;
23041.26;16812;162.158;26887.31;-2.345378;1.75081;24191.24;12855.93;0.1665646;-0.06197365;0;
5318.284;4014.89;478.7733;6089.047;-2.14195;4.026409;5276.049;2757.772;0.4262666;0.0680233;0;
-27335.37;-21536.47;423.6166;-30131.87;-1.737656;0.539312;-28540.62;-17169.65;0.2959037;-0.1919144;0;
-28805.4;-22024;-50.30538;-32539.49;-2.070703;-0.5998787;-29869.87;-16206.1;-0.3540671;-0.1267542;0;
-27376.08;-21194.26;-198.6021;-30815.75;6.638915;5.495988;-28298.88;-15737.56;-0.4186787;0.3281445;0;
-32310.22;-25726.89;-339.8627;-36267.5;10.71808;5.289577;-33341.86;-20682.25;-0.418258;0.06794543;0;
-2010.686;-686.9614;-571.2641;-4190.651;6.621474;6.288946;-2288.701;-640.813;-0.3528704;0.1328445;0;
22542.67;16973.15;-404.8047;25381.84;8.422506;7.086421;23555.33;13058.38;0.2971576;0.06774367;0;
20752.11;14460.38;-26.11939;24998.45;14.77803;-2.097178;21979.97;10724.69;0.4917611;-0.1921938;0;
20336.27;14644.53;88.88031;24082.34;17.64357;-4.439412;21433.09;11139.11;0.2313976;-0.3869027;0;
23293.35;17043.96;134.6898;27169.63;17.02263;-5.238685;24452.37;13082.7;0.1661977;-0.7113506;0;
5871.206;4441.538;481.1147;6728.496;16.33594;-7.51078;5850.868;3132.55;0.3609327;-0.1908971;0;
-26751.99;-21042.95;440.6201;-29553.23;24.82599;-4.957943;-27955.07;-16745.5;0.3605701;0.1341314;0;
-27867;-21110.58;-29.18048;-31714.52;25.60435;-4.818995;-28976.98;-15381.94;0.1653057;-0.3207748;0;
-26447.93;-20312.81;-131.8027;-29965.7;21.29172;-4.680248;-27415.4;-14907.14;-0.2896318;-0.3854198;0;
-32372.3;-25785.17;-255.4674;-36367.46;22.14196;-4.072699;-33410.88;-20692.67;-0.6141774;-0.1901305;0;
-2359.939;-995.521;-526.6836;-4593.424;3.631932;-1.590299;-2643.72;-891.1619;-0.4186583;-0.1249721;0;
22544.28;16993.2;-394.0645;25350.44;-2.868452;-0.3830086;23550.57;13093.1;-0.2233356;0.005088153;0;
20700.68;14401.31;-7.768821;24944.35;3.698514;-1.789265;21929.41;10647.24;-0.2880785;0.07005038;0;
20239.01;14552.32;118.2538;24002.26;0.3458947;-2.189304;21338.69;11052.04;-0.2228217;-0.2548567;0;
23186.33;16927.62;120.946;27022.91;9.92374;-1.718285;24342.26;12951.5;-0.02769579;-0.05969861;0;
5976.565;4489.999;429.8411;6714.199;13.73216;-2.386327;5945.506;3160.419;0.4920708;0.5250674;0;
-26008.13;-20323.48;414.8852;-28840.05;5.411993;-3.79057;-27223.74;-16042.48;0.7514457;-0.06016621;0;
-26899.85;-20157.45;-19.75092;-30686.54;6.411909;-3.652796;-28045.3;-14625.11;0.3608866;-0.4499098;0;
-25433.45;-19287.35;-117.838;-28923.9;8.414222;-9.476519;-26434.35;-14044.76;0.2305893;-0.05965368;0;
-30998.49;-24451.99;-237.8311;-34934.98;7.937253;-10.47168;-32037.83;-19456;0.3602923;-0.1895284;0;
-1366.159;-183.2176;-492.4796;-3486.664;16.36937;-8.183799;-1639.063;-294.2003;-0.1598085;-0.5141747;0;
22715.14;17085.13;-347.042;25582.37;19.23233;-8.309542;23729.16;13150.99;-0.2895826;-0.123854;0;
20916.3;14632.67;29.97673;25185.6;10.84027;0.07149159;22147.66;10889.42;0.0355451;0.3960092;0;
20644.97;14958.78;128.7876;24378.66;9.824995;3.219496;21737.65;11455.72;-0.1593926;0.3956113;0;
23632.7;17349.59;137.1539;27582.07;11.02057;3.216261;24801.84;13372.87;-0.1592325;0.3302464;0;
7278.774;5658.602;462.0402;8402.294;10.13884;4.753636;7303.089;3955.456;0.3606662;0.1999799;0;
-24272.79;-18654.52;417.1295;-26919.4;11.60252;6.892252;-25458.99;-14723.32;0.1654018;-0.3849271;0;
-25713.76;-18948.95;-38.77942;-29519.34;12.72994;8.024037;-26866;-13606.47;-0.2895358;-0.4495077;0;
-24629.96;-18489.99;-119.4499;-28063.02;6.42051;3.461196;-25624.02;-13419.59;-0.2242775;0.07068272;0;
-30623.87;-24080.42;-243.1895;-34520.71;3.734741;2.653984;-31657.07;-19103.8;-0.4189542;0.3304811;0;
-1141.481;25.51586;-518.7752;-3242.224;15.51998;-1.166649;-1420.445;-175.4398;-0.7433699;-0.05965506;0;
23127.14;17504.3;-373.7172;25994.65;17.11198;-2.773006;24137.31;13541.58;-0.3528189;-0.3844318;0;
21386.44;15094.32;0.7983488;25660.52;12.33839;-2.368322;22624.6;11345.24;-0.2225297;-0.1241762;0;
21149.4;15475.44;102.106;24871.21;11.6564;-3.370686;22240.38;11986.78;-0.1573388;0.135818;0;
24136.48;17822.29;122.54;28135.42;8.965375;2.861991;25316.99;13834.8;0.167656;-0.05922053;0;
8638.537;6815.19;454.8591;9954.294;7.282403;4.533628;8709.711;4745.004;0.2974223;-0.3839977;0;
-21756.56;-16238.2;440.9557;-24340.51;1.045795;6.471517;-22941.35;-12759.17;0.03725403;-0.3186446;0;
-23068.17;-16281.96;-1.202858;-26913.35;-1.835644;8.340536;-24272.06;-11640.97;0.0372166;-0.05845501;0;
-21930.69;-15761.12;-107.9917;-25389.59;-7.862019;6.523616;-22964.72;-11271.45;0.6218853;-0.2532983;0;
-27893.3;-21421.66;-224.3871;-31813.95;-13.94969;6.24913;-28939.88;-16595.66;0.2964237;-0.4479458;0;
559.8617;1438.943;-476.5036;-1424.96;0.9338077;5.640004;303.4967;922.2942;-0.6134169;-0.05769166;0;
23686.75;17941.69;-346.9491;26648.02;4.14805;4.76362;24717.83;13890.97;-0.4828659;0.2022357;0;
21791.63;15535.61;7.190476;26044.48;-12.60161;3.151243;23026.15;11840.71;0.1023254;0.07209779;0;
21610.11;15928.73;109.6942;25315.03;-14.46398;3.817906;22697.86;12416.3;0.2321572;-0.1228767;0;
24480.52;18155.49;130.2611;28492.67;-11.70278;-5.63028;25667.91;14184.46;0.1669566;-0.3176552;0;
9584.052;7645.362;465.1805;10940.93;-12.4953;-8.437844;9667.802;5333.571;0.2317562;0.007500647;0;
-19911.76;-14454.09;470.4759;-22559.64;-7.927421;3.02441;-21107.78;-11315.72;-0.1582807;0.07246045;0;
-21023.87;-14187.35;44.13907;-24992.6;-5.575906;4.160081;-22248.89;-10183.15;-0.5479257;-0.1225144;0;
-20065.54;-13832.42;-52.12254;-23616.91;-6.373611;10.5191;-21110.63;-9917.106;-0.1575711;-0.05742394;0;
-26457.38;-20038.74;-163.967;-30464.35;-4.693244;13.72371;-27508.44;-15250.85;-0.0274781;0.007601104;0;
1339.405;1988.521;-432.1986;-654.025;-0.9374834;12.50422;1095.715;1386.826;-0.1573852;0.07256081;0;
24023.23;18198.95;-330.7839;26994.94;0.5373271;14.36718;25059.26;14100.9;0.1026423;0.2024226;0;
22109.69;15875;4.661312;26340.27;5.091138;6.716815;23340.19;12210.32;-0.2872649;0.3321539;0;
21991.02;16309.85;112.8679;25669.67;6.962033;4.298741;23075.35;12777.83;-0.6118129;0.07195076;0;
24838.79;18494.34;134.228;28861.08;5.749589;5.634019;26034.1;14546.5;-0.2863615;-0.2529582;0;
10545.94;8367.837;449.8094;11974.38;7.216704;4.95859;10671.55;5843.865;-0.2211064;0.07213263;0;
-18449.01;-13151.76;465.2089;-21087.71;-0.6938013;-1.007752;-19621.03;-10310.86;-0.1559169;0.00709281;0;
-20074.27;-13184.32;83.58929;-24086.32;-3.037629;-3.351081;-21312.28;-9437.042;-0.02582552;-0.122849;0;
-19651.88;-13421.54;0.2658924;-23206.39;1.31968;5.761721;-20702.83;-9739.09;-0.09076691;0.1371438;0;
-26236.01;-19815.04;-122.86;-30245.37;0.2466271;7.899386;-27289;-15118.77;-0.0906757;0.00707132;0;
1351.292;2026.11;-384.5112;-650.9931;5.001801;8.829209;1098.848;1344.625;-0.1555519;-0.05790313;0;
23868.05;18042.24;-300.6824;26838.38;7.006507;11.96841;24902.58;13911.99;-0.09042829;0.2020244;0;
22003.62;15777.73;-2.608086;26233.78;1.707206;11.62147;23237.91;12146.25;-0.2202721;-0.1879826;0;
21916.75;16232.7;100.8425;25608.04;0.9685561;13.61928;23001.29;12684.3;-0.1550834;-0.2527611;0;
24680.34;18339.65;139.6279;28706.51;3.981693;15.14608;25876.6;14403.89;0.2998438;0.137297;0;
10298.76;8130.531;460.8105;11722.59;3.375456;16.20259;10414.68;5703.341;0.3645098;-0.05774304;0;
-19190.54;-13906.71;461.0971;-21782.76;5.515518;18.53071;-20376.31;-10926.75;0.03930686;-0.1876197;0;
-20919.21;-14033.6;50.4337;-24879.38;7.38501;18.78003;-22155.7;-10106.23;-0.02569997;-0.2523985;0;
-19985.02;-13781.42;-49.33248;-23513.83;-2.736467;22.98096;-21038.83;-9966.074;0.1692279;-0.3820796;0;
-26848.54;-20387.52;-153.2619;-30793.74;-4.140237;24.63232;-27912.82;-15590.59;0.03912315;0.1380431;0;
589.6733;1431.101;-390.8634;-1360.874;-3.733936;17.70857;331.6576;892.4412;-0.2857529;0.4627411;0;
23739.22;17972.32;-291.3642;26711.84;-6.677921;16.15017;24771.21;13872.25;-0.1555311;0.007504703;0;
21906.75;15660.77;19.21009;26147.05;9.605763;16.73679;23138.69;12017.46;-0.3502768;0.0724645;0;
21680.37;15998.28;107.5995;25382.82;14.68633;15.31333;22766.48;12469.9;-0.5448269;0.3972284;0;
24623.99;18288.75;134.1186;28653.55;3.284715;14.09237;25816.03;14346.98;-0.02454069;0.1369599;0;
9977.751;7923.103;474.1254;11438.04;3.549834;12.33665;10084.71;5573.751;0.1054186;-0.3829165;0;
-19715.98;-14347.87;469.9008;-22256.75;2.675611;12.92711;-20890.76;-11240.81;0.2352474;-0.7723357;0;
-21220.14;-14354.4;46.31324;-25159.97;-0.4758847;11.37351;-22441.68;-10299.95;0.1700437;-0.446723;0;
-20273.39;-14073.19;-32.77169;-23781.7;7.830965;9.888456;-21321.17;-10163.47;-0.08999654;0.008497267;0;
-27138.63;-20660.6;-144.62;-31078.45;8.157889;7.735188;-28198.56;-15825.85;0.2998979;-0.2513807;0;
453.0596;1344.249;-414.3391;-1552.442;-2.634926;6.387757;185.5842;852.866;0.5594659;-0.3160954;0;
23607.51;17869.84;-314.4259;26547.31;-6.315974;5.041741;24633.05;13788.66;0.1690998;0.009058931;0;
21837.79;15585.43;6.760027;26084.4;-7.716147;-1.728479;23073.82;11936.29;-0.2858416;0.2039519;0;
21698.49;16021.31;108.9362;25399.46;-10.38771;-2.999357;22785.45;12493.58;-0.3505217;0.3336816;0;
24531.91;18199.34;138.9991;28555.07;-13.59245;-10.02943;25725.88;14263.74;-0.02533275;0.2034117;0;
10010.22;7952.478;471.3642;11416.4;-13.44508;-13.03346;10106.71;5557.305;0.2995294;0.07327256;0;
-19578.19;-14223.76;492.7702;-22172.82;-23.2772;-4.647742;-20772.25;-11184.18;0.2992284;-0.05673574;0;
-21426.63;-14559.57;80.076;-25369.95;-27.20593;-3.973243;-22651.58;-10458.44;0.1040258;0.2031906;0;
-20703.47;-14507.34;-23.92098;-24215.25;-7.486341;4.269467;-21742.99;-10564.08;0.1688886;0.3978885;0;
-27803.12;-21284.77;-128.891;-31755.88;-3.392982;8.752973;-28853.73;-16358.34;-0.1561178;0.07265198;0;
-308.4242;705.6537;-385.1795;-2354.247;-3.121153;5.127099;-575.5582;406.5206;-0.2209283;0.07257898;0;
23280.11;17584.34;-301.4906;26181.79;0.9004711;6.997469;24300.34;13527.55;0.2340651;0.5272775;0;
21667.65;15402.66;12.45155;25905.75;-1.980822;4.579113;22905.43;11743.97;-0.1559742;0.3318456;0;
21397.3;15724.17;113.9505;25089.24;-0.3712411;3.301837;22486.89;12197.42;-0.2207848;-0.1232592;0;
24359.9;18029.1;131.4366;28366.89;-5.12629;6.98252;25551.46;14097.08;0.2342084;-0.3180374;0;
9764.168;7746.217;458.718;11151.12;-6.661381;7.645333;9859.057;5432.746;0.1690058;-0.1877832;0;
-20443.71;-15071.41;469.642;-23032.94;-3.774299;0.8724965;-21628.79;-11893.68;0.2987706;0.3321443;0;
-22704.09;-15844.75;43.11864;-26652.65;-4.373719;-0.8028925;-23918.59;-11318.54;0.2335031;0.2668432;0;
-22084.93;-15932.82;-60.24775;-25592.61;-3.096527;-0.1322564;-23114.15;-11634.38;0.03836644;0.07167304;0;
-29372.88;-22805.12;-179.9083;-33355.03;-3.763001;-3.079312;-30424.44;-17808.69;-0.0916068;0.2015357;0;
-1446.983;-184.5444;-439.6281;-3671.213;4.076685;6.1002;-1749.642;-323.4658;-0.1564821;0.1363659;0;
22871.37;17290.39;-321.683;25658.44;8.092053;7.098815;23867.26;13289;0.4283812;0.2011962;0;
21427.71;15128.55;14.97123;25694.42;1.72091;-0.2092748;22670.29;11432.93;0.4929181;0.395896;0;
21147.83;15484.25;124.4324;24851.48;5.737669;-1.146826;22237.99;11980.13;-0.3521526;0.4604656;0;
24148.72;17820.14;150.6691;28159.23;0.976481;-8.044732;25339.98;13870.97;-0.4817334;0.005231516;0;
9436.851;7436.894;464.4225;10837.33;3.453746;-10.04614;9532.784;5190.043;-0.09144535;-0.1247084;0;
-20935.34;-15548.59;449.8379;-23487.53;9.545845;-15.05964;-22117.84;-12276.6;-0.02638612;0.2002536;0;
-22801.56;-15945.84;29.40949;-26703.43;9.134111;-17.85767;-24010.08;-11462.43;0.1035751;0.2000524;0;
-21794.5;-15635.65;-49.50229;-25260.1;43.01708;-11.74446;-22823.35;-11414.13;0.4283077;0.004949337;0;
-29563.46;-22992.59;-176.4044;-33481.89;53.15526;-11.5987;-30619.75;-17926.45;0.168008;-0.254925;0;
-1796.046;-519.2443;-460.0844;-3978.419;46.20297;-2.477606;-2101.898;-529.7971;-0.02706286;-0.3846035;0;
22946.85;17379.86;-344.2582;25747.14;52.31849;1.945696;23944.58;13401.19;-0.2219377;0.1355217;0;
21537.68;15226.63;10.55013;25814.75;31.50194;-0.4006009;22782.17;11515.79;-0.286682;0.4602222;0;
21154;15498.28;125.7004;24869.32;25.97793;2.680895;22242.44;12007.85;-0.6112307;0.2648577;0;
24273.23;17929.49;132.8048;28294.21;22.6693;-0.536858;25469.02;13976.5;-0.7405512;0.1346569;0;
9907.94;7765.088;453.6663;11298.67;13.2694;-0.3353698;10006.99;5482.745;0.1697357;-0.1253478;0;
-20300.55;-15018.11;468.1248;-22841.17;25.91572;1.004565;-21489.32;-11806.09;0.2994998;-0.1901892;0;
-22478.08;-15604.59;41.60297;-26330.19;24.01367;0.2667432;-23688.83;-11178.4;-0.4804092;0.2647734;0;
-21457.2;-15302.92;-40.00721;-24887.52;19.76998;3.682544;-22485.01;-11080.43;-0.5448939;0.3294747;0;
-28920.74;-22339.31;-138.4019;-32780.72;21.42505;3.477895;-29969.89;-17362.93;-0.3494443;-0.06066047;0;
-1410.976;-85.84767;-421.7297;-3507.483;4.188547;5.684776;-1706.942;-289.5553;-0.02425647;-0.3204689;0;
22898.5;17339.99;-336.255;25729.74;-0.1015931;6.884757;23896.31;13324.96;0.1057026;-0.3201469;0;
21557.3;15248.69;-3.396742;25830.48;5.256167;-0.8250155;22803.34;11568.85;0.04062904;-0.1898905;0;
21357.46;15699.85;121.0597;25064.63;2.036681;-3.034562;22449.54;12190;0.2354902;-0.1247324;0;
24262.42;17925.78;152.5316;28295.34;12.54986;-2.227779;25459.49;13991.93;0.4301556;-0.1895744;0;
9843.56;7799.038;453.8362;11312.1;13.47525;-4.101002;9963.172;5472.055;0.2997887;-0.4492532;0;
-20279.07;-14913.92;443.2758;-22757.41;18.08341;-5.168547;-21434.23;-11728.42;0.2345202;-0.3188671;0;
-22594.19;-15719.86;33.03644;-26452.63;25.7684;-7.239824;-23783.22;-11199.34;0.4941539;0.3311267;0;
-21533.82;-15380.32;-48.84624;-24964.79;-5.270223;-6.160823;-22539.8;-11136.78;0.5586247;0.4607286;0;
-29326.02;-22745.55;-173.7187;-33220.94;-10.89101;-6.757479;-30365.22;-17656.28;-0.02664269;0.330331;0;
-2045.942;-692.613;-458.1511;-4271.66;1.644892;-9.028048;-2363.114;-663.3196;-0.3514526;0.2650318;0;
22713.89;17188.19;-348.074;25463.03;-3.91549;-8.41613;23697.35;13216.75;-0.1561975;0.2647654;0;
21394.78;15074.57;-7.520258;25674.67;26.43061;-16.44544;22644.51;11363.62;-0.2210079;0.3944341;0;
21069.79;15418.49;95.20129;24763.43;35.31266;-18.63929;22158.18;11921.62;-0.4806551;0.1991357;0;
24316.7;17971.66;119.6714;28339.66;12.57082;-10.85073;25516.59;14033.61;-0.2852702;-0.1908684;0;
10160.48;8036.725;467.0327;11636.36;13.42885;-9.366261;10297.04;5634.784;0.1697879;-0.1906766;0;
-20179.27;-14863.03;494.6119;-22678.2;1.961151;-7.28044;-21334.05;-11798.01;-0.0902521;-0.1255177;0;
-22641.87;-15764.59;56.00698;-26545.66;-4.069039;-5.129671;-23857.1;-11322.78;-0.2200961;-0.1903589;0;
-21517.27;-15374.42;-65.50387;-24985.8;2.365411;-1.373594;-22554.93;-11205.5;-0.2198749;-0.450037;0;
-29549.96;-22961.87;-192.6397;-33458.33;-1.053218;1.641957;-30609.15;-17907.98;-0.6744254;-0.2546828;0;
-2272.991;-897.7519;-473.633;-4531.972;5.579273;-1.842744;-2600.078;-861.4633;-0.2839437;0.3952465;0;
22733.16;17210.64;-380.0008;25446.95;7.984564;-2.041841;23711.12;13235.16;0.3010477;0.13498;0;
21512.55;15191.36;-36.01039;25800.94;-2.271237;2.31404;22762.22;11485.97;0.4306799;-0.1899923;0;
21269.5;15617.6;103.1434;24970.28;-4.010267;3.450364;22356.55;12116.39;0.3652798;0.07006796;0;
24388.14;18041.4;129.0735;28424.71;3.830643;-0.9738549;25588.58;14113.84;0.1700107;-0.1249045;0;
10274.45;8148.973;435.9614;11802.75;5.098616;-1.642706;10418.32;5718.889;0.1698399;-0.3846483;0;
-19975.39;-14661.71;452.9833;-22435.01;1.343425;-0.9712257;-21133.79;-11615.87;0.2346366;-0.5791638;0;
-22939.62;-16070.15;32.62982;-26807.54;1.006306;-1.908011;-24157.87;-11430.3;-0.09043588;-0.3836799;0;
-22004.07;-15872.92;-70.66356;-25424.8;2.881305;0.5722138;-23033.43;-11524.71;-0.285247;0.3963138;0;
-29609.39;-23015.63;-180.1313;-33483.55;4.151207;-0.0311466;-30670.33;-17988.75;-0.4798625;0.4608829;0;
-2241.354;-839.4926;-458.9819;-4445.158;-0.8094565;2.112278;-2571.726;-825.3416;-0.3494456;-0.05931897;0;
22672.73;17162.38;-354.0107;25427.36;-1.278134;2.846906;23652.71;13188.38;0.495481;0.005707973;0;
21518.04;15190.71;-1.472656;25798.03;0.7328826;-1.91162;22765.28;11484.73;0.1051791;0.2006043;0;
21240.75;15588.12;105.069;24934.84;-0.6080005;-1.641768;22326.12;12084.93;-0.6745347;0.1354354;0;
24361.5;18013.23;113.3967;28396.88;11.78482;-8.338228;25562.13;14081.15;-0.2190855;0.005364583;0;
10309.24;8166.192;425.8444;11840.67;16.26096;-10.33928;10450.1;5770.907;-0.08893073;-0.1895428;0;
-20110.1;-14810.72;440.4714;-22566.5;7.001216;-5.104342;-21273.85;-11721.85;-0.1538087;0.1354843;0;
-23199.76;-16330.64;20.06808;-27098.16;8.400701;-5.166195;-24424.83;-11598.82;0.4310519;0.3302502;0;
-22242.41;-16120.97;-88.49128;-25712.93;4.774938;2.608833;-23275.68;-11672.56;0.3656514;0.1999837;0;
-30002.68;-23400.26;-203.5788;-33921.02;3.296271;5.687304;-31054.14;-18321.45;0.04044733;0.2647501;0;
-2561.964;-1120.375;-472.5671;-4808.627;11.06347;5.078804;-2885.423;-1042.153;-0.3493974;0.1995167;0;
22659.95;17172.34;-352.9803;25388.46;11.98938;7.418043;23636.66;13224.57;-0.1541443;0.004414232;0;
21552.08;15215.12;-7.408481;25819.46;14.32186;3.458657;22801.23;11486.44;0.300782;0.1993118;0;
21256.14;15610.56;87.95728;24940.46;15.11175;2.517482;22343.55;12125.36;-0.02435692;0.06917687;0;
24365.96;18010.76;107.2654;28392.9;17.24002;4.926277;25569.28;14073.45;0.2355369;-0.2557293;0;
10596.9;8314.15;440.006;12074.66;18.15973;4.586412;10732.28;5883.233;0.6900716;-0.1255377;0;
-19243.08;-14068.69;469.3457;-21776.2;11.77847;1.433667;-20416.99;-10995.81;0.03970484;-0.06044422;0;
-22437.36;-15542.45;52.84886;-26364.19;9.824247;0.3604992;-23652.37;-11012.35;-0.09026974;0.3294206;0;
-21953.31;-15814.58;-56.27441;-25436.34;7.5372;-0.8454948;-22977.54;-11578.94;0.104723;0.5239916;0;
-29759.37;-23141.48;-175.6578;-33699.51;6.123107;-2.519158;-30816.52;-18098.11;-0.2851863;0.2635957;0;
-2381.461;-859.6343;-451.1865;-4644.89;-0.5818262;0.9663641;-2712.617;-876.2458;-0.4148344;0.2633308;0;
22728.54;17284.39;-343.1935;25446.25;-4.197588;1.233325;23699.65;13308.13;-0.2844829;0.1331316;0;
21711.38;15355.83;-5.721189;25997.97;6.389201;-0.3754437;22964.3;11640.39;-0.2192297;-0.3217736;0;
21449.5;15810.49;88.70585;25128.29;8.659957;0.0268311;22532.96;12323.56;-0.2839768;-0.1915156;0;
24630.32;18266.36;101.5165;28680.8;4.029555;-4.460991;25838.37;14339.97;-0.3486588;0.1984809;0;
11245.27;8891.616;438.7449;12874.04;3.959133;-6.599902;11420.04;6294.973;0.1714303;0.1333141;0;
-18288.05;-13125.71;480.5953;-20711.45;13.80079;-2.775304;-19447.98;-10338.67;0.171258;0.3280822;0;
-21136.81;-14224.66;67.36674;-25026.75;18.47598;-3.576311;-22370.67;-10203.62;-0.02381607;0.3927199;0;
-19992.5;-13807.73;-39.42855;-23434.08;6.869484;-4.77841;-21032.6;-9987.677;0.2360772;0.2623906;0;
-27877.14;-21338.08;-141.5719;-31745.91;6.72886;-5.309411;-28936.84;-16353.92;0.1708727;0.1321923;0;
-1324.318;-152.6044;-414.1051;-3436.753;10.20472;-9.99282;-1620.434;-289.3042;0.170701;-0.12781;0;
23163.85;17564.47;-331.1212;25962.64;9.323813;-12.05919;24160.77;13546.52;0.1055621;-0.3225836;0;
21949.45;15634.61;0.4513014;26226.38;21.03609;-11.71216;23197.62;11943.58;-0.3493153;-0.1923247;0;
21733.15;16091.74;103.7739;25424.93;25.57028;-12.57111;22816.55;12595.03;-0.08909498;-0.1921315;0;
24859.63;18484.22;119.0525;28934.37;18.64474;-15.3717;26071.9;14576.07;0.8205373;-0.1269711;0;
11977.59;9417.479;453.0462;13648.84;19.22922;-16.16005;12174.41;6657.148;0.7547454;-0.06187617;0;
-16673.4;-11657.85;497.0999;-19095;22.89359;-14.00042;-17826.38;-9181.849;-0.220523;-0.256716;0;
-19501.67;-12530.36;101.6583;-23434.01;22.93793;-12.64669;-20763.48;-9062.24;-0.2852688;0.06837863;0;
-18529.6;-12324.38;6.931817;-22000.06;24.32141;-12.23215;-19587.46;-8957.948;0.299724;0.3281793;0;
-26442.24;-19908.21;-96.19519;-30341.97;24.22962;-10.61226;-27517.72;-15035.28;0.1045208;-0.06195451;0;
-591.0894;546.7686;-370.5856;-2704.47;21.9281;-5.912918;-904.7148;234.5673;-0.09048627;0.06804243;0;
23232.15;17621.34;-305.9799;26053.34;21.57127;-3.093754;24227.92;13554.04;0.2344414;0.2628761;0;
22082.39;15770.26;-4.808012;26361.81;13.51164;-0.8802699;23333.29;12120.89;0.2991731;0.1326773;0;
21885.45;16245.84;107.2186;25560.1;9.144787;1.397973;22963.35;12726.01;-0.1558989;0.1975113;0;
24987.12;18608.33;121.9628;29057.3;17.30727;3.205047;26203.87;14728.14;-0.2207096;0.2622802;0;
12581.13;9868.69;423.22;14279.06;17.62467;4.340536;12803.66;6996.693;-0.02558577;0.002147262;0;
-15940.71;-11046.64;476.877;-18362.96;8.899427;4.738072;-17083.69;-8752.549;-0.1554947;-0.06282224;0;
-18857.74;-11876.27;104.6003;-22819.68;5.943724;4.800294;-20130.92;-8671.354;-0.2852732;0.2620776;0;
-17553.5;-11317.22;23.12985;-21045.35;12.76928;2.852966;-18622.43;-8207.104;-0.2200192;0.1968469;0;
-25669.6;-19178.97;-64.02147;-29569.82;14.43139;1.979382;-26739.41;-14317.39;0.04007124;0.001747098;0;
-249.2432;694.1152;-348.5485;-2342.292;4.972415;-1.907556;-536.8389;375.9446;-0.02493636;0.4565167;0;
23482.23;17790.75;-300.2848;26298.18;4.364207;-4.584895;24486.19;13702.77;-0.2847807;0.5859927;0;
22218.48;15930.41;12.25058;26486.43;4.628241;-2.838732;23467.18;12296;0.1702769;0.06566516;0;
22038.74;16396.8;132.2092;25711.02;3.217071;-4.242521;23120.21;12881.11;0.3000405;-0.1293028;0;
25109.6;18731.29;137.6985;29188.39;11.85403;-4.171276;26329.96;14862.81;0.1698043;0.06572911;0;
12998.32;10116.39;434.5984;14751.7;12.98119;-3.899153;13244.76;7173.356;0.1046663;0.2605651;0;
-14850.91;-10104.99;488.2439;-17247.67;16.45077;-9.119781;-15981.12;-7989.78;-0.3502102;0.06540125;0;
-17902.66;-10902.78;126.2007;-21887.72;18.71142;-10.1153;-19180.1;-7994.886;-0.1549563;-0.3244685;0;
-16682.42;-10416.79;50.86165;-20204.51;10.18615;-9.368385;-17741.41;-7520.259;0.4299055;-0.2591752;0;
-24130.39;-17692.98;-43.48581;-28074.39;8.099811;-10.63159;-25203.94;-13041.53;0.03966944;-0.06401271;0;
907.2862;1677.01;-321.2087;-1170.702;7.287389;-4.123743;613.4236;1047.964;-0.2852071;0.001018959;0;
23605.01;17844.99;-260.7912;26467.94;5.940896;-2.31106;24619.65;13709.33;-0.1549859;0.1309526;0;
22200.68;15940.5;40.78814;26465.22;-0.1606425;-5.12196;23451.28;12361.35;-0.1548301;0.000886353;0;
22082.18;16430.43;132.9664;25756.02;-1.567001;-3.509284;23162.74;12890.67;-0.4795113;0.06585281;0;
25016.29;18643.85;126.4766;29092.56;0.1095133;-10.20387;26236.41;14800.42;-0.5439968;0.1957213;0;
13123.05;10176.86;434.2885;14838.04;1.046432;-12.73891;13367.58;7239.158;-0.4135155;0.1305573;0;
-14514.37;-9846.059;492.4164;-16920.32;1.714966;-2.410978;-15638.72;-7724.504;-0.02329595;-0.06447589;0;
-17483.4;-10485.98;115.0486;-21466.54;-0.8313765;-0.3321455;-18760.47;-7665.565;0.3665315;-0.1943458;0;
-16115.96;-9851.179;49.544;-19635.96;22.34433;-4.216761;-17181.29;-7086.994;0.3011959;0.06571885;0;
-24212.61;-17784.52;-13.94264;-28136.94;26.87721;-2.872865;-25298.18;-12923.72;0.04102386;0.3255222;0;
334.1261;1106.768;-307.0782;-1797.426;8.162331;-3.338859;10.14279;793.4432;-0.1539194;0.1302931;0;
23591.99;17855.42;-278.2058;26387.13;2.125909;-2.665675;24586.59;13761.97;0.1061046;-0.06473987;0;
22413.18;16151.06;19.39301;26698.15;-2.230484;-0.05072295;23671.83;12544.42;0.3009;-0.1296422;0;
22293.94;16646.41;110.5777;25957.06;-7.65325;0.2842427;23372.42;13129.3;-0.3490757;-0.06454455;0;
25438.01;19067.64;103.3764;29534.15;-31.55834;8.254743;26665.25;15235.73;-0.348725;0.0004876428;0;
13770.22;10662;421.1128;15675.21;-38.7603;12.06435;14071.23;7618.644;0.1713642;-0.06448019;0;
-13600.6;-9077.27;496.2454;-15869.72;-55.60057;5.956907;-14684.94;-7175.079;0.04125731;0.0005519429;0;
-17038.4;-10017.56;138.6138;-21022.34;-66.8642;6.955665;-18312.03;-7390.242;0.1061832;0.3253881;0;
-16634.8;-10367.17;50.01895;-20139.33;-32.10157;6.546778;-17685.58;-7732.594;-0.08882552;0.1951265;0;
-24728.46;-18235.55;-62.72466;-28623.42;-26.44226;5.736405;-25797.92;-13513.15;-0.413573;0.3248651;0;
334.409;1257.174;-355.1552;-1764.141;-16.90485;11.22312;19.69101;781.0479;-0.2832227;0.389506;0;
23605.41;17910.12;-328.093;26413.5;-5.232585;11.27883;24602.36;13789.71;-0.2179708;0.1292453;0;
22496.39;16216.93;-45.18667;26759.94;-16.7479;13.61189;23751.29;12643.53;-0.1527845;0.3240174;0;
22482.48;16844.11;65.14705;26134.36;-12.98101;14.40189;23558.23;13317.18;-0.2825656;0.2587245;0;
25583.51;19210.47;65.81559;29675.8;-13.30276;9.564771;26809.68;15396.56;-0.2173143;0.1934972;0;
14000.3;10843.96;381.4658;15917.96;-13.22204;8.952435;14293.33;7798.952;0.172708;-0.1965013;0;
-13570.76;-9099.309;462.6508;-15831.3;-11.40009;3.584867;-14673.25;-7177.814;-0.1523022;-0.4561732;0;
-17028.49;-10018.5;108.1296;-21060.63;-11.79078;1.102957;-18313.34;-7434.844;-0.2171165;-0.0009434553;0;
-16277.2;-9994.92;40.8984;-19845.69;-8.430031;0.9678828;-17333.95;-7487.921;0.3678077;0.1289922;0;
-24620.11;-18142.65;-45.39621;-28532.03;-7.751975;-1.645363;-25684.92;-13346.62;0.04260145;0.1938299;0;
198.8372;1050.409;-332.55;-1898.689;-3.792071;3.781786;-100.568;728.8472;-0.4122128;-0.1312016;0;
23657.97;17932.15;-291.2052;26462.98;-1.644807;3.978935;24658.57;13824.38;-0.2168965;-0.5208738;0;
22455.34;16188.56;1.05002;26721.78;-4.255122;2.032492;23709.73;12613.73;-0.1517112;-0.260481;0;
22344.02;16705.07;95.67328;25997.93;-4.920432;1.896484;23424.01;13192.3;-0.08659147;-0.1302846;0;
25492.06;19122.17;104.7444;29582.07;-0.7632781;-0.38278;26720.39;15314.47;0.04343022;-0.1301537;0;
13987.79;10803.32;436.4724;15869.9;-0.4940914;-0.3823954;14283.31;7739.979;0.1083539;0.06487909;0;
-13318.14;-8872.918;510.9805;-15635.75;-5.919579;-5.87449;-14415.46;-7024.256;0.04327771;0.1947486;0;
-16970.51;-9951.049;150.929;-21006;-7.386523;-6.538416;-18253.54;-7309.098;-0.2166351;0.06461821;0;
-16633.35;-10368.05;67.45988;-20187.31;-9.723625;-7.469546;-17693.46;-7719.591;-0.2813848;0.1295206;0;
-24603.03;-18156.26;-33.5103;-28565.84;-10.65186;-7.997904;-25677.19;-13483.75;-0.4110368;-0.06551154;0;
465.8819;1308.877;-303.4815;-1691.504;-16.8031;-0.1530481;156.7178;763.4611;-0.2806891;-0.5202171;0;
23512.14;17785.51;-254.2012;26307.54;-20.40354;1.722567;24514.05;13657.01;0.3042991;-0.454727;0;
22297.4;16038.06;20.33821;26559;-9.532045;9.088837;23554.02;12499.78;0.239026;-0.2593681;0;
22372.58;16730.18;111.2564;26008.23;-8.45074;12.49571;23450.04;13198.63;-0.2159856;0.0007618723;0;
25380.94;19014.56;118.9845;29462.02;-5.896653;10.20574;26608.16;15229.44;0.1090681;0.2606305;0;
13842.88;10717.89;429.7555;15705.87;-1.202655;10.73135;14138.43;7673.518;0.2388932;0.0004992241;0;
-13851.13;-9344.219;491.152;-16178.71;-16.74051;5.763947;-14933.87;-7397.168;-0.1511509;-0.1944033;0;
-17852.13;-10811.88;123.2962;-21869.27;-19.7378;2.87795;-19116.46;-7807.76;0.04390302;0.1306288;0;
-17089.71;-10834.27;45.33649;-20640.59;-7.795249;-1.947591;-18142.23;-7915.997;0.2387609;0.1954648;0;
-25287.32;-18798.34;-33.26333;-29241.09;-7.386251;-6.031471;-26341.54;-13923.97;0.1085863;0.0003663994;0;
-441.6485;518.2833;-318.4303;-2589.642;-5.100677;-10.3122;-735.0262;298.2988;-0.02145745;-0.06460131;0;
23356.93;17675.79;-287.9224;26138.21;-3.689033;-14.05282;24354.43;13605.33;-0.08640324;0.1303656;0;
22233.82;15959.09;8.468081;26494.44;-7.972234;-14.50758;23492.22;12381.83;0.1735529;0.06526729;0;
22040.62;16409.26;103.8179;25686.71;-9.840234;-16.10053;23124.07;12914.81;0.04344388;0.06520171;0;
25252.73;18889.36;96.34228;29324.37;-5.342368;-15.68245;26480.58;15082.35;-0.2814365;0.0001688551;0;
13735.17;10576.83;427.6882;15550.35;-3.996853;-15.53273;14022.76;7605.149;0.04368302;-0.1947333;0;
-14111.85;-9655.182;517.3226;-16492.71;-18.72957;-13.44071;-15208.98;-7583.144;0.1735738;0.0003643544;0;
-18337.39;-11314.78;135.5882;-22380.98;-22.72924;-11.55175;-19594.1;-8120.016;-0.08646996;0.06533133;0;
-17687.54;-11410.08;23.22709;-21245.66;-19.69229;-12.47784;-18711.49;-8293.313;-0.1513504;-0.3245384;0;
-25257.54;-18812.34;-65.92332;-29263.26;-23.28983;-11.32665;-26319.05;-14023.67;0.108671;-0.1942776;0;
-22.52464;824.6243;-313.1234;-2269.909;-11.34371;-8.502049;-349.3989;447.6668;-0.02137285;0.3256564;0;
23326.65;17608.03;-250.2309;26071.52;-7.380192;-6.95296;24319.18;13553.72;-0.08631872;0.06545977;0;
22129.76;15872.59;24.77308;26404.88;-20.2335;-7.682725;23393.97;12302.76;-0.02126464;-0.129508;0;
22000.09;16366.28;105.2546;25647.74;-20.68168;-7.608023;23081.71;12878.08;-0.151178;0.06552413;0;
25004.93;18640.45;101.6037;29090.91;-15.83813;-4.117388;26237.65;14848.13;-0.08605871;-0.1294437;0;
13580.46;10470.3;412.1268;15454.98;-14.01356;-3.242472;13888.26;7460.309;-0.1509396;-0.1293137;0;
-14127.55;-9591.564;483.2392;-16431.06;-15.33962;-3.574129;-15199.14;-7589.048;-0.2807226;-0.06421639;0;
-17938.05;-10907.42;119.53;-21950.15;-14.65365;-1.561111;-19191.29;-8013.252;-0.3454079;-0.1940866;0;
-16504.26;-10228.23;32.7503;-20064.07;-7.606325;-9.530328;-17542.62;-7415.091;-0.2151261;-0.2588589;0;
-24232.72;-17770.06;-47.91395;-28144.47;-5.85737;-11.59716;-25273.13;-13004.53;0.0449594;-0.3235661;0;
262.1266;1064.131;-303.1437;-1800.666;-0.425501;-2.208081;-13.31331;641.7778;0.1098816;-0.128339;0;
23493.79;17760.25;-260.1575;26321.48;2.119546;-1.134197;24502.86;13675.77;-0.02016352;0.2615941;0;
22279.66;16024.39;22.75873;26562.36;-0.09241048;2.149045;23541.1;12481.62;0.04482408;0.2613312;0;
21974.42;16345.68;129.8071;25646.62;1.246853;4.491228;23057.16;12852.4;-0.2150903;-0.3236375;0;
25087.59;18728.86;122.8519;29189.63;-7.729381;4.352749;26322.7;14965.22;-0.4747436;-0.06344292;0;
14186.49;10867.39;433.6972;16149.89;-10.602;6.893666;14517.92;7763.947;0.1104395;0.1315229;0;
-13020.77;-8715.767;519.8429;-15219.4;-10.18921;0.3225947;-14079.14;-6908.811;0.3701979;-0.193446;0;
-17007.14;-9997.157;150.0062;-21001.6;-13.52787;-0.7494563;-18267.93;-7380.253;-0.2798475;0.1315851;0;
-16278.24;-9996.545;48.07847;-19807.06;-6.07954;3.404117;-17313.25;-7452.954;-0.2145989;-0.06344917;0;
-24415.6;-17940.52;-51.87275;-28292.02;-5.136402;2.998798;-25455.37;-13231.37;0.1104534;-0.4531894;0;
209.7715;1057.063;-331.1958;-1880.95;-9.283451;9.827862;-75.22791;611.2871;-0.01959226;-0.1928647;0;
23541.85;17840.91;-297.8015;26342.97;-8.738259;13.10015;24546.52;13741.9;0.04539476;0.002231089;0;
22445.42;16182.99;-11.38049;26721.96;-11.00665;7.996406;23710.98;12662.49;0.1752838;0.002228847;0;
22377.31;16758.2;107.2744;26030.96;-10.6608;8.993115;23462.89;13263.64;-0.149729;-0.3226101;0;
25433.36;19078.83;109.0407;29538.93;-11.2533;9.988701;26670.77;15334.17;-0.01964387;-0.2573186;0;
14682.88;11199.45;418.1507;16706.67;-10.83985;9.576767;15033.82;8054.372;0.3701799;0.4575807;0;
-12160.9;-8021.209;509.8093;-14319.42;-8.149645;15.86342;-13204.94;-6323.093;0.2398733;0.3271863;0;
-16232.41;-9277.998;145.6829;-20276.92;-7.47187;17.25412;-17486.84;-6865.979;-0.02023711;-0.06294656;0;
-15386.13;-9111.832;59.87645;-19004.4;-0.6992087;15.69617;-16405.8;-6775.293;0.1746852;-0.192818;0;
-23340.1;-16919.31;-6.83771;-27280.99;1.377599;16.81911;-24391.66;-12282.39;0.1745097;-0.4524936;0;
775.3985;1435.723;-284.7224;-1322.629;5.194608;10.57292;472.1485;938.2692;-0.02056765;-0.06223489;0;
23635.94;17866.52;-258.0121;26452.88;8.739362;8.48595;24646.1;13758.96;-0.08551433;0.3276317;0;
22389.98;16155.39;38.89492;26667.05;-0.6465423;12.29533;23655.81;12651.12;0.04450628;0.1973678;0;
22117.65;16494.29;148.863;25777.5;-1.517525;11.34521;23199.33;13001.32;-0.08547312;0.0672348;0;
25211.53;18864.28;128.7704;29319.59;-3.926898;12.07063;26451.75;15128.51;-0.4751913;-0.06276744;0;
14806.84;11287.33;418.386;16825.35;-8.076138;11.6566;15170.97;8121.136;0.1749596;0.2621323;0;
-11847.93;-7757.04;507.5768;-14036.32;2.515525;11.17601;-12876.5;-6124.977;1.019359;0.1319343;0;
-15550.53;-8777.213;150.6678;-19680.18;2.84779;11.63366;-16819.54;-6557.961;0.2387269;-0.4529044;0;
-13989.04;-7877.873;70.80645;-17692.41;0.7014744;5.92854;-15050.96;-5714.433;-0.3462191;-0.2575473;0;
-22029.3;-15665.51;22.02541;-26013.94;2.575804;4.716951;-23105.73;-11166.93;-0.08600181;-0.1923212;0;
1244.073;1725.391;-252.8273;-880.5191;-11.7604;6.252758;942.1448;1052.027;-0.3457848;-0.3220626;0;
23651.09;17819.39;-249.7622;26449.21;-15.96814;6.380441;24662.63;13693.24;-0.475372;-0.06186961;0;
22384.15;16169.06;32.87807;26644.93;-9.455362;5.771183;23649.15;12692.57;-0.409927;0.1330946;0;
22237.8;16613.19;141.7903;25869.29;-11.58932;4.693719;23317.6;13122.63;-0.4744824;0.003026163;0;
25322.46;18977.79;121.6422;29417.77;-5.147309;14.60217;26561.39;15249.63;-0.149169;-0.1269116;0;
14979.14;11362.58;420.0262;17006.87;-2.530169;17.46777;15343.33;8201.343;0.1758176;0.26302;0;
-10888.82;-6872.441;526.6754;-13106.31;-9.426502;11.55584;-11924.05;-5291.385;-0.01926107;0.2627558;0;
-14081.87;-7690.339;183.5371;-18266.91;-7.943162;11.94612;-15357.79;-5704.561;-0.1491764;-0.1273123;0;
-12481.94;-6764.995;106.0009;-16240.6;-13.36019;7.044488;-13561.46;-4805.7;-0.01909182;-0.1921518;0;
-20155.17;-13878.84;70.3498;-24133.26;-15.75864;3.889273;-21238.9;-9676.655;0.0458947;-0.1919587;0;
2641.757;2795.609;-180.0482;629.1658;-3.887434;8.574109;2370.989;1750.376;-0.3439555;-0.06183112;0;
24083.04;18117.19;-185.958;26944.73;-3.011896;7.962647;25111.99;13985.84;-0.2786425;-0.3216383;0;
22766.77;16593.1;50.23526;27031.35;2.215067;6.012142;24029.05;13166.8;0.04647417;-0.4512498;0;
22690.44;17060.7;136.5164;26336.08;6.4324;7.546708;23768.46;13543.81;-0.01853986;-0.1259597;0;
25653.53;19337.45;117.1077;29766.12;-8.175122;-2.909968;26898.53;15673;0.04644611;-0.06086583;0;
16200.54;12111.66;401.2534;18285.56;-10.7125;-5.854232;16588.32;8800.373;0.2413015;0.004162675;0;
-8355.95;-4950.47;529.3949;-10550.81;-7.420186;8.954573;-9384.953;-3673.22;0.3709937;-0.1907435;0;
-11398.43;-5713.563;208.727;-15603.04;-9.287764;12.02667;-12685.94;-4073.56;0.1757189;-0.1255845;0;
-9859.46;-4747.835;132.1026;-13662.38;-7.134978;16.36835;-10986.54;-3265.699;-0.4741311;0.2643457;0;
-17577.47;-11506.37;132.8444;-21546.59;-7.127809;23.38499;-18702.87;-7754.988;-0.733524;0.004210724;0;
4153.407;3842.359;-137.2315;2324.121;-5.781476;10.63498;3922.19;2512.803;-0.3429829;-0.06076085;0;
24545.71;18404.11;-200.9365;27524.02;-3.431142;8.614929;25602.19;14250.1;-0.08276895;0.2641369;0;
23126.44;17042.75;43.11155;27371.51;-9.322192;28.43273;24380.32;13661.41;-0.08268579;0.1339368;0;
23239.04;17581.89;155.3555;26868.09;-10.18348;31.6862;24314.48;14047.44;0.242234;-0.2560018;0;
26092.81;19818.17;159.1506;30210.93;-0.3939849;29.84583;27341.13;16189.31;0.3069579;-0.3856792;0;
17175.68;12695.69;447.3301;19359.61;2.152006;31.89231;17592.85;9323.537;-0.0181872;0.2643817;0;
-6308.156;-3439.887;571.0682;-8439.711;-0.6631951;24.3583;-7337.254;-2310.582;0.5665371;0.1991487;0;
-9383.564;-4290.689;284.232;-13624.75;-1.33309;22.9273;-10710.37;-2890.467;0.8908045;-0.5806595;0;
-8190.106;-3609.249;226.0693;-12029.69;5.367031;19.01925;-9346.788;-2539.457;0.5650728;-0.4501414;0;
-16146.48;-10100.12;214.4572;-20153.49;7.10295;16.25397;-17283.32;-6705.091;0.369603;-0.05988502;0;
4742.858;4358.872;-76.50275;2903.717;-5.362768;19.25174;4521.403;2864.043;-0.02057243;0.005142492;0;
24715.14;18489.84;-175.7353;27687.23;-9.644287;18.69666;25777.47;14326.96;-0.2804211;-0.1247974;0;
23403.46;17389.29;39.23952;27636.98;-6.150996;20.21836;24656.88;14045.58;-0.4750414;-0.319574;0;
23479.96;17798.4;127.4682;27107.54;-8.020826;19.99709;24556.63;14260.62;-0.1497273;-0.3192529;0;
26431.47;20190.18;110.6766;30548.11;-14.71057;25.67043;27680.28;16581.3;0.3701618;-0.1240301;0;
17486.95;12978.58;408.6187;19722.28;-16.97297;27.45317;17921.87;9615.476;0.1748879;-0.0589381;0;
-6418.508;-3602.738;554.822;-8512.434;-18.02764;24.07644;-7433.617;-2503.412;-0.1501246;-0.1888136;0;
-9856.312;-4583.654;267.4555;-14113.34;-19.1486;24.78906;-11182.2;-3067.627;-0.3448758;0.2011802;0;
-9462.804;-4756.85;193.7081;-13252.46;-15.37831;17.86515;-10603.64;-3364.675;-0.01969251;0.3958801;0;
-18122.48;-11994.23;145.2096;-22082.42;-13.68792;16.03866;-19254.66;-8175.984;0.1752293;0.0706456;0;
3657.958;3511.912;-158.9397;1761.936;-12.66979;15.62065;3414.084;2314.072;-0.4746202;-0.05936007;0;
24616.56;18477.77;-206.8965;27548.45;-10.58096;13.93038;25666.54;14342;0.04559544;0.2655363;0;
23378.79;17334.94;24.30468;27626.5;-6.283417;17.06458;24633.62;13976.93;0.5652884;0.7200409;0;
23507.62;17851.37;84.9685;27140.77;-3.129272;16.24364;24583.35;14343.07;0.1749163;0.3295133;0;
26374.92;20132.83;78.72997;30494.72;-2.925057;23.79615;27621.83;16529.13;0.3046752;-0.5153932;0;
17396.49;12895.52;400.2548;19640.22;-0.7786638;26.38457;17833.7;9534.221;-0.1504023;-0.449908;0;
-6463.394;-3634.32;559.8503;-8553.507;-1.313745;20.86558;-7478.929;-2541.591;-0.3451532;0.005315448;0;
-10148.31;-4828.613;281.6461;-14415.09;-1.513496;21.91634;-11477.15;-3248.228;-0.01996967;0.07027745;0;
-9762.613;-4980.542;194.9066;-13572.32;3.712938;13.1198;-10892.06;-3511.486;-0.3447863;0.2001415;0;
-17994.25;-11914.83;143.0648;-21971.81;4.378792;8.953675;-19114.26;-8168.115;-0.4094072;0.2649078;0;
3906.358;3638.471;-153.0552;2011.615;4.575463;17.58535;3662.849;2332.521;-0.3440285;-0.06019513;0;
24593.77;18431.16;-215.4012;27538.65;6.312178;17.23277;25645.59;14301.29;-0.5385848;0.3296694;0;
23261.24;17239.99;26.31884;27503.16;-3.272358;13.46441;24515.5;13905.51;-0.01830494;0.4592728;0;
23244.51;17595.27;125.5862;26876.09;-5.478896;12.37928;24318.53;14084.91;0.0466808;0.00403996;0;
25934.83;19698.49;120.5094;30054.85;-1.187459;11.56304;27181.33;16116.37;-0.01833345;0.39384;0;
17005.14;12569.38;410.2739;19201.85;-2.324366;10.54668;17423.97;9207.268;0.3065217;0.3284769;0;
-6953.412;-4034.975;546.5117;-9073.269;5.715921;8.794526;-7985.633;-2903.026;-0.213525;-0.1266246;0;
-10227.92;-5014.379;255.671;-14477.35;9.125453;8.182965;-11559.36;-3491.359;-0.2782778;-0.256432;0;
-8814.517;-4184.74;174.9857;-12637.19;-0.9977726;4.155828;-9969.471;-3018.383;0.1118058;-0.386109;0;
-17109.06;-11023.33;144.6219;-21051.4;-4.01088;2.343113;-18238.68;-7449.981;-0.2131432;0.004082974;0;
4013.409;3749.358;-138.7091;2231.685;6.107207;5.086998;3803.183;2467.727;-0.5377657;0.3938829;0;
24589.92;18422.76;-192.2303;27577.69;5.431485;4.813954;25656.44;14293.61;-0.4722581;0.1985851;0;
23256.2;17249.88;34.73949;27496.99;0.2020908;5.277998;24504.77;13926.4;-0.3418489;0.0684509;0;
23228.41;17585.52;107.5117;26876;-1.405703;5.205711;24300.57;14091.85;-0.3415054;0.1983168;0;
26073.35;19856.19;106.5916;30201.78;-12.38998;7.142986;27321.26;16286.67;-0.1462602;0.5229542;0;
17300.86;12801.32;416.2507;19548.46;-15.59271;8.341379;17710.25;9436.13;0.4385928;0.4574614;0;
-6283.834;-3490.956;580.3748;-8340.972;-23.74872;2.773597;-7347.507;-2368.906;0.2432501;0.06719773;0;
-9574.94;-4460.006;310.8486;-13808.9;-27.4759;1.565179;-10927.98;-2961.321;-0.08183102;-0.2577065;0;
-8804.218;-4241.929;217.7236;-12602.5;-21.95496;1.630589;-9964.866;-3137.99;0.1131532;-0.06254554;0;
-17447.82;-11348.53;170.4035;-21383.99;-22.40239;-0.1126056;-18595.71;-7805.301;-0.2117972;0.002484651;0;
3778.286;3563.211;-124.9319;1922.975;-8.715847;4.174354;3536.731;2274.385;-0.4714537;-0.2573872;0;
24411.84;18251.78;-205.8438;27347.86;-3.348455;5.308809;25463.2;14125.19;0.1137261;-0.1921612;0;
23152.83;17170.21;20.06213;27392.86;-1.000566;-0.05503828;24406.9;13869.05;0.4384485;-0.3219028;0;
23190.52;17547.69;109.3096;26820.17;4.761216;-0.9257001;24263.83;14058.81;0.1131712;-0.1916447;0;
25963.56;19757.64;91.27128;30084.3;-4.018455;0.6157765;27208.66;16204.02;0.1780249;0.2633193;0;
17104.04;12686.68;385.6097;19353.2;-5.153492;0.1462772;17538.29;9337.966;0.372748;0.13312;0;
-7018.652;-4086.284;533.5695;-9083.822;1.014603;2.22254;-8033.458;-2952.181;0.1125041;0.2629209;0;
-10796.65;-5282.45;241.1489;-15039.82;1.147306;3.024102;-12123.9;-3647.489;-0.2124456;0.3276241;0;
-9818.258;-4935.064;169.911;-13634.38;-2.537542;2.150285;-10967.22;-3594.193;-0.2122322;0.002458151;0;
-18455.01;-12259.98;150.7342;-22453.91;-2.869785;3.688732;-19606.63;-8461.195;0.1128178;0.262325;0;
2870.023;2912.356;-138.8343;906.9996;-5.010355;-1.137623;2593.342;1818.831;0.1776718;0.4569635;0;
24045.1;17970.23;-198.446;26930.66;-6.278119;-2.677088;25079.51;13864.26;-0.1473435;0.391537;0;
22851.11;16845.84;54.96988;27091.57;-3.726215;6.0332;24106.12;13541.08;-0.1471954;0.06630686;0;
22700.62;17077.99;145.8533;26329.61;-5.799552;7.098865;23774.45;13607.92;-0.01711283;-0.1286618;0;
25583.6;19364.96;106.8201;29695.68;3.583398;8.163459;26825;15811.6;-0.1470303;0.3912062;0;
16491.5;12321.16;385.6194;18700.86;4.919944;9.561776;16911.14;9017.602;-0.601654;0.3258458;0;
-8646.229;-5371.869;515.7913;-10717.16;0.02488046;6.136161;-9665.481;-4134.072;-0.0813107;-0.324155;0;
-12967.62;-6874.557;213.6746;-17196.41;2.905244;6.263961;-14292.89;-4945.274;0.3085751;-0.1938946;0;
-11793.59;-6401.79;141.8709;-15564.38;-15.11499;-0.1055897;-12906.02;-4662.07;-0.1465064;0.3910063;0;
-20442.82;-14109.34;96.42301;-24408.05;-16.70739;-3.72244;-21571.16;-9918.038;-0.0164245;0.1957114;0;
1424.673;1844.045;-182.2526;-674.4591;-9.725352;2.644496;1087.672;1065.021;-0.08137534;-0.06435467;0;
23486.82;17592.98;-199.2015;26270.55;-6.165607;1.637156;24484.29;13522.67;-0.536065;0.2605467;0;
22427.76;16364.24;44.98541;26689.88;0.8741621;1.434562;23690.95;13039.01;-0.4055916;0.1303502;0;
22193.1;16604.49;116.8103;25819.46;2.279803;2.370821;23265.25;13165.37;-0.3402168;0.0002845669;0;
25107.99;18871.86;97.4214;29210.94;45.34668;-7.611774;26349.28;15310.34;-0.4048423;-0.06468306;0;
15632.98;11727.05;411.3531;17816.84;61.1086;-10.75226;16041.63;8492.935;0.1153033;0.130284;0;
-10337.52;-6727.764;539.3597;-12381.75;44.90493;-6.722544;-11360.74;-5328.359;0.3750568;0.3900224;0;
-14727.75;-8269.241;207.8434;-18891.37;50.55323;-8.792199;-16039.22;-6128.382;0.1797779;0.1297612;0;
-13230.59;-7505.375;126.2693;-16956.45;33.42215;-5.501323;-14321.11;-5571.907;-0.08027211;0.1945981;0;
-22303.1;-15830.33;62.15891;-26237.44;26.15392;-5.093898;-23421.81;-11296.02;-0.4050282;0.06446789;0;
-89.78542;669.6789;-234.3327;-2267.125;32.22321;-10.71522;-452.0169;287.2927;-0.3396538;-0.1954663;0;
23036.62;17285.08;-239.3133;25750.49;28.17235;-11.50819;24018.53;13262.15;0.2453935;0.06459952;0;
22100.3;15991.35;22.1552;26383.94;18.63222;-16.25229;23366.65;12632.79;0.3101143;0.06453461;0;
21709.58;16144.91;108.2615;25360.51;13.38956;-18.51338;22780.06;12745.77;0.179868;0.1294371;0;
24798.91;18551.07;86.66354;28903.08;18.26525;-16.0834;26038.12;14969.53;0.2446546;-0.06559498;0;
14986.61;11355.85;372.3859;17134.89;16.37187;-16.33517;15381.01;8198.819;0.1144741;-0.1304964;0;
-11852.59;-7922.128;471.3212;-13879.32;19.97176;-16.05082;-12881.94;-6346.908;0.2442937;0.4543408;0;
-16536.27;-9718.027;130.3;-20644.53;20.01904;-15.49889;-17821.2;-7307.873;0.2440483;0.1290476;0;
-14851.21;-8788.896;56.15944;-18519.41;19.12827;-13.13898;-15896.73;-6555.779;0.1788357;-0.5207555;0;
-23764.18;-17204.24;6.862137;-27642.38;19.71129;-11.58517;-24841.66;-12490.83;0.3085907;-0.1953956;0;
-1012.601;5.142703;-273.332;-3251.223;10.91757;-10.16694;-1367.474;-283.3933;-0.01655607;-0.06526455;0;
22652.19;17049.2;-269.6372;25305.93;10.57181;-7.946353;23625.24;13043.77;-0.1464741;-0.3250683;0;
21865.58;15707.45;-16.36848;26169.02;-2.232188;-10.68461;23135.58;12346.85;-0.1463269;0.06506235;0;
21557.8;16015.28;70.44808;25202.14;-7.78965;-10.60689;22632.48;12626.02;-0.3410819;0.1299643;0;
24551.17;18302.85;76.32743;28659.81;9.900695;-6.510333;25791.35;14727.25;0.1140322;-0.3249377;0;
14674.88;11101.46;381.6597;16834.27;12.97221;-6.101894;15070.93;7972.733;0.3088196;-0.1297091;0;
-12185.37;-8194.457;476.697;-14181.39;12.7581;-3.684438;-13200.55;-6509.814;-0.08129473;0.1952579;0;
-17110.4;-10093.34;124.7072;-21115.07;15.35822;-2.743036;-18383.37;-7493.526;-0.1461804;0.3249964;0;
-15392.14;-9117.187;47.69868;-18970.39;22.0406;-5.486519;-16441;-6817.785;0.3737052;0.3896372;0;
-24374.82;-17782.28;6.765055;-28218.78;25.63577;-6.016809;-25455.43;-12941.87;0.5032644;0.06440895;0;
-1751.299;-586.0263;-268.9469;-4008.251;19.51445;-8.154217;-2124.642;-610.6657;-0.2768494;-0.2604925;0;
22439.04;16927.63;-273.2837;25049.72;18.42311;-9.954501;23396.18;12969.54;-0.3415385;-0.0003613627;0;
21874;15688.13;-12.31205;26173.3;19.07418;-11.21711;23148.35;12304.57;-0.01635865;0.1295737;0;
21349.33;15820.65;90.35185;24998.05;18.11701;-13.61717;22424.74;12454.79;-0.6660156;-0.1304259;0;
24550.82;18295.86;81.76534;28653.27;11.7358;-13.40254;25791.78;14717.08;-0.2755423;-0.06532749;0;
14616.79;11091.26;387.8886;16762.34;9.915344;-15.13063;15010.21;7986.809;0.3094406;-0.000294502;0;
-12892.45;-8829.718;495.9131;-14922;6.824898;-15.98614;-13918.1;-7115.583;0.179195;-0.1951962;0;
-17924.07;-10815.89;117.8702;-21949.48;3.870303;-16.30499;-19205.28;-8094;0.2439823;-0.3899021;0;
-16098.42;-9755.3;9.150146;-19683.53;17.06193;-23.99146;-17144.67;-7324.016;0.1787698;-0.2595757;0;
-25373.17;-18732.9;-45.53469;-29265.17;21.06327;-26.51265;-26439.32;-13811.3;0.2435575;0.06552187;0;
-2428.6;-1110.255;-314.5568;-4783.651;14.07686;-23.07;-2801.702;-1032.399;-0.01655662;-0.06447865;0;
22248.63;16800.28;-300.9349;24799.26;14.46388;-22.84587;23194.91;12853.33;-0.3413767;-0.3892506;0;
21695.57;15491.25;-14.29211;25982.84;21.48292;-22.95688;22968.5;12112.14;0.1787051;-0.2589248;0;
21283.13;15761.82;127.2449;24911.24;23.60479;-21.7951;22358;12396.15;0.3734275;-0.1936973;0;
24388.85;18132.35;138.2989;28473.39;21.50399;-17.9553;25627.8;14554.96;0.2431176;0.1313341;0;
14302;10840.05;434.1986;16371.6;23.15732;-14.8561;14684.1;7780.313;0.177906;0.1961695;0;
-13484.77;-9351.275;517.2048;-15636.49;17.84277;-12.89873;-14524.67;-7536.684;-0.1471095;-0.1288644;0;
-19289.29;-12104.32;134.5959;-23364.95;16.75311;-9.134786;-20575.43;-8846.699;-0.211929;0.001199802;0;
-17778.43;-11440.8;42.91291;-21376.88;21.55905;-10.26432;-18824.57;-8463.92;0.37299;0.06616594;0;
-26997.22;-20302.4;-36.94946;-30952.61;21.87218;-10.32099;-28057.19;-15193.81;0.5025499;-0.06383523;0;
-3780.566;-2121.772;-347.8185;-6258.401;26.20348;2.9517;-4163.477;-1790.912;0.1122409;0.2610656;0;
21679.83;16386.62;-332.3361;24149.06;27.44995;6.29782;22608.99;12527.14;0.04716078;0.1308686;0;
21407.47;15158.5;-48.01986;25691.57;32.57993;1.803757;22678.57;11726.05;0.2420154;-0.1940996;0;
20858.21;15355.19;59.24012;24478.73;37.03518;2.605679;21931.52;12023.58;0.1768049;0.06596481;0;
24169.57;17898.91;54.02694;28235.9;21.19048;-2.286571;25404.89;14307.36;0.04669256;0.1958332;0;
13942.7;10662.18;375.03;15974.96;16.54749;-2.954042;14309.1;7639.655;0.3714823;0.1306691;0;
-14436.31;-10076.33;506.2121;-16594.57;32.60579;-9.917176;-15492.35;-8150.354;0.3711091;0.0006031165;0;
-20009.91;-12839.16;134.921;-24007.95;34.11424;-13.52417;-21296.45;-9456.285;0.04589948;-0.1942995;0;
-17795.64;-11479.37;7.583787;-21319.02;26.04201;-5.673759;-18849.99;-8441.117;-0.1490487;-0.0641696;0;
-27074.7;-20374.14;-73.53931;-30964.93;25.01147;-6.002973;-28138.98;-15262.53;-0.4737356;0.1957643;0;
-3946.778;-2328.072;-353.4341;-6361.603;23.37875;-2.179036;-4320.271;-1979.458;-0.4082923;0.3255022;0;
21737.76;16436.41;-320.158;24221.42;22.01511;-1.172102;22668.51;12581.59;-0.1480126;0.06530579;0;
21500.65;15251.55;-15.09884;25790.5;20.3854;1.307383;22773.38;11820.7;-0.2777986;-0.2595965;0;
20948.15;15447.95;109.8535;24579.76;19.29319;4.454206;22023.02;12123.24;-0.3424868;0.1304684;0;
24123.18;17860.41;97.49931;28207.37;19.54222;-9.080517;25360.75;14278.97;-0.0822733;0.5851086;0;
14147.66;10733.21;389.0204;16248.22;18.91937;-11.75065;14542.96;7684.975;-0.147158;0.4545861;0;
-13706.06;-9502.444;489.1415;-15780.54;21.57968;-8.657688;-14729.9;-7631.193;-0.01707543;0.1292926;0;
-19645.39;-12451.35;106.3421;-23592.44;22.42865;-10.65842;-20909.86;-9101.267;-0.08202561;-0.0007720244;0;
-17823.46;-11491.09;-25.18302;-21326.5;20.6648;-4.887357;-18847.21;-8482.584;-0.1469105;0.3890328;0;
-27013.33;-20269.29;-101.3069;-30891.3;19.77338;-3.877702;-28053.07;-15199.26;0.04813911;0.8434133;0;
-4070.349;-2265.208;-369.0705;-6466.242;24.57628;-4.811567;-4428.694;-1965.693;-0.0168766;0.9075332;0;
21609.9;16389.87;-343.1344;24098.88;26.36025;-4.270868;22548.54;12526.83;0.113075;0.3868825;0;
21515.11;15241.71;-33.10152;25801.72;19.16647;-2.859936;22788.79;11824.52;-0.2118753;-0.1982123;0;
20861.65;15369.41;110.3284;24490.53;20.08522;-1.450481;21938.19;12042.06;-0.146695;-0.06807843;0;
24169.6;17903.07;93.08554;28246.49;13.16518;-8.013168;25409.77;14330.57;-0.01661297;0.2568267;0;
14223.17;10846.75;389.9677;16334.3;10.40626;-9.612707;14622.8;7773.77;-0.2114983;0.0616666;0;
-14086.38;-9821.098;503.4093;-16163.78;26.73915;-8.062441;-15101.05;-8016.187;0.3084529;-0.1332974;0;
-19837.78;-12652.22;118.7997;-23840.11;30.5297;-9.996844;-21097.65;-9410.927;0.503045;-0.1981308;0;
-17533.18;-11192.85;7.939082;-21064.09;29.562;-4.360355;-18570.68;-8277.786;0.5025396;-0.3278664;0;
-27048.54;-20334.42;-51.36721;-30927;30.87147;-3.284247;-28107.25;-15190.32;0.4370673;-0.1326349;0;
-4221.525;-2562.959;-329.9568;-6668.322;35.32842;-6.897964;-4596.218;-2135.062;0.04682406;0.3872371;0;
21613.4;16340.94;-303.732;24064.29;35.56037;-5.752323;22541;12502.71;-0.2130924;0.1269786;0;
21417.4;15159.05;-15.41534;25708.67;34.9224;-12.91353;22691.29;11726.69;-0.1479109;-0.003083657;0;
20824.85;15326.83;101.9162;24459.34;36.22648;-14.91005;21899.67;12014.46;0.3070091;0.4516909;0;
24078.38;17821.59;109.7629;28162.2;16.89997;-8.196894;25312.88;14251.47;0.4366353;-0.003534419;0;
14327.63;10810.2;408.1744;16462.02;12.39501;-7.518889;14729.25;7718.728;0.3712292;-0.1334655;0;
-13266.66;-9167.172;502.9196;-15289.19;10.30645;-4.095265;-14287.59;-7415.144;0.3058889;0.2564726;0;
-18980.77;-11823.98;140.8616;-22924.66;4.334251;-1.54586;-20255.68;-8807.599;0.1756468;-0.2635238;0;
-16777.51;-10417.63;29.97887;-20281.85;28.24268;-4.625461;-17816.44;-7715.731;0.4353397;-0.4581611;0;
-25688.12;-19022.1;-49.15212;-29526.58;35.18053;-5.089694;-26759.5;-14053.79;0.1100656;-0.06789666;0;
-3075.068;-1607.882;-321.1847;-5416.371;19.80621;1.010745;-3463.028;-1458.897;-0.1499144;-0.06782843;0;
21928.94;16590.37;-304.995;24460.32;17.5755;2.349388;22864.39;12701.69;0.1101056;0.2570764;0;
21692.7;15445.62;-34.15261;26005.41;36.51414;-2.542665;22969.82;12056.15;-0.1498744;0.7765568;0;
21196.35;15698.91;89.67885;24844.1;40.02742;-3.00893;22267.94;12365.54;-0.2146911;0.2560378;0;
24433.21;18188.28;86.3716;28535.55;27.12648;-8.565368;25674.08;14657.8;0.1753286;-0.3289255;0;
15284.8;11504.87;376.1079;17536.33;27.50136;-11.83886;15724.33;8310.337;0.2401198;-0.133693;0;
-11589.94;-7788.78;498.715;-13510.46;7.513059;-9.147712;-12582.78;-6253.806;0.1749112;-0.003623963;0;
-16903.11;-10028.54;144.8915;-20938.26;-1.269377;-11.75079;-18200.79;-7548.087;0.1097681;0.1263144;0;
-14236.2;-8092.605;51.27729;-17878.21;11.92741;-7.117286;-15317.44;-6067.259;-0.1502116;0.4510242;0;
-23446.17;-16857.21;19.5698;-27320.41;9.16974;-5.703493;-24557.73;-12097.85;-0.2799953;0.1257343;0;
-1969.222;-853.4902;-255.546;-4262.758;17.13113;-16.68272;-2369.94;-751.5129;-0.474616;-0.2641961;0;
22364.93;16838.32;-262.1139;24929.49;21.33347;-18.2065;23306.25;12904.72;-0.6040738;0.3207754;0;
21980.16;15798.32;4.406283;26277.1;9.18825;-18.992;23255.77;12446;-0.2786301;-0.06935097;0;
21496.84;15979.97;105.4448;25121.56;8.977946;-20.3795;22565.62;12640.13;-0.0834481;-0.6539873;0;
24695.29;18469;79.11767;28788.55;7.361335;-16.47414;25936.67;14949.88;0.1765051;-0.06862415;0;
15718.08;11758.6;364.7696;17997.27;2.464794;-16.12267;16174.21;8539.476;0.5011645;0.06137948;0;
-10466.71;-6884.395;505.5196;-12408.6;22.35564;-11.95365;-11449.73;-5482.467;0.4356936;-0.1335842;0;
-15837.6;-9097.299;179.8782;-19980.51;28.0266;-10.40103;-17146.98;-6743.181;0.04545172;-0.2633847;0;
-14018.69;-8049.618;75.64039;-17749.78;1.005173;-9.184946;-15103.5;-6038.991;-0.4743327;-0.06821799;0;
-23327.26;-16757.12;25.37086;-27271.41;-3.551164;-7.568127;-24444.55;-12150.39;0.04588266;0.1267526;0;
-1725.524;-589.9444;-240.4429;-4096.768;1.811039;-12.85205;-2139.184;-758.937;0.1757712;-0.06827681;0;
22316.34;16772.56;-256.4588;24836.9;-0.4679566;-13.97785;23255.73;12806.23;-0.2791768;-0.0682082;0;
21882.33;15719.18;-1.048074;26167.87;2.747694;-16.64306;23158.89;12407.41;-0.08399422;0.1267624;0;
21377.6;15859.23;109.3662;24995.97;3.548241;-19.50654;22445.17;12499.77;-0.1488772;0.06166764;0;
24538.74;18316.4;97.93391;28622.42;3.14351;-16.47277;25780.46;14819.83;-0.08376023;-0.3281984;0;
15701.34;11785.22;394.8893;17975.76;2.805558;-16.99208;16155.72;8562.875;0.2411606;-0.3278686;0;
-10848.68;-7242.111;513.5264;-12778.65;12.98317;-20.19007;-11832.86;-5809.743;0.1109836;0.2571669;0;
-16360.39;-9648.434;164.4513;-20493.92;17.32438;-20.30375;-17668.44;-7231.813;-0.01906256;0.1919412;0;
-13749.96;-7789.372;71.47331;-17481.96;5.585326;-23.09657;-14831.57;-5776.274;0.04592393;-0.1330884;0;
-23093.31;-16502.29;28.84476;-27020.99;4.77543;-24.41302;-24200.15;-11697.3;0.1108451;-0.197922;0;
-2087.468;-920.6378;-253.0425;-4427.232;6.914085;-16.0158;-2495.248;-800.0217;-0.214103;-0.1977231;0;
22185.59;16679.36;-269.9828;24729.39;6.840765;-12.71761;23121.38;12749.57;-0.08395314;-0.002622437;0;
21918.01;15751.2;5.853123;26214.58;7.101336;-19.93886;23197.29;12417.12;0.1110332;0.1273149;0;
21431.14;15914.79;113.0434;25052.2;7.630064;-20.65558;22502.37;12578.6;-0.213915;-0.002747729;0;
24568.65;18356.15;74.98009;28672.57;11.44079;-13.46784;25811.74;14867.77;0.04616927;-0.197647;0;
15809.52;11833.38;368.9445;18140.49;12.83581;-13.38732;16277.47;8568.182;0.3709596;-0.06751371;0;
-10102.75;-6539.355;521.9498;-11972.03;18.1142;-8.417253;-11070.02;-5249.44;-0.2141192;0.2573909;0;
-15695.58;-8997.124;194.6677;-19786.39;20.37318;-5.394625;-16998.46;-6635.498;-0.2788714;0.1921649;0;
-13518.05;-7595.877;94.56918;-17217.93;21.15699;-18.7185;-14600.53;-5575.75;0.3710822;-0.3927343;0;
-22431.08;-15872.83;53.4479;-26341.41;22.74332;-21.04403;-23537.98;-11363.83;0.305742;-0.5222743;0;
-1418.934;-344.0697;-224.513;-3767.014;16.08904;-18.67855;-1824.174;-609.9509;-0.1493366;-0.06697819;0;
22269.7;16695.26;-260.5504;24799.15;13.12513;-19.9324;23208.86;12725.57;-0.0842192;0.3228932;0;
21931.84;15790.83;-2.730583;26230.47;14.25102;-16.29541;23211.65;12513.91;0.5655388;0.192634;0;
21481.39;15957.31;115.1816;25109.22;11.15524;-15.07334;22553.49;12602.23;0.8898072;-0.002461548;0;
24540.01;18336.89;84.61246;28638.46;11.88097;-13.24972;25785.18;14875.57;0.2392398;0.5172797;0;
15859.15;11873.08;372.7419;18176.55;12.40489;-11.49491;16327.55;8622.649;0.04409738;0.1919232;0;
-10451.71;-6933.576;536.5193;-12326.66;-3.012915;-7.799362;-11417.71;-5587.126;0.1739877;-0.3280084;0;
-16421.23;-9571.483;208.4885;-20531.94;-7.565215;-5.179251;-17719.3;-7132.405;-0.2159911;0.06212524;0;
-14092.34;-8001.166;87.15244;-17830.57;-0.6577613;-6.312757;-15161.36;-5973.426;-0.08583941;-0.1328392;0;
-23366.14;-16776.77;39.35448;-27311.31;-2.734181;-5.100721;-24457.34;-11991.79;0.3040509;-0.002771047;0;
-2302.161;-1137.816;-249.29;-4696.576;9.325982;-6.703187;-2705.156;-980.5319;0.238778;0.3220685;0;
22210.16;16685.29;-295.6099;24703.7;14.80897;-7.701134;23144.12;12776.66;-0.0862986;0.1918102;0;
21948.59;15791.51;-25.24545;26238.17;1.397501;-5.148105;23226.36;12471.86;-0.3460813;0.06168273;0;
21332.08;15820.75;105.4018;24944.94;1.463446;-6.147676;22402;12502.33;-0.4107009;-0.3281833;0;
24566.4;18361.13;93.19257;28646.24;1.126207;-5.47167;25809.86;14882.54;-0.3453208;-0.4577882;0;
15887.13;11886.85;386.0454;18180.78;-2.759691;-5.935052;16357.18;8665.458;-0.2150392;-0.2624262;0;
-10553.36;-7067.169;512.2657;-12479.43;13.65378;-9.479123;-11519.33;-5685.024;0.174981;-0.0672605;0;
-16660.63;-9776;162.9264;-20834.05;17.05631;-9.804452;-17962.95;-7284.927;0.3697072;0.06274177;0;
-14516.64;-8367.224;58.15899;-18289.43;0.8968954;-16.09087;-15590.12;-6253.731;0.4992703;0.1276461;0;
-23690.48;-17067.72;22.10302;-27683.77;-1.783323;-17.88318;-24800.45;-12385.81;0.368834;-0.002416873;0;
-2459.177;-1175.66;-248.7206;-4964.487;-3.858612;-15.45389;-2898.421;-1203.5;-0.1512753;-0.3922185;0;
21876.06;16404.17;-275.8475;24302.9;-7.002567;-16.17517;22794.64;12471.88;-0.47596;-0.2618897;0;
21595.54;15438.09;-13.79568;25886.49;-5.11952;-9.125897;22878.64;12150.1;-0.2156124;0.06321014;0;
21090.37;15583.63;106.2048;24694.92;-3.908927;-7.174222;22160.31;12250.49;-0.1504284;0.06314664;0;
24280;18072.06;84.34335;28354.38;-10.67015;-3.751006;25522.22;14605.63;-0.3451793;0.1930179;0;
15444.67;11606.24;365.789;17702.26;-11.06157;-0.1302197;15906.05;8425.197;0.04497157;0.4526933;0;
-11639.07;-7950.757;489.7495;-13586.56;0.8049095;-8.569756;-12614.04;-6412.737;0.3697631;0.2573364;0;
-18152.36;-11003.25;144.6963;-22246.13;4.421423;-9.833759;-19450.47;-8178.621;0.04455485;-0.06775889;0;
-15713.96;-9345.189;46.25652;-19382.43;11.65065;-6.809768;-16773.17;-7015.843;0.1094774;-0.0676908;0;
-25244.69;-18542.08;-9.465094;-29182.07;15.85948;-8.142523;-26331.24;-13512.35;-0.150502;0.0623119;0;
-4035.94;-2475.966;-304.8228;-6574.769;18.58923;-6.593795;-4469.741;-1961.043;-0.4751874;0.2571513;0;
21524.18;16213.18;-322.4449;23889.68;20.91508;-6.989007;22430.96;12386.65;-0.01993857;0.2568929;0;
21609.12;15395.77;-38.07622;25908.57;15.87022;-11.20185;22892.51;12038.64;0.2399508;-0.06820191;0;
20801.91;15316.93;109.1849;24424.84;14.64882;-13.20002;21873.76;12032.5;-0.02015964;0.0618013;0;
24081.58;17865.23;109.0127;28160.59;4.520049;-10.37353;25323.02;14381.23;-0.08510672;0.3216086;0;
15216.32;11401.51;403.5363;17507.45;-2.048576;-9.69328;15682;8228.354;0.3047828;0.1913507;0;
-11711.67;-7980.636;547.4021;-13607.25;4.919707;-17.72131;-12685.47;-6455.131;0.3694439;0.2561258;0;
-18116.31;-10974.42;185.9085;-22146.35;4.579971;-19.51198;-19416.07;-8211.384;-0.02073134;0.06096642;0;
-15575.05;-9173.715;50.00866;-19195.57;-9.892944;-16.27732;-16634.25;-6868.601;-0.2805799;0.3207746;0;
-24331.15;-17677;-4.576672;-28249.07;-13.90247;-16.99771;-25424.71;-12810.99;0.1095061;0.3854196;0;
-3097.063;-1672.648;-298.1432;-5579.469;-6.587481;-11.82307;-3538.735;-1430.176;0.1093961;-0.1996738;0;
21569.71;16228.75;-324.5334;23994.87;-7.78631;-10.20366;22477.95;12350.05;-0.4104526;-0.1994732;0;
21543.48;15343.88;-41.49003;25841.01;2.201849;-11.06419;22828.19;12033.56;0.04473124;-0.06933804;0;
20885.25;15396.65;95.32665;24505.48;7.156129;-9.713409;21954.71;12088.84;0.04468629;-0.1992031;0;
24005.42;17795.25;85.86058;28096.62;-0.7543155;-12.98575;25249.91;14337.98;-0.5400647;-0.004100868;0;
15325.16;11465.02;372.9893;17624.21;2.862789;-13.50857;15807.5;8266.121;0.1101514;0.1908053;0;
-11668.83;-7960.144;510.3266;-13540.71;-6.048696;-14.63364;-12617.71;-6475.529;0.3699101;-0.3940925;0;
-18290.33;-11176.77;151.9468;-22314.24;-9.056728;-16.49446;-19571.16;-8307.114;-0.02026566;-0.3287292;0;
-15377.22;-9052.855;20.36018;-19032.85;11.38156;-10.98541;-16435.53;-6688.749;0.3695588;0.5811439;0;
-24310.55;-17657.84;-23.15404;-28230.71;15.25586;-9.433764;-25400.4;-12716.31;0.3691874;0.2557233;0;
-3450.445;-2037.873;-291.9956;-5906.757;13.76666;-15.65357;-3874.266;-1601.173;-0.2158896;-0.2642724;0;
21562.31;16176.46;-299.87;23977.33;15.62787;-15.77181;22474.12;12337.98;-0.3456074;0.06082982;0;
21553.84;15368.91;-34.77991;25853.6;15.27737;-14.21536;22835.8;12039.57;0.1095113;-0.004198643;0;
20785.21;15294.13;70.78011;24402.71;15.26202;-13.86622;21854.69;12006.25;0.3043033;0.06077292;0;
24201.87;17995.83;63.75937;28278.6;11.96513;-10.36924;25444.23;14527.55;-0.2157412;0.1256792;0;
15541.19;11648.73;364.7471;17878.62;12.08683;-8.952235;16024.87;8485.436;-0.08558977;0.06058557;0;
-11811.66;-8179.861;505.1068;-13666.59;-1.522972;-4.857342;-12768.22;-6661.747;0.3043003;0.1904594;0;
-18868.39;-11651.22;148.2627;-22885.96;-6.477935;-1.704325;-20155.95;-8663.153;-0.02084219;0.38517;0;
-16848.91;-10442.44;-8.807405;-20428.9;2.504531;-4.381869;-17889.95;-7884.757;-0.08578859;0.7096197;0;
-26436.29;-19679.79;-80.46566;-30333.33;0.8944241;-3.3058;-27502.89;-14621.6;-0.1506697;0.189168;0;
-4826.402;-3015.114;-331.5086;-7385.733;13.35211;-0.9581366;-5253.202;-2470.494;-0.475355;-0.4606955;0;
21157.97;15968.55;-324.2883;23491.61;18.83105;-0.5552762;22055.62;12169.22;-0.1500407;-0.07042858;0;
21427.2;15184.97;-44.58727;25717.65;5.214468;1.990572;22708.7;11835.75;0.1749468;0.1245442;0;
20718.64;15245.86;99.6663;24329.67;2.86568;2.323487;21789.53;11976.11;0.1098036;-0.2004176;0;
24028.6;17819.8;101.8306;28103.47;11.43564;3.258913;25269.75;14345.19;0.1096933;-0.2002163;0;
15254.76;11403.09;383.7897;17573.11;10.95564;4.126356;15735.23;8275.933;0.1745504;-0.2649824;0;
-12231.23;-8540.407;504.8586;-14099.27;5.854412;-0.8344055;-13191;-6901.306;0.04444037;-0.1347815;0;
-19220.15;-12013.36;149.4828;-23242.4;5.512761;-1.570318;-20514.68;-8992.691;-0.08553897;-0.004711374;0;
-16627.82;-10222.38;21.72489;-20246.17;-8.022111;-3.176331;-17688.56;-7739.812;0.04448166;-0.1996087;0;
-26130.44;-19385.53;-40.71869;-30045.86;-12.7031;-4.57972;-27218.5;-14283.68;-0.02053037;-0.004506072;0;
-4889.109;-3107.866;-322.5361;-7466.861;-8.269706;-1.426981;-5332.793;-2439.554;-0.08547708;0.0604658;0;
21169.86;15974.18;-335.3929;23478.68;-10.87336;-2.028394;22061.03;12202.19;-0.02042386;-0.4593337;0;
21427.64;15190;-47.30989;25728.7;1.395071;3.265174;22710.01;11832.05;-0.150338;-0.5238395;0;
20473.92;15002.43;85.827;24096.73;6.551233;5.338303;21541.35;11738.52;-0.2151543;-0.003574403;0;
23786.94;17580.49;63.86113;27864.46;-1.56065;1.849887;25025.63;14117.16;-0.2799055;0.5161679;0;
15300.88;11452.84;354.5414;17604.96;0.9865133;3.522602;15775.21;8290.334;0.1101798;0.645584;0;
-12118.62;-8422.123;495.7234;-13992.43;-0.3536485;-4.451724;-13092.84;-6866.834;0.4349059;0.3850659;0;
-19248.14;-12049.63;139.7009;-23226.29;-1.69344;-7.059524;-20545.7;-9034.357;0.1096321;-0.005125062;0;
-16130.98;-9713.581;17.37195;-19713.59;13.91467;0.9183557;-17183.21;-7185.564;0.2394567;-0.3299566;0;
-25147.6;-18449.72;-21.65715;-29052.24;18.1876;0.7164841;-26238.78;-13476.8;0.1092814;-0.2646577;0;
-4299.911;-2682.552;-281.8796;-6842.413;9.395416;5.203499;-4749.641;-2251.725;-0.5405018;0.0604449;0;
21239.84;15977.5;-287.078;23577.14;9.385976;7.475629;22133.2;12160.03;-0.3450567;-0.2644525;0;
21424.54;15203.34;-14.44202;25728.71;3.683117;2.779434;22708.22;11882.1;0.04509404;-0.1342521;0;
20621.99;15147.59;101.3268;24247.55;-2.014011;3.44647;21688.59;11874.64;0.2399508;0.4505889;0;
23922.95;17716.27;80.82899;28002.43;9.843382;-1.31272;25162.76;14271.7;0.3696443;0.1902667;0;
15471.05;11554.54;372.1638;17833.65;10.70415;-3.588759;15957.89;8364.872;0.3043056;-0.00482649;0;
-11653.31;-8048.565;511.782;-13468.68;-4.578229;2.175257;-12615.04;-6573.872;0.3689671;-0.1347563;0;
-18559.17;-11459.57;170.1267;-22620.01;-6.248568;2.307037;-19859.79;-8643.551;0.0437597;-0.1995883;0;
-15728.9;-9389.842;47.89212;-19398.67;-11.13143;0.09434318;-16783.35;-7111.366;-0.08621895;0.06048165;0;
-25249.36;-18554.78;-19.34098;-29155.06;-11.78983;-0.9104956;-26336.64;-13556.74;0.1087697;-0.3293832;0;
-4427.9;-2822.706;-295.2141;-7015.66;-15.79745;0.7649926;-4883.244;-2250.063;-0.08624161;-0.7188562;0;
21255.11;15991.25;-318.2027;23544.8;-21.00551;0.3623263;22141.32;12185.33;-0.08615496;-0.3932972;0;
21405.96;15201.23;-66.33749;25711.57;15.31961;-1.915396;22691.76;11890.23;0.3037357;-0.392902;0;
20529.9;15047.04;62.47695;24145.06;25.48465;-1.846489;21596.66;11767.7;0.3034305;-0.1976052;0;
23811.39;17616.29;45.28216;27885.45;11.46022;-7.605044;25055.18;14193.79;-0.02171113;-0.002504655;0;
15687.82;11732.92;344.0084;18024.87;17.67799;-8.468181;16180.09;8511.565;-0.02168932;-0.1324368;0;
-11643.6;-8080.231;514.8423;-13489.64;-2.233093;-9.330388;-12604.91;-6692.708;0.1732345;-0.0673364;0;
-19423.71;-12192.62;150.9607;-23455.65;-9.264423;-10.19179;-20720.64;-9080.155;-0.1517763;-0.4570728;0;
-16598.07;-10197.63;9.95797;-20234.95;12.3805;-1.674901;-17640.38;-7572.457;-0.3465258;-0.3916462;0;
-26108.96;-19337.54;-30.67224;-30013.99;12.97029;0.4701745;-27160.12;-14253.55;-0.02134089;0.3883555;0;
-5524.482;-3570.535;-312.7028;-8172.579;9.675705;5.694249;-5955.21;-2852.793;0.1086152;0.2580306;0;
20764.01;15643.26;-337.4697;22979.71;10.46929;9.573476;21642.53;11879.12;-0.08639593;-0.1320328;0;
21239.15;14990.83;-54.00731;25540.2;4.163107;6.214771;22525.3;11652.04;-0.08630912;-0.2618348;0;
20272.83;14808.61;98.20486;23889.07;1.680677;7.280192;21345.82;11558.02;-0.0862224;-0.00170234;0;
23619.88;17407.09;87.14294;27684.59;8.711587;6.201211;24860.52;13956.33;-0.02116841;-0.06666797;0;
15052.35;11296.73;361.0739;17358.13;11.78429;5.458168;15535.12;8168.042;0.3036896;-0.3264703;0;
-12868.21;-9068.113;495.003;-14761.09;-6.915421;4.648889;-13826.29;-7456.05;0.04351505;-0.06627294;0;
-20509.83;-13271.98;132.422;-24499.46;-12.73562;3.170654;-21791.07;-9852.116;-0.08646336;0.1286957;0;
-17430.47;-11058.64;8.101316;-20990.43;8.174874;4.507066;-18467.6;-8143.508;0.4333622;0.2585011;0;
-27082.64;-20294.43;-40.89782;-30997.55;11.04705;4.368571;-28141.11;-15101.12;0.2380248;0.4531433;0;
-6214.449;-4144.047;-325.042;-8914.191;7.687046;2.823635;-6664.332;-3346.458;-0.4768551;0.1928187;0;
20646.89;15602.99;-344.721;22840.89;11.0946;3.490627;21512.77;11880.16;-0.476376;-0.1322118;0;
21173.1;14904.76;-63.53139;25470.1;4.251922;0.9418293;22458.43;11545.7;-0.08609328;-0.002144286;0;
20086.57;14627.73;87.69084;23699.32;3.912857;0.1370877;21155.3;11385.67;-0.1509741;0.2577272;0;
23537.02;17321.61;72.75082;27596.68;9.602352;5.89736;24776.09;13869.68;-0.2157898;0.4523703;0;
14982.29;11275.52;362.5008;17276.28;11.26667;6.49422;15457.34;8160.121;0.2391985;0.0621117;0;
-13181.74;-9318.077;511.8894;-15093.39;11.05428;10.43957;-14158.05;-7649.308;0.3688928;-0.06788539;0;
-20894.51;-13673.94;136.501;-24918.69;11.51266;12.77348;-22193.9;-10141.16;-0.1512166;0.0621175;0;
-17702.89;-11354.94;-3.612689;-21296.55;16.65866;7.000233;-18761.79;-8358.785;-0.2809993;-0.2627816;0;
-27461.77;-20667.92;-66.8429;-31365.21;16.77564;7.261131;-28528.03;-15443.77;-0.08581497;-0.06761555;0;
-6511.958;-4433.178;-343.6834;-9187.056;22.92072;2.364203;-6952.54;-3572.824;-0.1506961;0.3872238;0;
20608.04;15573.91;-329.8917;22795.95;25.24222;-0.4513946;21473.08;11880.55;-0.02060998;0.451802;0;
21174.02;14894.58;-46.17144;25465.69;11.08431;6.515101;22455.08;11521.38;0.1743128;0.2564461;0;
20171.13;14710.92;81.29528;23784.32;6.852637;6.64252;21238.24;11478.58;0.04420292;-0.06864835;0;
23576.95;17372.66;60.86445;27639.37;7.516313;6.166965;24812.86;13930.83;0.3040279;0.19129;0;
15295.53;11428.09;349.3458;17624.07;4.829443;6.696632;15780.41;8264.606;0.1737877;0.06116311;0;
-12135.29;-8459.555;518.8937;-13990.01;3.418071;5.149357;-13104;-6926.816;-0.02128895;-0.5236044;0;
-19931.11;-12709.55;175.5603;-23916.32;5.022226;5.278149;-21232.41;-9455.379;0.3035691;-0.3281763;0;
-16869.6;-10484.46;36.20381;-20443.02;-5.833811;2.593589;-17918.87;-7715.138;0.1083621;-0.003009821;0;
-26241.02;-19471.96;-10.27797;-30110.76;-8.574615;1.050375;-27310.07;-14331.31;-0.08664881;0.1269279;0;
-5743.146;-3765.205;-281.7406;-8378.386;13.00226;4.063491;-6205.947;-3056.535;-0.0215944;0.1917677;0;
20712.28;15642.53;-308.2877;22927.29;17.20876;3.925442;21570.08;11901.72;-0.1515074;0.3864771;0;
21299.18;15031.52;-44.67281;25614.09;24.96099;1.041293;22584.81;11695.84;-0.02142047;0.5809907;0;
20323.23;14862.3;81.5118;23950.85;30.49562;-0.0984024;21389.06;11611.49;-0.02139894;0.0606682;0;
23706.54;17521.01;55.53666;27780.42;27.04873;0.2366111;24946.2;14114.31;-0.08634479;-0.2642295;0;
15956.69;11880.82;338.1357;18340.72;30.30408;-0.366473;16465.07;8623.659;0.498448;0.2557748;0;
-10836.95;-7429.727;505.8833;-12630.13;12.85855;-2.710446;-11787.19;-6125.253;0.5629146;0.4504198;0;
-18398.56;-11309.29;171.5271;-22416.95;7.218578;-3.578501;-19715.31;-8493.451;0.04261019;0.06016316;0;
-15331.28;-8998.756;49.63473;-18958.87;14.11118;-4.579588;-16414.29;-6767.858;0.1075347;-0.00486464;0;
-25286.99;-18542.96;9.714273;-29136.93;12.01992;-5.244816;-26380.15;-13501.78;0.2373614;0.125075;0;
-5375.418;-3607.73;-284.4601;-7983.507;12.40998;-3.096153;-5847.595;-2817.217;0.1071882;-0.004985428;0;
21060.13;15868.29;-332.9623;23274.32;12.33016;-1.686401;21913.08;12106.57;-0.1527889;-0.1349151;0;
21581.12;15351.27;-66.69888;25892.2;16.40361;-4.698877;22865.84;12030.64;-0.08766804;-0.1997469;0;
20572.81;15098.56;83.38648;24194.48;17.99472;-4.895104;21638.53;11849.56;-0.2175146;-0.06961149;0;
23893.89;17721.03;80.3042;27965.67;19.7853;-1.005298;25131.57;14324.07;-0.1523287;-0.1345089;0;
16250.23;12047.26;344.8093;18664.09;20.97087;-1.808022;16766.54;8768.714;0.5624651;-0.004439048;0;
-9944.813;-6709.332;500.0408;-11724.85;20.54863;7.169264;-10890.35;-5499.555;0.951704;-0.1993366;0;
-17598.48;-10595.92;194.5979;-21666.27;20.6617;10.57807;-18907.45;-7869.257;0.6908783;-0.5889403;0;
-15109.53;-8860.088;75.22793;-18798.03;14.81379;-0.8863376;-16168.21;-6680.865;0.8201188;-0.3284792;0;
-24711.87;-18005.29;24.63086;-28611.82;12.18596;-0.7514812;-25805.05;-13156.07;0.884262;0.06165488;0;
-4638.054;-2958.781;-251.427;-7243.439;9.896544;-5.774324;-5115.042;-2462.543;0.1037655;-0.003374417;0;
21144.98;15898.89;-293.3407;23391.79;7.073561;-7.041137;22013.86;12086.4;0.03869388;-0.198273;0;
21524.83;15311.98;-39.36095;25833.42;7.736039;-4.354805;22814.53;12039.49;0.3634917;-0.2630412;0;
20660.03;15185.77;90.36341;24273.2;7.728265;-5.757071;21725.59;11920.36;0.1682244;-0.06787483;0;
23955.79;17791.76;74.07763;28032.86;4.70639;10.39117;25198.92;14419.18;-0.1567813;-0.06780664;0;
16423.18;12159.21;360.8746;18898.51;5.371246;14.39971;16961.01;8863.646;-0.3515258;-0.4575425;0;
-9734.199;-6593.545;529.7394;-11459.15;4.696264;15.79176;-10658.23;-5416.555;-0.1562705;-0.1322461;0;
-17174.95;-10351.64;205.5417;-21302.28;3.083955;19.99582;-18490.89;-7728.073;0.1037558;0.1277562;0;
-14392.31;-8366.524;72.77684;-18144.83;18.82197;8.454904;-15462.45;-6382.152;0.03868425;-0.1972089;0;
-24522.43;-17800.76;12.1404;-28436.47;22.75517;6.43692;-25624.19;-12902.6;0.1685801;-0.002108753;0;
-4999.327;-3187.603;-269.4646;-7662.486;20.32043;3.61723;-5493.86;-2498.561;0.1684107;0.1278281;0;
21081.12;15892.65;-297.6952;23274.21;25.25651;0.130605;21937.58;12107.56;0.1032741;0.2576343;0;
21703.04;15485.08;-14.53822;26013.94;7.749681;-0.4053897;22992.32;12196.6;0.1681377;0.4522775;0;
20770.48;15293.21;135.0262;24379;4.660436;-3.218204;21834.09;12039.66;-0.156868;0.1269863;0;
24037.73;17894.52;101.1106;28100.48;10.08076;2.009576;25277.22;14522.22;-0.2216777;-0.1330107;0;
16735.45;12346.92;368.9369;19188.51;5.783723;3.213249;17271.6;9039.344;0.2333164;-0.1978444;0;
-9216.345;-6229.956;542.5412;-10962.96;25.80593;-1.545707;-10149.89;-5105.743;0.1031473;0.1271911;0;
-16974.51;-10171.84;223.0782;-21091.56;29.93221;-2.548836;-18308.66;-7609.07;-0.221793;0.4519001;0;
-14289.18;-8252.685;106.9592;-18058.28;23.47275;1.338613;-15390.91;-6327.3;-0.2215702;0.1915766;0;
-23968.22;-17309.63;64.826;-27915.37;27.46765;1.002353;-25099.53;-12586.31;-0.4162496;-0.06848526;0;
-4423.713;-2820.638;-220.0959;-7048.903;8.953251;-0.2712688;-4913.8;-2340.868;-0.350864;-0.3932531;0;
21135.73;15813.32;-268.6003;23372.27;4.724696;-0.5389279;22004.44;11999.18;-0.02567471;-0.4578253;0;
21554.22;15375.26;-27.56081;25857.55;10.94924;-9.379889;22838.88;12116.27;-0.415453;-0.002593939;0;
20589.32;15110.94;102.6202;24198.61;8.325293;-13.12145;21648.52;11848.48;-0.2851008;0.06237601;0;
23736;17580.43;82.574;27806.84;19.63741;-10.56297;24972.68;14219.18;0.2998917;0.1272807;0;
16401.13;12137.93;337.238;18874.08;22.89923;-11.69107;16937.63;8839.01;-0.02524633;0.06218544;0;
-9801.497;-6674.896;493.2268;-11527.27;21.87184;-16.63594;-10734.51;-5492.281;0.1047137;-0.06781173;0;
-17303.61;-10500.68;181.9031;-21459.65;25.26612;-18.22675;-18639.18;-7898.691;0.6893146;0.1271584;0;
-13891.55;-7896.984;87.0335;-17702.61;22.96355;-14.85935;-14984.64;-6012.667;0.3637852;0.191998;0;
-23943.88;-17246.64;65.53493;-27891.64;24.27965;-14.44252;-25068.43;-12434.83;-0.156319;-0.06806428;0;
-4960.348;-3237.034;-221.9489;-7611.455;23.85311;-13.22238;-5455.552;-2598.447;-0.02622727;0.2568408;0;
20936;15681.4;-279.6656;23138.24;23.29328;-12.47228;21801.22;11886.26;-0.09116825;0.8412888;0;
21524.96;15338.35;-34.14844;25823.24;27.55679;-12.2588;22810.7;12076;-0.7407501;0.3207048;0;
20519.71;15039.22;101.9269;24120.43;27.59645;-12.5814;21580.84;11791.59;-0.8049731;-0.1993562;0;
23819.83;17680.09;78.41434;27878.11;28.64044;-10.82726;25060.21;14317.33;-0.5442949;0.1256808;0;
16606.26;12268.46;350.5425;19058.01;29.2139;-10.3475;17146.76;8995.734;-0.2838786;-0.004380168;0;
-9783.799;-6785.86;546.9351;-11525.18;23.89326;-14.82484;-10709.31;-5564.928;0.3011127;-0.3292125;0;
-17889.76;-10878.67;219.6279;-22014.24;21.85952;-13.93922;-19221.73;-8167.587;0.1708755;-0.4588163;0;
-14961.31;-8702.919;57.73849;-18718.91;22.44077;-24.44123;-16050.41;-6703.206;-0.4140023;-0.6532574;0;
-25061.32;-18326.52;-0.3372366;-29028.64;21.14542;-28.16766;-26183.55;-13414.77;-0.348619;-0.7175683;0;
-5696.563;-3780.97;-290.1443;-8483.785;14.2253;-13.40347;-6221.391;-2988.036;0.04153537;-0.2620759;0;
20705.83;15563.61;-326.9279;22807.53;9.388235;-11.24661;21544.67;11814.96;0.2363957;0.2579262;0;
21426.92;15213.51;-40.80558;25734.82;17.88527;-7.551313;22719.38;11940.27;0.1711908;0.1277323;0;
20388.34;14922.66;113.8764;23990.82;17.80092;-4.060674;21452.03;11688.01;0.1710188;-0.002330716;0;
23623.82;17465.15;80.77859;27682.85;8.472288;-3.118894;24863;14104.4;-0.1539898;-0.1322631;0;
16200.91;12033.87;324.8091;18667.57;7.124604;0.5012574;16744.87;8784.849;-0.2837697;-0.3270322;0;
-10636.49;-7422.453;484.7459;-12367.46;0.8208057;-9.345493;-11554.02;-6156.066;-0.3484519;-0.1967689;0;
-19224.26;-12017.02;156.0332;-23286.9;-1.524544;-12.14933;-20534.72;-9040.928;-0.2181671;-0.001669158;0;
-16290.32;-9871.319;14.88479;-19958.43;-1.38929;-2.357853;-17343.8;-7537.829;0.5616602;-0.06663482;0;
-26435.3;-19598.21;-35.85467;-30326.95;-3.195579;-1.149852;-27499.97;-14461;0.5610958;-0.3914046;0;
-7043.687;-4738.133;-318.2704;-9812.77;6.519547;-6.641114;-7528.032;-3681.776;-0.2190761;-0.001207241;0;
20128.67;15216.46;-344.2499;22198.97;9.594455;-7.170305;20965.54;11538.21;0.04101343;0.3236307;0;
21186.11;14910.63;-59.17211;25486.29;6.369634;-4.081946;22472.99;11598.75;0.2358742;-0.1314659;0;
19861.1;14418.59;84.34648;23477.35;7.100168;-3.341093;20929.14;11212.8;-0.08919948;-0.1963011;0;
23228.58;17056.61;61.44508;27285.98;11.78111;-2.801873;24466.21;13668.94;0.04082484;-0.001201872;0;
15651.09;11640.51;337.2915;18035.61;13.37686;-1.995262;16169.44;8487.19;-0.02418352;-0.455972;0;
-11954.65;-8505.904;499.6208;-13752.32;7.000406;-2.797053;-12892.59;-6960.608;0.04080812;-0.3905466;0;
-20449.86;-13217.3;154.4327;-24466.33;5.921645;-3.932891;-21760.43;-9861.48;0.3006365;0.4544213;0;
-17017.76;-10618.32;13.81689;-20628.65;2.834236;2.032359;-18078.56;-8003.344;0.04046503;0.2590627;0;
-27473.05;-20634.65;-31.56482;-31347.66;0.08569764;3.236009;-28549.34;-15401.1;-0.1544777;-0.5208057;0;
-7891.447;-5531.236;-319.9506;-10732.82;5.376897;-4.403113;-8407.698;-4362.364;0.1705143;-0.3903477;0;
19965.97;15112.2;-363.0448;21948.33;6.309499;-5.805331;20772.26;11492.94;0.4302123;0.06481588;0;
21181.25;14893.24;-80.83732;25492.18;2.753186;-9.282488;22472.87;11557.21;0.2998453;0.1946855;0;
19993.21;14554.55;70.9489;23610.84;3.085212;-11.75147;21059.48;11353.31;-0.09025999;-0.0004122071;0;
23356.83;17192.28;55.41663;27411.86;7.636464;-12.34251;24592.49;13827.84;0.03976539;-0.1953138;0;
15905.53;11816.95;356.2878;18390.09;10.37546;-15.00936;16446.3;8575.999;0.1696601;-0.06518288;0;
-11333.28;-7954.854;544.0228;-13029.1;7.752087;-8.296169;-12261.01;-6617.407;-0.2203144;0.3246867;0;
-19946.07;-12705.63;198.6026;-23952.75;7.811647;-6.61326;-21265.39;-9567.584;-0.2850604;0.2593931;0;
-16481.04;-10073.22;41.80989;-20113.44;17.9852;-14.10852;-17559.91;-7676.401;-0.08987193;0.06423041;0;
-26866.41;-20018.44;-20.12289;-30721.48;21.18231;-14.76417;-27958.61;-14887.73;-0.08978162;0.2590679;0;
-7696.149;-5347.128;-305.6466;-10466.16;18.88385;-13.14181;-8198.134;-4208.741;0.04024328;0.3237749;0;
19999.65;15132.11;-328.8902;22030.64;20.87363;-12.92766;20821.32;11483.91;0.1701375;0.1285476;0;
21281.4;14992.25;-53.32307;25591.48;14.557;-12.98165;22565.88;11666.68;0.2349339;-0.131451;0;
20086.11;14644.13;74.60374;23708.77;11.7957;-12.29877;21146.85;11444.38;0.2996652;-0.001384196;0;
23524.84;17374.13;34.31461;27579.75;19.21859;-11.34866;24757.4;14007.1;-0.09043997;0.3884213;0;
16365.74;12158.8;308.8296;18846.88;18.93184;-10.73447;16896.92;8913.564;-0.2202838;0.1281616;0;
-10511.09;-7327.078;510.5428;-12209.59;15.63028;-6.704767;-11460.46;-6006.912;-0.2200624;-0.06686921;0;
-18984.78;-11868.96;185.7553;-23082.62;14.74392;-5.023518;-20337.44;-8937.463;-0.08990663;0.06313266;0;
-15585.42;-9250.235;36.34676;-19332.32;10.97806;-4.482606;-16695.19;-7154.155;0.2999878;-0.001898115;0;
-26326.43;-19495.94;4.38878;-30220.19;9.225719;-3.406436;-27450.15;-14435.01;0.1697516;-0.1318309;0;
-7525.772;-5236.682;-274.3193;-10343.24;4.929542;-5.144509;-8058.399;-4080.918;0.03964639;-0.2616331;0;
20100.53;15183.49;-317.2094;22089.08;1.173545;-5.742186;20912.63;11530.03;0.1695412;0.1284338;0;
21378.84;15106.2;-38.24953;25684.24;7.803798;-5.401502;22667.02;11796.22;-0.2204332;-0.001629904;0;
20150.54;14706.25;99.8289;23754.87;8.53289;-6.132825;21209.43;11498.09;-0.285179;-0.3914323;0;
23444.27;17293.52;60.91997;27493.64;1.759163;-7.265373;24678.32;13943.07;0.2998136;0.06373239;0;
16322.5;12081.43;334.9554;18816.8;2.092188;-7.592987;16874.91;8816.503;0.6243491;-0.001298992;0;
-10388.31;-7247.595;529.9425;-12088.89;-6.48373;-9.929699;-11308.09;-5994.478;0.2339177;-0.5210364;0;
-19179.89;-12010.3;205.604;-23272.71;-11.96957;-10.05369;-20507.21;-9006.906;-0.3510235;-0.1307088;0;
-15985.16;-9600.755;58.25263;-19726.32;8.069498;-9.038842;-17066.4;-7379.185;-0.2207361;0.1942592;0;
-26477.8;-19647.1;3.377898;-30391.44;11.34392;-8.293008;-27567.66;-14592.42;-0.02561224;-0.2607074;0;
-7682.821;-5312.819;-285.2929;-10516.46;2.758706;-6.141222;-8191.267;-4201.491;0.03938084;-0.4553474;0;
19849.39;14986.91;-312.508;21828.44;5.23418;-5.465282;20666.03;11314.54;-0.09059341;-0.2599879;0;
21194.26;14918.72;-35.56745;25492.71;-8.63618;1.305363;22484.63;11616.58;-0.1554697;0.06511007;0;
19876.94;14437.33;106.8655;23487.78;-12.44492;3.58141;20943.71;11242.46;0.1045559;0.324914;0;
23197.4;17032.43;84.20692;27246.37;-4.194368;1.769272;24432.56;13664.01;0.2343855;-0.0002491687;0;
15890.82;11829.89;345.2411;18367.02;-5.931466;2.370341;16434.15;8643.153;0.1042153;-0.3250856;0;
-11695.81;-8306.083;509.0929;-13384.64;7.136288;-0.6462117;-12618.58;-6867.958;-0.09079146;0.1300124;0;
-20707.44;-13466.56;153.4005;-24727.84;13.15734;-0.980416;-22015.17;-10140.74;-0.4155369;0.2598165;0;
-16796.64;-10381.5;4.352447;-20463.23;-2.262201;-8.615302;-17844.41;-7789.817;-0.2851847;-0.0003139727;0;
-26972.11;-20115.35;-11.64389;-30857.87;-4.202312;-12.29065;-28039.86;-14926.68;-0.0250288;0.1945884;0;
-8092.699;-5685.447;-285.5258;-10959.32;6.853973;-6.249954;-8599.571;-4519.062;-0.3498403;0.1294255;0;
19682.4;14842.25;-335.0263;21623.22;7.651369;-6.913504;20498.13;11220.87;-0.2195542;-0.1955412;0;
21056.51;14771.19;-66.48077;25361.32;7.375261;-3.892386;22347.18;11458.01;-0.02443152;-0.1303774;0;
19722.19;14285.19;81.2618;23338.05;9.712376;-1.47715;20789.18;11098;0.04056037;-0.1952138;0;
22993.89;16829.12;55.22445;27046.39;-1.951682;-7.972888;24230.96;13467.58;0.300389;-0.5198543;0;
15667.35;11625.72;307.9169;18121.02;-5.03118;-8.701629;16202.81;8456.964;0.1701525;-0.32443;0;
-11867.81;-8465.76;466.1997;-13589.32;3.34662;-3.26745;-12794.22;-6976.468;-0.08988786;0.1956348;0;
-21082.63;-13818.26;115.6884;-25064;3.142187;-2.661321;-22385.82;-10315.17;-0.1547649;0.06550352;0;
-17066.42;-10667.53;-29.8391;-20674;5.617276;-1.051056;-18114.29;-7925.904;-0.3495114;0.1304051;0;
-27241.54;-20362.82;-56.04593;-31103.61;6.281217;0.624512;-28312.89;-15103.63;-0.5440623;0.7799475;0;
-8775.216;-6135.692;-330.7421;-11675.31;10.49446;-3.194082;-9304.543;-4806.945;-0.4785482;0.454327;0;
19324.36;14642.78;-366.4854;21203.46;14.90553;-2.655009;20113.3;11102.47;-0.2831653;-0.1308356;0;
21140.85;14816.77;-84.11829;25451.01;0.7570271;-4.795734;22433.54;11477.46;0.1069232;-0.3256061;0;
19767.64;14338.22;79.50903;23390.31;-0.6502532;-6.465427;20831.86;11154.4;0.3017178;-0.1303769;0;
23254.13;17095.83;64.29611;27291.78;3.904752;1.980675;24488.8;13764.84;-0.0883894;0.1945908;0;
16414.61;12231.82;332.175;18997.78;1.623652;3.385326;17001.68;8967.338;0.1715688;0.06446058;0;
-11083.4;-7823.455;518.5286;-12654.34;17.96537;1.037583;-11968.35;-6549.94;0.106429;-0.06553888;0;
-20485.69;-13244.24;163.5607;-24509.18;21.83208;0.8355914;-21806.21;-10047.35;-0.7382534;-0.1954077;0;
-16645.62;-10236.23;-11.12526;-20328.17;17.85901;-1.040709;-17721.41;-7881.726;-0.5426095;-0.325146;0;
-27532.93;-20651.79;-57.29399;-31394.85;21.05624;-2.647254;-28617.2;-15489.45;-0.1522602;-0.1299173;0;
-9142.851;-6518.911;-344.0298;-12022.87;8.911297;-5.457816;-9661.272;-5121.524;-0.2170746;0.19505;0;
19516.72;14826.74;-370.6549;21419.89;6.625167;-7.461759;20314.69;11251.72;-0.2818238;-4.807509E-05;0;
21274.46;14957.79;-86.36268;25578.83;5.345712;-11.67406;22561.52;11618.93;-0.2165733;-0.3248847;0;
19893.77;14461.62;65.08552;23502.15;1.053433;-13.47087;20961.24;11298.47;0.108481;0.0002784189;0;
23401.47;17252.76;55.32187;27437.96;11.70229;-16.60541;24634.73;13895.78;-0.02156266;0.1302128;0;
16268.71;12080.33;327.4888;18850.87;12.09268;-18.33028;16844.71;8865.914;-0.08650834;-0.06482004;0;
-10925.12;-7706.667;511.1142;-12506.68;9.937073;-14.8958;-11817.6;-6315.212;-0.08642142;-0.1946896;0;
-19837.06;-12659.9;172.8016;-23902.55;9.592296;-15.55066;-21163.48;-9594.637;-0.4111713;0.0653754;0;
-16252.58;-9872.636;21.06357;-19981.87;3.553461;-6.827436;-17327.3;-7699.662;-0.2808235;0.2602117;0;
-27089.11;-20204.36;-13.42464;-30990.81;-0.3348752;-3.404507;-28182.63;-15121.43;0.1092628;-0.2597885;0;
-8544.694;-5981.198;-311.2458;-11474.96;-8.639935;-9.563395;-9087.004;-4774.706;0.1741203;-0.3244948;0;
19524.32;14779.99;-379.1332;21401.27;-18.34317;-8.28117;20320.16;11145.47;0.108978;-0.194234;0;
21048.22;14741.06;-103.6561;25354.53;-6.402019;-13.29645;22342.08;11452.76;0.1738359;-0.06410418;0;
19646.98;14214.39;68.15859;23259.06;-4.319481;-14.75665;20710.73;11020.2;-0.2161429;0.1308623;0;
22952.87;16797.01;55.31528;26997.33;-43.56592;-10.65599;24188.49;13470.36;-0.2159257;0.0007960846;0;
16121.21;11953.91;328.8097;18678.12;-52.02959;-10.5783;16700.6;8710.867;0.30403;-0.1941067;0;
-11232.34;-7959.359;504.4065;-12844.59;-47.42198;-7.620479;-12119.1;-6637.877;0.04385516;-0.1289444;0;
-20692.28;-13455.5;146.9541;-24719.05;-53.4699;-6.20618;-22008.77;-10183.3;-0.08612359;0.001119888;0;
-16209.52;-9795.97;8.235461;-19904.34;-27.82942;-3.118851;-17284.37;-7413.109;0.303767;-0.323718;0;
-26322.22;-19456.61;-7.374346;-30203.58;-20.36672;-0.03456323;-27402.07;-14296.09;0.2384944;-0.3233927;0;
-8452.76;-5961.989;-300.985;-11326.23;-22.08757;-3.986399;-8970.276;-4583.972;-0.08658192;0.06673633;0;
19458.49;14675.26;-364.0569;21361.82;-14.56329;-3.446531;20254.38;11099.02;-0.2164296;0.06666927;0;
21195.26;14898.53;-103.322;25506.62;-18.50077;-0.09404279;22486.01;11579.59;-0.2811795;0.1315696;0;
19789.19;14351.38;30.27721;23413.89;-15.66914;-0.2948971;20855.92;11182.4;-0.2159296;0.06647008;0;
23149.92;16999.96;-2.799102;27200.91;-14.3806;4.662014;24384.18;13665.69;-0.02081061;0.001435945;0;
16297.1;12112.58;279.187;18879.36;-14.56722;5.595091;16882.02;8862.396;0.304047;0.06640185;0;
-10846.37;-7635.97;484.1939;-12424.82;-9.796183;4.986622;-11733.1;-6365.953;0.2387742;-0.1285669;0;
-20272.54;-13039.5;161.4475;-24258.87;-10.05476;6.924117;-21594.22;-9894.889;-0.08630247;-0.1934051;0;
-16321.18;-9915.383;16.48303;-19960.48;-7.901202;-4.670644;-17388.6;-7591.381;0.1086863;0.131626;0;
-26736.79;-19847.05;-34.46106;-30568.41;-7.223678;-7.680121;-27818.88;-14740.44;0.1735444;-0.2583103;0;
-8688.524;-6030.634;-331.1991;-11534.25;-11.97184;-0.5054138;-9226.44;-4781.046;-0.1514667;-0.4529528;0;
19389.74;14716.09;-375.9062;21295.74;-12.02619;-0.437923;20178.73;11116.16;0.1085549;0.3271104;0;
21195.1;14872.67;-93.87319;25511.61;-21.19113;2.17479;22492.81;11579.75;0.4332825;0.4567164;0;
19841.8;14405.97;87.36446;23473.07;-26.19368;3.512264;20910.41;11229.46;0.1729778;-0.06348121;0;
23249.38;17114.74;75.62628;27302.52;-11.83277;6.121008;24486.5;13802.72;0.3027387;0.001549915;0;
16675.98;12379.19;329.8287;19316.93;-9.677423;7.923336;17276.8;9114.216;0.4323691;0.2614177;0;
-10402.11;-7336.762;519.3394;-11900.1;-15.96434;5.838964;-11272.51;-6071.032;0.1720653;-0.06368165;0;
-19897.44;-12734.77;174.9435;-23885.71;-14.60815;5.364217;-21216.55;-9677.101;-0.2179116;-0.3884544;0;
-15374.17;-8971.903;25.40532;-19061.12;-16.73693;5.42581;-16448.4;-6876.468;-0.1527253;-0.193162;0;
-25741.7;-18877.69;20.63218;-29574.4;-16.38532;4.750529;-26825.51;-13800.51;0.3021995;-0.38787;0;
-8348.848;-5900.372;-269.0086;-11148.58;-15.76662;-1.014594;-8872.801;-4540.808;-0.02294082;-0.2575456;0;
19574.29;14746.59;-338.2658;21511.31;-17.29102;-3.491882;20371.71;11143.87;-0.3477545;0.1325173;0;
21287.22;14997.09;-65.2349;25595.02;-5.418272;-3.555356;22578.71;11706.11;0.1723337;0.06741679;0;
19837.52;14403.8;93.36034;23460.89;-2.465091;-4.958426;20903.19;11227.75;0.04222583;-0.06258564;0;
23196.59;17048.11;86.16072;27251.36;-8.759254;-6.226058;24431.67;13732.28;0.04218341;0.002444591;0;
16400.14;12139.19;351.5345;18997.28;-7.678726;-7.559461;16991.74;8876.745;0.3669777;0.1973442;0;
-10467.08;-7343.048;510.9759;-12048.91;-15.50789;-4.470711;-11350.46;-6138.475;0.04177228;0.1971459;0;
-20219.9;-12996.79;170.727;-24259.41;-18.238;-4.533202;-21546.61;-9713.132;-0.1531717;0.3918498;0;
-16633.96;-10223.11;25.08171;-20328.67;-15.34026;-2.720168;-17707.1;-7695.74;0.1718189;0.6513255;0;
-26560.82;-19728.35;-5.459404;-30455.3;-16.86509;-1.042862;-27665.43;-14631.81;0.7563522;0.0659649;0;
-8339.326;-5807.917;-281.2059;-11272.3;-12.22644;-8.007917;-8911.122;-4624.979;0.3008209;-0.06403606;0;
19349.89;14612.3;-334.5214;21223.84;-10.67392;-8.602656;20125.6;10993.49;-0.4141221;0.5857017;0;
21020.11;14726.16;-57.69929;25337.94;-12.33715;-11.00534;22315.16;11443.75;0.1710001;0.3252438;0;
19614.09;14179.44;99.3579;23234.13;-10.91824;-13.53957;20676.81;11002.96;0.690567;-0.06488704;0;
22849;16693.3;66.46205;26898.88;-11.30941;-4.88541;24083.06;13373.16;0.3650364;0.1300802;0;
16031.13;11899.22;323.2818;18620.19;-11.02962;-3.808774;16618.31;8679.797;-0.1550691;-0.06495254;0;
-11444.79;-8137.979;495.0735;-13009.07;-8.674018;-4.876674;-12327.43;-6744.879;-0.02497859;-0.06488729;0;
-21187.51;-13922.02;154.2315;-25183.74;-8.8;-3.532115;-22499.01;-10501.18;0.4947852;0.1950473;0;
-16746.13;-10350.83;10.88292;-20416.34;-4.839043;-7.0786;-17813.5;-7943.658;0.4293207;0.324786;0;
-27529.29;-20607.94;-24.39154;-31378.94;-2.824449;-6.937522;-28616.77;-15416.42;0.2989547;0.3244596;0;
-9925.672;-7151.69;-328.9796;-12848.59;-8.112896;-9.140927;-10474.72;-5566.603;0.2336869;0.2591663;0;
19117.43;14516.72;-393.1478;20926.84;-6.698225;-10.27045;19884.37;11016.81;0.1035174;0.1289712;0;
21329.71;15001.19;-116.3917;25631.65;-12.71971;-7.44691;22622.22;11675.89;-0.1564559;0.06387424;0;
19852.16;14417.26;42.52044;23469.72;-14.78401;-8.042274;20917.91;11252.76;-0.2212661;0.3236794;0;
23338.22;17217.61;28.82833;27372.59;-1.439922;-1.871885;24570.48;13920.29;-0.09110906;0.1934195;0;
17040.36;12648.33;312.2506;19720.57;1.308191;1.010201;17664;9352.983;-0.02605017;0.06329048;0;
-9825.425;-6940.69;519.848;-11299.11;4.58843;-4.952173;-10682.63;-5832.771;0.03894334;0.3230963;0;
-20288.21;-13069.41;185.4154;-24294.91;7.732628;-3.87547;-21625.34;-9784.233;0.03890421;0.1928369;0;
-17166.13;-10739.98;6.100357;-20825.31;6.585782;-4.608388;-18245.11;-8300.549;-0.2859716;-0.002258865;0;
-28472.62;-21571.3;-48.25346;-32313.39;7.24875;-4.603758;-29551.63;-16373.51;-0.3506516;-0.06722394;0;
-10710.76;-7688.309;-347.8512;-13722.74;5.098012;0.2235172;-11273.02;-6051.5;0.0395048;0.06277829;0;
18785.18;14359.32;-413.2187;20516.89;3.552649;1.094071;19537.06;10882.7;0.2993345;0.1926499;0;
21269.47;14908.47;-125.8696;25563.06;3.682801;5.91562;22562.46;11571.58;0.1041317;0.322391;0;
19866.07;14438.13;54.60375;23477.14;4.549757;7.584189;20932.58;11291.03;-0.2208097;0.127165;0;
23396.45;17264.67;42.89849;27421.7;-9.252567;7.978466;24628.6;13956.26;-0.02568577;-0.2627668;0;
16886.87;12533.62;318.623;19539.23;-13.73125;8.975193;17503.64;9274.176;0.1692421;-0.1975354;0;
-10437.24;-7428.152;515.1727;-11945.94;-0.5892847;4.143526;-11297.51;-6156.126;0.1041047;-0.06740224;0;
-20633.38;-13410.85;170.0314;-24681.31;0.4830344;3.000652;-21947.23;-10126.02;0.1689674;-0.00236718;0;
-16190.33;-9768.619;9.9409;-19947.6;4.836806;-0.820268;-17251.09;-7477.515;0.03886294;-0.06733214;0;
-26847.4;-19957.87;-9.94972;-30726.52;7.913404;-3.096864;-27928.06;-14818.06;-0.02614345;-0.002297145;0;
-9845.211;-7023.49;-298.4197;-12748.55;8.97718;-2.289957;-10392.95;-5477.497;0.03885016;0.0626725;0;
18941.26;14372.11;-359.1361;20763.73;12.31706;-3.158373;19714.68;10845.54;-0.02615621;-0.3271945;0;
21178.24;14841.94;-76.05794;25470.04;1.654766;-3.423131;22473.72;11529.78;-0.09109727;-0.2618984;0;
19480.08;14050.67;69.42976;23097.83;-2.097941;-4.692367;20547.8;10903.63;-0.2209404;0.1281688;0;
22863.75;16722.56;24.99168;26906.11;5.741048;1.34069;24101.07;13419.62;-0.09078374;-0.001894672;0;
16394.44;12139.4;294.3624;19017.75;3.189684;1.808223;17009.05;8884.891;0.2991115;-0.1967948;0;
-10697.97;-7565.292;503.1178;-12240.27;5.196211;0.7346793;-11553.86;-6291.897;0.3637783;-0.06666237;0;
-20597.71;-13361.8;170.4355;-24611.45;6.195368;1.269805;-21904.73;-10107.79;-0.1563259;0.193274;0;
-16128.92;-9729.416;1.911351;-19819.52;-9.551969;-6.30036;-17193.64;-7435.726;-0.09120151;0.5179165;0;
-26588.85;-19692.25;-24.71781;-30443.13;-12.22071;-6.963858;-27659.27;-14624;0.1687595;-0.002342653;0;
-9379.82;-6567.427;-296.041;-12290.85;-15.02245;-15.93233;-9905.668;-5235.999;-0.09127945;-0.522079;0;
19009.53;14433.45;-354.9012;20834.53;-17.95411;-19.46636;19788.72;10840.76;-0.2860897;-0.2616851;0;
21004.48;14668.33;-81.93168;25315.45;-5.210049;-10.7392;22299.8;11398.68;-0.1558676;-0.3263895;0;
19512.88;14086.68;72.40124;23138.92;-1.65484;-10.52752;20581.44;10921.83;0.1691257;-0.4559962;0;
22966.65;16829.75;40.67252;27005.53;-0.5141014;-1.943308;24201.52;13541.02;0.2988905;-0.1956687;0;
16550.6;12243.26;317.1333;19202.71;1.897313;1.675662;17168.47;8988.556;0.4934922;0.1293647;0;
-10656.63;-7582.709;512.3414;-12129.16;9.799636;1.740961;-11506.26;-6324.846;0.4929963;0.06426734;0;
-20830.84;-13588.07;160.5812;-24795.14;12.8039;3.949587;-22141.66;-10259.81;0.1676642;-0.2606339;0;
-16183.96;-9767.203;-10.01008;-19852.54;10.916;-0.8100474;-17259.25;-7453.231;0.2974304;-0.3903067;0;
-26665.43;-19792.77;-49.41771;-30496.39;13.58435;-2.617773;-27749.41;-14629.08;0.1022296;-0.1300452;0;
-9773.875;-7004.906;-324.8702;-12712.5;-2.907346;-3.418877;-10321.24;-5402.312;-0.2876772;0.1949222;0;
18903.35;14317.61;-365.0234;20675.07;-7.526125;-5.22398;19666.42;10806.11;0.1673832;0.129759;0;
21087.45;14764.53;-89.35751;25392.64;-1.088201;-11.91684;22382.45;11458.83;0.1022477;-0.1952081;0;
19342.83;13913.12;76.61764;22970.19;-3.364284;-14.45016;20409.94;10763.7;-0.5475284;-0.195012;0;
22777.28;16637.95;55.78546;26814.33;1.260797;-15.97618;24007.89;13348.82;-0.2221416;0.1300207;0;
16529.09;12248.73;316.1141;19189.57;-0.08061639;-17.50074;17155.62;8979.609;0.5576897;0.3897594;0;
-10649.79;-7542.124;521.49;-12140.88;9.230214;-11.92369;-11497.21;-6342.685;0.492162;0.1944658;0;
-21057.3;-13790.62;183.1671;-25029.15;12.43612;-10.10323;-22373.93;-10408.64;-0.09303859;0.129303;0;
-16568.63;-10156.86;8.804927;-20214.8;-1.106684;-7.547791;-17638.04;-7717.997;0.2318916;0.3240751;0;
-26954.44;-20053.76;-26.20195;-30800.86;-2.10995;-5.195866;-28041.88;-14956.82;0.3615933;-0.1310219;0;
-9977.528;-7063.609;-316.5921;-12948.95;-13.09352;-1.640611;-10531.52;-5608.402;-0.4183781;-0.3257923;0;
18748.92;14255.09;-377.6338;20513.61;-18.50537;0.8393452;19515.78;10710.8;-0.8727291;-0.0006282111;0;
21048.65;14701.55;-104.1729;25354.13;-13.19549;-0.5680787;22340.72;11409.3;-0.2871462;0.2592418;0;
19490.34;14061.23;65.50281;23111.93;-15.19196;0.2362263;20552.79;10905.06;0.03797908;0.194014;0;
22964.84;16831.97;44.9629;26999.77;-11.22458;-2.845165;24196.28;13548.91;-0.09199376;-0.195985;0;
16679.35;12367.59;294.5735;19377.37;-10.81116;-3.780006;17308.46;9083.186;0.2329354;-0.0008860867;0;
-10339.73;-7264.773;504.0627;-11787.26;-3.499282;-3.709225;-11187.85;-6104.249;0.362636;0.1290495;0;
-20651.37;-13421.28;183.4359;-24653.87;1.594449;-4.44231;-21978.55;-10130.12;-0.1574671;-0.3908189;0;
-16171.59;-9767.001;14.61754;-19870.61;-12.94184;-2.562386;-17254.05;-7470.102;-0.2872436;-0.06558951;0;
-26522.05;-19650.11;-2.669712;-30371.76;-15.74187;-1.889982;-27618.56;-14544.46;-0.481857;0.5191825;0;
-9644.234;-6901.259;-284.9782;-12631.63;-6.683727;-1.888083;-10216.24;-5337.526;-0.5463401;0.1288568;0;
18923.41;14329.4;-360.3726;20649.87;-7.748738;-1.685236;19674.13;10813.08;-0.02605243;-0.1311421;0;
21185.05;14859.29;-90.14616;25483.29;-3.788837;3.674969;22481.71;11561.91;0.1039084;-0.001075645;0;
19531.08;14094.17;60.85294;23152.08;-0.101335;6.28355;20598.18;10942.1;0.03883668;-0.06604191;0;
22964.08;16847.79;20.76504;26985.02;-19.05655;1.320621;24195.41;13580.23;0.103765;0.06395914;0;
17054.95;12601.43;283.2685;19755.08;-22.92217;0.9843798;17692.73;9288.42;0.2335954;0.06389487;0;
-9762.745;-6920.773;501.0617;-11196.25;-9.637246;4.332476;-10606.71;-5815.154;0.103426;0.1937654;0;
-20276.44;-13089.26;180.0943;-24300.94;-8.087321;4.930908;-21600.08;-9902.285;-0.3514493;-0.1312661;0;
-15807.91;-9382.732;7.593743;-19562.94;-5.065085;3.318424;-16878.16;-7268.404;-0.1561941;-0.5209382;0;
-26182.03;-19295.66;-26.13131;-30065.41;-2.447051;2.980175;-27264.94;-14325.08;-0.09106985;-0.1955781;0;
-9411.135;-6662.597;-303.4813;-12359.37;-3.047805;5.120574;-9954.357;-5230.705;-0.5457497;-0.1304142;0;
19068.95;14479.75;-357.9769;20848.85;-4.786055;5.718275;19842.38;10900.45;-0.3502993;-0.3251852;0;
21258.69;14932.75;-89.75185;25560.76;8.547992;4.640863;22552.19;11666.6;-0.28498;-0.2598911;0;
19744.25;14299.98;62.98036;23360.9;12.55789;5.038037;20808.32;11141.28;-0.6095304;0.06520676;0;
23120.63;17027.37;45.78506;27150.45;-9.826295;4.22924;24351.62;13774.97;-0.08917918;0.389978;0;
17364.33;12776.06;312.3394;20125.32;-13.16532;3.957059;18016.51;9437.211;0.4306492;0.2596514;0;
-8764.309;-6137.428;520.4677;-10136.34;-21.92698;6.364408;-9587.588;-5137.294;0.2353144;0.1944232;0;
-19209.34;-12204.93;202.6199;-23257.22;-28.87117;6.491978;-20530.14;-9174.522;0.3000453;-0.0006742141;0;
-14902.3;-8620.007;32.31426;-18679.46;-16.18251;9.030746;-15967.71;-6659.188;0.3647112;-0.3255102;0;
-25143.85;-18305.91;8.934151;-29009.17;-16.03253;10.62926;-26228;-13383.46;0.1694427;-0.1302812;0;
-8724.229;-6176.322;-262.0168;-11658.12;-13.13603;5.193025;-9282.231;-4796.663;0.03933774;0.06475179;0;
19328.21;14598.77;-334.4982;21118.19;-11.04575;4.384073;20097.19;10987.88;-0.2855385;0.1296541;0;
21421.38;15129.94;-64.2821;25732.53;-8.757478;5.384351;22718.34;11887.12;-0.2852516;0.2594585;0;
19882.79;14429.46;95.63964;23506.79;-6.471502;3.704428;20948.24;11267.18;-0.1550303;-0.06563894;0;
23309;17238.41;40.94599;27347.06;-9.010595;10.46586;24542.57;14006.92;-0.1548745;-0.3254423;0;
17845.63;13114.58;288.6866;20609.75;-7.393951;12.79962;18504.2;9747.101;0.04018314;-0.1302133;0;
-7739.75;-5330.117;534.8507;-9137.612;-16.49522;2.672585;-8564.998;-4446.064;0.1051101;0.1297869;0;
-17916.34;-11154.85;237.6812;-22042.63;-18.15359;1.06237;-19268.65;-8305.279;-0.02493019;0.1296565;0;
-13718.84;-7752.983;65.73176;-17591.22;-17.93428;4.879208;-14835.02;-6034.572;-0.1548398;-0.000408491;0;
-24164.25;-17442.51;55.88938;-28103.89;-20.86399;5.075253;-25303.16;-12683.51;-0.2846189;0.06455926;0;
-8131.504;-5726.938;-216.9047;-11128.69;-4.968197;4.668256;-8739.64;-4419.863;-0.08943091;0.1944291;0;
19520.46;14662.42;-322.2274;21270.21;-0.9437408;5.132446;20271.58;11033.95;0.105561;0.1292664;0;
21537.55;15291.08;-89.83282;25842.91;-5.297049;6.466948;22839.1;12071;0.3653243;0.1291365;0;
20114.2;14647.51;69.92719;23730.57;-3.148273;6.594416;21176.52;11477.21;0.2350225;0.1939741;0;
23414.5;17355.21;46.16571;27440.18;-6.963502;11.34339;24646.38;14136.61;-0.4148871;0.3237139;0;
17964.36;13187.68;294.4476;20765.21;-8.028233;13.07355;18632.4;9801.907;-0.4144702;0.1284866;0;
-7225.677;-4970.072;528.8151;-8582.491;-8.421331;9.510444;-8049.244;-4188.352;-0.08921701;-0.001577237;0;
-17706.75;-10875.79;251.5322;-21813.13;-10.35525;9.299938;-19062.32;-8031.069;-0.219062;-0.1315103;0;
-14034.86;-7922.893;85.31599;-17884.78;-11.75137;7.214123;-15137.29;-6122.205;-0.2188419;-0.06641085;0;
-24395.64;-17635.61;46.21863;-28340.15;-13.81664;5.666327;-25512.23;-12805.22;-0.1536547;-0.00137678;0;
-8413.428;-5847.164;-238.5597;-11378.36;-14.80714;7.20118;-9004.83;-4470.929;-0.08853296;-0.1313101;0;
19277;14528.25;-325.2451;21074.74;-16.3325;7.059979;20034.13;10909.94;-0.1534113;-0.1311781;0;
21484.84;15219.22;-72.63879;25770.55;-16.11599;3.971792;22786.15;11999.68;-0.2831919;-0.260981;0;
19946.33;14490.48;85.62031;23535.02;-15.63031;3.498921;21011.02;11329.26;-0.21794;-0.3906535;0;
23257.46;17182.74;50.47377;27270.59;-20.77217;3.294456;24491.17;13964.32;-0.2826883;-0.1953589;0;
17782.89;13102.25;304.436;20557.72;-21.55558;2.420368;18453.97;9739.558;-0.1524696;0.06470676;0;
-8063.653;-5642.135;525.019;-9430.701;-18.98832;9.651971;-8871.923;-4818.572;0.04258562;-0.0003256018;0;
-18888.92;-11861.51;213.1949;-22995.61;-19.43776;12.52242;-20222.3;-8868.849;-0.1523592;-0.13026;0;
-14954.73;-8638.673;51.04643;-18798.52;-13.25629;7.35227;-16041.1;-6696.696;0.1726306;0.1297403;0;
-25636.5;-18808.5;21.0883;-29565.02;-11.56803;8.014711;-26744.06;-13846.79;0.1074898;-0.0003247525;0;
-9623.639;-6907.872;-270.6144;-12683.89;-12.29334;10.15011;-10227.4;-5283.051;-0.2824223;-0.06529177;0;
18893.36;14270.94;-337.3401;20573.3;-10.80809;10.67578;19631.03;10746.94;-0.2171711;0.06470852;0;
21331.84;15034.98;-59.6249;25629.1;-16.7581;11.13381;22632.36;11778.1;-0.2819203;0.0646435;0;
19675.93;14231.92;112.005;23293.67;-17.81299;10.31895;20741.11;11096.46;-0.4115717;0.2594806;0;
23044.82;16969.96;62.9171;27067.17;-18.7331;16.20283;24276.85;13743.72;-0.2812234;0.3241872;0;
17605.29;12944.16;284.3363;20359.84;-20.45559;17.79414;18265.33;9610.235;0.04389584;0.1939268;0;
-8461.445;-5985.905;510.5617;-9850.47;-16.14812;11.54697;-9290.854;-5018.307;-0.08608295;0.1937319;0;
-19561.39;-12547.4;197.5495;-23582.45;-15.06017;11.46839;-20898.3;-9403.479;-0.6057352;-0.1312995;0;
-15247.5;-8924.124;6.853058;-18986.3;-17.59064;4.289934;-16324.58;-6916.526;-0.2153225;-0.0662002;0;
-25280.91;-18458.03;-17.86016;-29165.94;-17.9751;-0.06820617;-26376.33;-13531.01;0.4995346;-0.001166339;0;
-9199.628;-6565.845;-277.9458;-12189.06;-11.32561;9.376273;-9788.765;-5022.922;0.369098;0.06380218;0;
19002.34;14350.85;-340.2913;20746.64;-9.170774;8.563056;19741.48;10803.05;0.2387924;0.1287054;0;
21305.21;15014.89;-95.97829;25606.14;-15.4582;8.554452;22603.59;11776.35;0.1735852;0.1935434;0;
19686.97;14239.96;54.27704;23302.45;-17.25035;9.416635;20753.95;11095.45;-0.4762627;0.3232836;0;
23022.28;16952.83;26.39274;27045.48;-11.13843;-0.4391353;24253.64;13749.88;-0.6057188;0.1280568;0;
17734.75;13042.21;272.1489;20557.8;-9.787087;-3.050967;18416.49;9665.677;-0.02040409;-0.1969086;0;
-8082.805;-5631.799;499.6516;-9381.971;-18.21735;-3.114885;-8883.912;-4813.543;0.3044531;0.1930933;0;
-18957.13;-12073.52;202.0489;-23030.63;-18.80128;-4.652301;-20292.48;-9074.75;0.1742125;0.127932;0;
-14202.64;-8082.814;36.55396;-18042.36;-22.13129;-5.585388;-15282.79;-6232.04;0.4988742;-0.3919353;0;
-24487.55;-17681;21.60285;-28376.06;-24.85572;-6.316527;-25581.89;-12810.05;0.6283076;-0.3265742;0;
-9176.067;-6516.576;-248.6268;-12134.99;-13.37654;-3.697906;-9764.729;-4930.161;-0.2168992;0.063558;0;
19003.29;14341.57;-331.0854;20751.21;-11.42072;-3.158388;19746.21;10793.99;-0.8013873;-0.06644054;0;
21468.93;15191.32;-76.00576;25771.76;-10.53858;0.7297343;22768.65;11953.89;-0.410778;-0.3912105;0;
19854.14;14398.23;78.04009;23469.98;-7.782304;2.872394;20920.88;11268.66;-0.02056122;0.063954;0;
23239.92;17195.58;22.69258;27260.49;-12.59726;-0.345612;24472.09;13985.89;0.2393288;0.06388973;0;
18016.01;13215.92;267.453;20830.27;-12.51725;-0.8140843;18698.7;9853.889;0.4339904;-0.1960438;0;
-7421.174;-5163.629;521.8687;-8727.812;-14.44705;2.33481;-8223.875;-4345.943;0.3036196;-0.2608142;0;
-18462.21;-11588.51;243.0311;-22525.68;-16.30757;2.93531;-19810.02;-8639.025;0.1733798;-0.3255195;0;
-14563.97;-8395.648;71.48241;-18399.27;-13.00963;-1.756323;-15665.73;-6532.633;0.1082383;0.06461167;0;
-24749.13;-17977.21;56.02769;-28680.88;-13.53242;-2.290421;-25873.15;-13152.19;0.04316217;0.4543508;0;
-8894.22;-6355.708;-194.434;-11961.33;-12.31338;-5.235308;-9517.173;-4917.281;-0.4116526;0.2589923;0;
19065.62;14308.97;-276.9471;20730.38;-10.96086;-6.971543;19793.18;10736.31;-0.801043;0.06382998;0;
21286.99;15026.99;-40.64678;25583.66;-16.24113;-0.5343593;22589.19;11815.04;-0.215532;-0.06616884;0;
19625.96;14179.77;112.692;23234.62;-16.56058;1.006785;20690.54;11033.15;0.1095212;0.1287997;0;
22912.58;16851.49;73.50466;26923.06;-16.87873;1.273705;24141.19;13659.72;-0.08549084;0.3885396;0;
17742.24;13010.03;312.6543;20598.18;-19.13895;3.549784;18433.9;9633.4;-0.1503723;-0.001654836;0;
-7714.898;-5345.765;538.6483;-8978.478;-5.991551;2.943371;-8509.649;-4578.125;0.1096482;-0.1965552;0;
-18707.09;-11799.76;232.3701;-22766.21;-1.631274;3.878174;-20058.85;-8825.56;0.04457067;0.128479;0;
-14354.94;-8194.299;50.19681;-18178.89;-12.14583;7.893131;-15459.39;-6311.857;-0.6051475;0.323252;0;
-24543.63;-17753.43;37.82444;-28448.96;-10.65976;9.157876;-25673.51;-12874.51;-0.4746048;0.4528618;0;
-9152.117;-6539.14;-228.1424;-12180.24;-12.9272;12.16278;-9782.391;-4959.187;-0.08432386;-0.002364612;0;
18917.96;14236.58;-322.7874;20615.87;-12.77951;15.03083;19646.12;10707.24;-0.08423913;-0.1972643;0;
21344.99;15070.24;-67.91908;25651.16;-6.805802;6.910913;22647.56;11841.32;0.0457802;0.192738;0;
19601.92;14161.1;106.1242;23222.75;-6.2631;4.961525;20667.88;11028.47;0.1107015;0.127577;0;
22920.09;16867.63;54.02809;26937.96;5.799633;10.98482;24152.25;13680.63;0.3054923;-0.002485878;0;
17773.4;13041;254.9978;20658.7;9.411127;9.433297;18470.4;9650.01;0.3701527;0.06248396;0;
-7508.21;-5055.453;481.7212;-8721.672;8.262595;15.85394;-8293.138;-4339.488;-0.02002327;-0.3923502;0;
-18111.99;-11388.36;216.2453;-22185.39;9.59444;17.78051;-19454.88;-8462.928;-0.2149052;-0.586858;0;
-13566.72;-7724.143;68.74273;-17438.86;6.838133;6.10792;-14668.13;-5853.075;-0.4095913;-0.2614316;0;
-23587.89;-16850.2;74.03033;-27483.09;8.237782;4.42721;-24713.45;-12150;-0.4091797;0.06366777;0;
-8249.917;-5811.805;-203.6233;-11230.87;-10.45739;0.4039072;-8862.131;-4552.896;0.04600284;0.1935385;0;
19218.18;14368.38;-319.6415;20941.49;-17.01194;-2.476704;19962.4;10757.86;0.110924;0.2583114;0;
21420.83;15191.93;-77.22327;25722.91;-3.865707;0.6069388;22723.35;12010.71;-0.2140242;-0.1317522;0;
19875.56;14415.36;88.14625;23495.78;-4.799828;-0.3984151;20938.64;11269.5;-0.2138092;-0.3914892;0;
22974.97;16955.87;66.63094;27002.27;-0.03958293;4.893515;24205.97;13781.42;-0.08365964;-0.001291803;0;
18062.25;13173.99;307.4742;20929.72;1.434325;6.697137;18759.52;9784.729;0.1113264;-0.06625785;0;
-6628.342;-4518.549;523.9;-7856.319;3.106848;7.092244;-7412.263;-3787.208;-0.0187201;-0.1311586;0;
-17594.96;-10902.52;241.3903;-21669.32;4.912387;9.697453;-18940.27;-8082.413;-0.4734727;0.2587772;0;
-13158.39;-7250.97;83.49265;-17082.72;-1.120769;6.941408;-14270.46;-5633.222;-0.3430623;0.1285825;0;
-22913.73;-16228.75;76.52159;-26878.57;-1.454436;8.809956;-24060.71;-11566.92;-0.01788083;-0.1963834;0;
-8145.573;-5748.464;-183.1279;-11158.74;-7.749614;7.729376;-8776.847;-4351.528;-0.2127649;-0.1312187;0;
19106.61;14234.79;-292.8887;20809.73;-9.148347;8.927302;19843.31;10659.61;-0.2125511;0.06381515;0;
21476.83;15255.42;-70.03437;25769.8;-13.76085;14.00891;22779.93;12068.71;-0.08240285;0.06375103;0;
19721.17;14276.15;92.37627;23334.85;-16.96221;15.66929;20784.44;11136.99;-0.01735271;0.258589;0;
22989.26;16950.44;61.17409;27003.11;-5.758405;25.09801;24218.52;13784.62;0.1775668;0.5181985;0;
18094.41;13276.43;307.8948;20993.19;-6.021039;28.55579;18807;9894.158;0.307323;0.3877432;0;
