Fp1;Fp2;O1;O2;POLY3;POLY4;A1;A2;Video;Audio;event;
-5525.672;-3426.522;-1748.709;-10322.77;14.42609;-4.169036;-6150.192;-3187.888;-0.02156916;0.2557115;0;13:29:00 Глаза открыты;
10012.65;6816.321;-1326.85;11521.47;-1.128447;-3.829933;11145.88;5345.184;-0.2164495;0.06055249;0;
17012.99;13511.48;-535.3206;22026.8;-3.33714;-2.821402;18383.59;11728.02;-0.6060361;0.125459;0;
13289.15;10170.42;304.1706;18167.02;2.627084;-3.957216;14469.49;8626.729;-0.1506557;0.3852023;0;
11825.32;8521.959;1838.906;17025.44;2.222303;-4.087205;13094.62;6943.388;0.5641364;0.4497826;0;
12032.2;8679.484;2872.944;16984.43;4.363523;2.07921;13215.7;6849.08;0.4986022;0.3843633;0;
-6071.278;-5240.478;2444.396;-4514.522;5.096073;4.62235;-6350.435;-4178.106;-0.2165395;0.05914037;0;
-29013.52;-23402.08;1535.958;-32648.04;8.640926;2.273425;-30622.44;-18015.08;-0.411224;-0.3307231;0;
-17634.38;-13777.47;652.0453;-24416.11;10.90942;3.342745;-19228.7;-11700.59;0.04396061;-0.005554081;0;
-6674.319;-2630.004;-726.8233;-14217.61;9.224494;4.210165;-8436.293;-3138.805;-0.08601824;0.3192882;0;
-5581.581;-3500.361;-1765.758;-10517.37;10.48802;3.670071;-6275.976;-3229.089;-0.2158665;0.1890327;0;
9917.942;6708.699;-1373.586;11308.53;9.606829;10.49852;10991.95;5243.54;-0.3455843;-0.006059263;0;
17088.79;13599.71;-573.3575;22115.67;8.993963;12.69841;18466.06;11815.92;-0.4102044;0.05891417;0;
13310.21;10183.88;241.3719;18196.84;14.54463;6.858255;14491.94;8637.84;-0.2148902;0.05885497;0;
11692.97;8397.68;1752.901;16887.14;16.53877;7.253262;12955.62;6823.942;-0.1497069;-0.07113885;0;
12072.32;8716.468;2816.51;17033.17;7.613547;0.7487511;13264.52;6881.179;0.1752802;-0.201002;0;
-5596.229;-4783.899;2410.32;-4084.868;3.587409;-3.13695;-5876.738;-3885.483;0.3050388;-0.5256368;0;
-28533.45;-22908.14;1509.131;-32181.15;16.57825;9.123774;-30137.37;-17661.37;-0.02010443;-0.590076;0;
-17325.32;-13607.11;635.2411;-24127.35;18.10183;10.78918;-18913.17;-11584.16;0.1748178;-0.199679;0;
-6176.552;-2318.089;-744.0167;-13776.17;5.49134;7.094398;-7925.63;-3079.628;0.1096748;0.1253583;0;
-5259.007;-3153.089;-1784.277;-9981.356;2.873854;9.230602;-5867.571;-3094.556;-0.02037008;-0.06966965;0;
9919.229;6744.73;-1400.395;11544.08;-0.8127286;2.724105;11064.04;5290.262;-0.08531696;0.06033504;0;
17100.04;13594.21;-609.9158;22096.84;-4.161791;1.984677;18467.89;11821.8;-0.3451006;0.5150458;0;
13432.24;10310.08;215.3762;18307.92;-3.688118;6.738349;14614.72;8753.553;0.1100176;0.1247242;0;
11829.74;8541.422;1730.336;17027.41;-4.421347;6.664596;13096.16;6982.893;0.1748744;-0.3301725;0;
12157.12;8775.749;2791.844;17151.49;-7.699434;13.48991;13352.54;6921.481;-0.1501381;-0.06997136;0;
-5234.341;-4497.964;2403.201;-3575.814;-9.098217;15.08395;-5491.863;-3623.317;0.1748495;0.125001;0;
-27975.74;-22417.39;1505.768;-31604.37;-0.7163305;17.07828;-29591.32;-17160.54;0.1097065;-0.1999613;0;
-17102.88;-13477.74;618.0126;-23935.51;1.360494;19.33842;-18721.4;-11419.88;-0.1502731;-0.5895644;0;
-6541.901;-2717.626;-779.7498;-14120.05;0.6895418;9.204808;-8318.602;-3218.802;-0.2150895;-0.2641354;0;
-5806.631;-3649.91;-1834.155;-10743.12;2.095369;6.181449;-6476.431;-3269.556;-0.4097754;0.1259341;0;
9819.789;6651.113;-1430.139;11216.11;2.629127;7.112999;10920.83;5225.695;-0.279429;0.3207096;0;
17251.6;13740.5;-623.2942;22256.35;4.502495;4.09162;18622.23;11937.79;0.04568852;0.3853547;0;
13439.38;10320.66;183.8642;18320.24;-4.611708;2.881816;14618.73;8787.65;-0.01932473;0.1250981;0;
11812.23;8521.547;1702.073;17004.12;-7.219042;0.7355887;13073.98;6949.162;0.04566203;0.1249724;0;
12275.53;8887.718;2784.942;17241.39;-0.9161251;-1.944407;13471.31;7045.534;0.3054855;0.3197489;0;
-5115.38;-4424.791;2389.154;-3539.481;-1.785861;-3.684009;-5376.774;-3611.115;0.1102765;0.2544602;0;
-28186.92;-22626.21;1486.331;-31792.83;4.177781;-4.417059;-29799.12;-17430.76;-0.01976895;0.1242699;0;
-17520.96;-13752.11;609.5585;-24291.87;7.522485;-4.613569;-19138.31;-11642.92;0.3050876;0.124145;0;
-6351.837;-2475.673;-764.7073;-13905;-3.805555;-9.431582;-8121.885;-3168.213;0.4996831;-0.005914431;0;
-5143.871;-3113.238;-1802.073;-9920.479;-6.547421;-11.63248;-5772.526;-3066.017;0.4342137;-0.2008105;0;
9994.925;6775.249;-1426.544;11566.16;2.032973;-4.8557;11129.45;5303.093;0.36881;-0.3305434;0;
17094.07;13604.82;-646.4085;22110.45;1.427718;-4.047026;18463.44;11837.41;0.1735374;-0.5251133;0;
13416.97;10296.12;151.0905;18291.8;1.292562;-4.109942;14596.74;8736.542;-0.216441;-0.394651;0;
11743.43;8449.381;1638.004;16941.12;1.558706;-2.096385;13001.38;6891.405;-0.0213215;0.1904516;0;
12078.93;8704.274;2710.443;17087.44;-4.604802;-8.055638;13276.35;6850.997;0.173602;0.2552276;0;
-4978.688;-4285.775;2359.738;-3338.549;-4.331755;-8.382459;-5230.337;-3549.115;0.1084602;-0.1348329;0;
-27877.14;-22289.81;1488.554;-31486.43;-16.51854;-7.57024;-29490.28;-17163.53;0.6280898;-0.2646321;0;
-17616.4;-13710.8;600.5974;-24371.5;-21.86058;-8.63436;-19219.07;-11628.68;0.4325568;0.2553726;0;
-6546.034;-2540.199;-777.751;-14090.34;-4.624608;-1.994497;-8310.734;-3213.724;-0.2175513;0.64492;0;
-5342.699;-3246.634;-1816.104;-10224.68;-2.341809;-0.8538437;-5995.278;-3141.249;-0.3472674;0.05956589;0;
9775.869;6590.467;-1440.217;11220.65;-3.746951;1.960297;10898.68;5136.186;-0.1520164;-0.135396;0;
17098.63;13599.96;-650.041;22081.07;-1.867176;5.508301;18467.81;11821.72;0.3029078;0.05964208;0;
13407.31;10283.83;152.4279;18289.49;-0.2577098;-4.745378;14586.3;8731.44;0.4975054;-0.2002872;0;
11720.58;8430.624;1662.984;16906.82;1.886003;-6.147252;12983.99;6869.505;0.4320382;-0.3300206;0;
12274.19;8892.901;2760.073;17257.47;-6.020122;-1.586297;13469.76;7042.574;0.4965714;-0.2647217;0;
-4978.066;-4305.374;2383.238;-3321.532;-8.424971;-2.790395;-5237.865;-3475.469;0.3661378;-0.1994884;0;
-28295.22;-22733.03;1483.701;-31857.68;-6.206678;4.982245;-29912.09;-17483.14;0.1708678;0.1255488;0;
-17985.56;-14094.44;601.1213;-24707.04;-8.745061;7.455608;-19599.12;-11907.25;0.2356635;-0.1994141;0;
-6917.045;-2882.425;-785.1924;-14415.03;-6.391749;0.950894;-8685.92;-3320.616;0.6252307;-0.4590831;0;
-5707.309;-3523.268;-1835.125;-10592.35;-6.721096;0.6820068;-6350.862;-3232.681;0.4946678;0.1260843;0;
9756.109;6604.324;-1457.689;11185.72;-11.00027;-0.2564395;10882.92;5151.136;0.03939939;-0.2638464;0;
17167.64;13655.95;-663.9349;22165.9;-10.65443;-1.863711;18534.85;11878.33;0.1692945;-0.393516;0;
13485.9;10370.42;151.6975;18368.01;-16.87301;1.755179;14667.07;8811.77;0.4939611;0.2565528;0;
11741.22;8443.716;1654.29;16939.62;-17.72672;3.159935;13002.52;6898.966;0.1686281;0.1263604;0;
12169.76;8797.455;2731.866;17181.03;-13.95884;-3.407385;13367.16;6925.596;-0.02644342;0.1262334;0;
-4860.206;-4224;2367.959;-3133.578;-13.60904;-3.403961;-5086.895;-3425.086;0.2334525;0.3210086;0;
-27971.66;-22376.85;1475.933;-31564.59;-2.34321;-2.46278;-29581.75;-17220.86;0.1682506;-0.06911804;0;
-18213.58;-14057.27;567.0625;-24899.26;2.682987;-3.197117;-19804.16;-11853.5;-0.1567552;0.0608861;0;
-8510.711;-4166.217;-857.3541;-15847.9;2.546569;7.523181;-10289.53;-3718.766;-0.02666297;0.06082492;0;
-7468.976;-4997.892;-1919.177;-12777.7;6.428776;10.12783;-8331.501;-3800.299;-0.02663618;-0.3940076;0;
9333.025;6327.705;-1502.988;10202.77;5.752731;10.45257;10298.82;4880.892;-0.3514461;-0.458579;0;
17196.83;13655.25;-686.8251;22195.11;6.483885;12.25061;18592.08;11824.9;-0.09122362;-0.1332815;0;
13314.6;10197.69;107.9034;18215.91;9.290409;8.152341;14494.84;8685.186;0.1037701;0.1916891;0;
11625.75;8337.261;1614.069;16815.58;9.281075;7.541425;12885.17;6750.473;0.1036658;0.3214312;0;
12089.36;8706.959;2702.587;17054.37;7.998951;2.041368;13290.19;6870.424;0.2984636;0.1911735;0;
-5045.02;-4414.043;2328.152;-3502.805;6.718116;-0.6399999;-5295.348;-3582.948;-0.221575;0.06104673;0;
-28528.89;-22953.01;1440.976;-32102.02;4.768982;-2.313869;-30144.11;-17633.64;-0.4162544;0.3208548;0;
-18321.81;-14271.9;559.3768;-24991.68;3.022878;-5.258732;-19918.6;-12050.32;0.2988046;0.4504671;0;
-7754.706;-3534.078;-847.4471;-15181.19;-1.468138;-0.6317478;-9526.725;-3528.156;0.1036024;0.3850471;0;
-7094.382;-4640.735;-1927.271;-12367.23;-4.279702;-0.4971472;-7927.357;-3725.76;-0.2213384;0.2547255;0;
9189.877;6178.945;-1532.407;10082.73;-2.46674;-1.166477;10164.56;4782.942;0.03875335;-0.07036716;0;
17206.67;13658.74;-702.44;22179.03;-2.33054;-0.4954755;18595.81;11826.44;0.1036818;-0.005329122;0;
13509.29;10392.21;123.0075;18413.38;-5.543379;-3.3082;14693.08;8865.506;0.2335123;0.2545456;0;
11910.08;8626.074;1649.117;17053.2;-3.930218;-4.644474;13164.87;7060.032;-0.3514284;-0.005579535;0;
12501.61;9090.919;2742.128;17536.74;-6.940379;-1.826584;13715.63;7222.321;-0.675912;-0.395378;0;
-4281.198;-3781.625;2358.033;-2509.347;-7.536618;-2.025698;-4488.949;-3107.497;0.1693425;-0.3300134;0;
-27912.53;-22393.95;1452.555;-31436.72;5.197956;-5.238782;-29519.63;-17234.08;0.2991071;-0.1347797;0;
-18554.86;-14431.69;552.61;-25248.49;6.599253;-5.367484;-20166.52;-12069.59;-0.02603017;0.06025772;0;
-8300.457;-4046.497;-855.6752;-15676.09;14.63057;-10.11776;-10080.1;-3660.542;0.1039307;-0.2646395;0;
-7267.709;-4846.496;-1919.905;-12578.71;17.02677;-11.04535;-8119.934;-3720.223;-0.02610845;-0.524243;0;
9210.845;6182.38;-1531.264;10062.37;9.842366;-11.43609;10169.83;4760.395;-0.1560169;-0.3288142;0;
17191.39;13649.85;-716.3842;22170.61;9.967175;-13.16615;18578.77;11814.31;-0.02592545;-0.1985491;0;
13486.51;10364.2;105.2667;18395.39;-11.47738;-2.100986;14668.36;8845.272;0.1690026;0.1264871;0;
11758.25;8474.902;1616.557;16905.88;-19.83859;0.6473644;13002.92;6885.959;0.1038655;-0.003574697;0;
12265.2;8858.189;2718.316;17335.43;-17.34041;-0.9608764;13481.78;7017.096;0.03879377;-0.2634405;0;
-4245.221;-3689.034;2364.917;-2407.321;-23.08279;1.518458;-4438.425;-3111.18;0.03875479;-0.1332411;0;
-27688.51;-22123.32;1457.433;-31160.54;-17.1651;-5.047274;-29288.47;-17059.26;0.1036832;-0.3280092;0;
-17965.28;-14036.21;568.8835;-24701.04;-16.94775;-6.247895;-19587.06;-11847.57;0.298481;-0.2627123;0;
-7009.167;-2976.754;-812.5877;-14489.81;-16.32751;-3.964197;-8804.149;-3354.354;0.2981811;-0.002578958;0;
-6366.069;-3956.3;-1901.099;-11565.93;-13.43072;-4.764009;-7160.703;-3472.22;-0.09192255;0.06239098;0;
9284.214;6259.995;-1535.153;10314.7;-15.62803;-3.754478;10315.7;4839.5;-0.2867322;-0.002639058;0;
17214.18;13662.68;-726.4221;22192.36;-13.40152;-3.884672;18598.16;11849.66;0.1683273;-0.002636406;0;
13475.61;10363.76;70.96986;18385.8;-11.31195;-3.67988;14650.48;8812.068;0.2980928;0.517105;0;
11679.35;8385.136;1580.983;16854.36;-9.223501;-3.877071;12930.21;6824.787;0.03792395;0.3216834;0;
12278.89;8881.723;2693.085;17317.13;-5.396816;-2.466594;13490.51;7011.707;0.1678205;-0.2633459;0;
-4128.738;-3583.207;2338.587;-2363.305;-3.114218;-2.129201;-4329.69;-3054.673;0.03771722;0.06175538;0;
-27624.32;-22042.84;1437.283;-31117.83;-1.704569;-4.136489;-29229.2;-16975.75;0.1026467;0.1266607;0;
-18260.31;-14199.17;532.9486;-24952.13;-1.635507;-3.998367;-19877.23;-11892.89;0.3624129;0.1915008;0;
-7788.916;-3598.131;-873.5052;-15213.96;4.729148;-8.214212;-9555.937;-3569.696;0.1671467;0.126341;0;
-7107.116;-4573.977;-1953.053;-12247.72;5.796124;-9.813488;-7853.452;-3656.861;-0.2877926;-0.1986227;0;
9180.701;6208.842;-1583.932;10235.37;-0.1705713;-6.186671;10233.24;4840.576;-0.3524708;-0.06848842;0;
17324.38;13763.15;-786.1465;22304.28;-1.242127;-5.845541;18705.6;11918.45;0.03768741;0.2564171;0;
13517.7;10397.94;3.184602;18420.79;-10.41791;-5.504752;14700.34;8867.734;0.2975189;0.1911921;0;
11684.71;8403.021;1488.372;16866.16;-14.49328;-4.896375;12942.18;6832.437;0.1672853;-0.3287387;0;
12215.12;8801.029;2597.038;17253.72;-13.00484;-2.748062;13432.08;6937.5;0.1021499;-0.2634411;0;
-3883.26;-3367.78;2272.808;-2133.086;-13.92978;-1.003805;-4067.626;-2918.615;0.2969492;0.1266277;0;
-27238.3;-21668.84;1383.346;-30723.71;-18.60386;-3.548087;-28821.72;-16678.39;0.1017488;0.06153311;0;
-17901.13;-14053.6;490.6537;-24573.6;-21.46555;-3.343573;-19479.06;-11788.88;-0.2231901;0.386308;0;
-7384.826;-3421.455;-902.9203;-14814.65;-5.6365;-0.05811086;-9145.38;-3530.161;0.1018709;0.06108312;0;
-7106.729;-4531.036;-2013.361;-12430.86;-1.411278;1.281606;-7929.594;-3720.251;-0.02816619;-0.3937497;0;
9007.144;6070.19;-1659.077;9805.554;-4.826112;-2.939545;10005.33;4697.336;-0.3529746;-0.003549959;0;
17449.39;13876.18;-833.1995;22376.78;-0.5343546;-5.347916;18842.17;12028.21;0.2320862;0.1263883;0;
13685.87;10570.28;-39.76067;18611.4;-11.98705;4.570687;14872.95;9050.74;0.621657;-0.3285101;0;
11914.19;8632.13;1448.375;17030.88;-14.65432;5.704804;13160.29;7048.007;0.2312283;-0.1982453;0;
12560.51;9138.854;2568.7;17678.97;-4.525536;0.139611;13790.82;7294.048;0.03609394;-0.003144101;0;
-3797.568;-3340.998;2216.232;-1756.857;-4.923131;0.3404195;-3952.715;-2742.802;-0.02890967;-0.198043;0;
-27302.04;-21749.75;1313.177;-30625.47;-0.8323469;-9.372204;-28869.56;-16651.52;-0.3537173;-0.3277787;0;
-17636.53;-13916.68;445.4176;-24350.74;0.6423579;-12.57791;-19228.99;-11689.37;-0.09349255;-0.3274493;0;
-6895.375;-3140.868;-940.8021;-14326.57;-0.8321561;-10.42188;-8663.535;-3447.886;0.2964054;-0.2621529;0;
-6813.89;-4259.57;-2044.833;-11900.63;2.116417;-12.08592;-7543.264;-3635.592;-0.2236311;-0.1319548;0;
9054.733;6132.613;-1691.611;10111.28;-12.75616;-5.107729;10138.48;4758.407;-0.5482431;0.2579818;0;
17367.27;13774.92;-894.4046;22313.97;-16.89556;-2.088426;18743.43;11941.61;0.03701384;0.2577226;0;
13568.45;10469.53;-110.462;18480.18;-3.750413;-4.229721;14747.03;8930.646;-0.09295804;-0.002405752;0;
11730.31;8439.009;1379.931;16890.62;-3.345479;-1.881129;12980.19;6868.485;-0.6775707;-0.002403335;0;
12278.41;8866.561;2501.012;17356.31;2.083866;1.201915;13498.79;6999.64;-0.02721647;-0.1323356;0;
-3698.445;-3224.369;2192.746;-1811.846;5.430675;3.009125;-3871.85;-2780.31;0.5575169;-0.06723529;0;
-27089.58;-21521.09;1327.195;-30518.28;1.674174;7.761889;-28699.35;-16513.77;-0.02774931;-0.06716773;0;
-17955.9;-14062.78;449.9272;-24665.9;3.347431;9.763456;-19585.1;-11755.25;-0.09268878;0.1278018;0;
-7002.219;-3070.479;-930.3938;-14493.52;1.468057;10.28951;-8796.301;-3445.448;0.3621758;0.7123795;0;
-6586.139;-4042.576;-2032.998;-11845.18;1.936072;11.81978;-7353.589;-3570.719;0.03697513;0.4517943;0;
9040.393;6100.796;-1673.073;9962.435;-0.4777465;7.454133;10099.42;4708.741;-0.09299671;-0.1333658;0;
17412.49;13836.15;-848.1179;22343.13;-2.821791;6.642847;18788.6;12010.54;0.03703142;-0.2631664;0;
13660.24;10553.39;-92.23891;18580.33;7.161379;6.971087;14839.2;9008.49;-0.09294047;-0.1979347;0;
11651.29;8368.598;1363.622;16799.34;8.22591;6.093305;12896.7;6790.798;-0.2877491;0.1920683;0;
12218.9;8798.297;2508.051;17325.83;6.074191;7.828738;13442.57;6945.862;-0.4173947;0.3867773;0;
-3616.646;-3198.019;2229.42;-1642.101;6.6713;7.418974;-3761.565;-2746.139;0.1677308;0.1914867;0;
-27144.84;-21600.21;1370.735;-30474.63;0.502655;11.16244;-28730.84;-16610.66;0.5573663;0.2562616;0;
-18120.23;-14185.11;500.5756;-24823.04;-0.8379968;12.8258;-19746.49;-11942.06;-0.1578345;0.06110206;0;
-6810.774;-2864.746;-855.6522;-14352.05;-4.52085;9.463765;-8615.594;-3412.371;-0.2876106;-0.1988287;0;
-6346.114;-3819.698;-1955.114;-11491.95;-6.458691;10.12409;-7146.608;-3443.971;0.1674498;-0.1336616;0;
8994.633;6048.4;-1633.467;10084.87;-4.778237;9.979946;10038.41;4683.312;0.03734688;-0.3933966;0;
17341.99;13765.02;-831.7901;22277.95;-5.04088;10.57277;18722.36;11932.08;-0.3524947;-0.2630667;0;
13645.47;10539.4;-54.84443;18546.38;-2.490219;10.62912;14821.25;8986.039;-0.1572385;0.1270017;0;
11597.88;8308.188;1420.563;16759.62;-2.622415;10.68543;12844.26;6747.147;0.03782153;0.06190675;0;
12211.9;8800.369;2558.25;17293.62;6.89204;15.69829;13436.74;6924.634;0.03778353;-0.2629921;0;
-3673.802;-3274.83;2257.392;-1737.493;10.83723;16.68726;-3823.313;-2845.323;-0.02722178;-0.1977606;0;
-27530.68;-21978.48;1369.663;-30922.86;-0.3594429;19.21572;-29134.93;-16996.96;-0.2220964;-0.002659826;0;
-18668.04;-14612.85;481.2013;-25332.91;-2.368814;20.26814;-20298.7;-12266.34;-0.2868406;-0.2625265;0;
-7589.399;-3488.317;-890.8116;-15024.36;1.250889;17.36763;-9388.335;-3624.402;-0.2215851;-0.3272301;0;
-7203.729;-4492.243;-1999.921;-12630.85;0.9812122;16.68035;-8060.58;-3789.426;-0.4162644;-0.1969666;0;
8712.388;5867.457;-1653.772;9414.521;-7.727311;10.4343;9699.112;4491.269;-0.4808135;-0.261736;0;
17384.27;13782.31;-826.1505;22306.14;-11.1358;6.605908;18768.49;11938.35;-0.2854284;-0.001603657;0;
13581.96;10477.92;-57.92483;18508.64;-7.641008;6.867203;14758.28;8939.328;0.2345972;0.0633653;0;
11477.89;8191.235;1410.395;16637.78;-9.776784;3.846071;12718.28;6614.729;0.1693941;-0.1316004;0;
12090.03;8668.339;2550.123;17166.11;-5.949543;3.105394;13312.48;6805.545;-0.2205802;-0.06650082;0;
-3740.295;-3355.941;2239.997;-1899.553;-5.340353;2.901325;-3908.063;-2839.495;0.2993802;-0.1314013;0;
-27608.49;-22080.72;1356.252;-31021.32;-6.540436;-6.813811;-29233.06;-17001.87;0.4939814;0.1286001;0;
-18742.83;-14650.29;464.9299;-25393.99;-3.386032;-9.955101;-20374.2;-12363.67;-0.286123;0.5182749;0;
-7593.969;-3453.639;-930.5547;-15016.65;-18.58788;-2.778107;-9396.333;-3619.961;-0.4157702;0.2578848;0;
-7278.103;-4592.625;-2052.024;-12652.74;-22.52034;-2.842299;-8159.586;-3775.197;-0.0255484;0.1926583;0;
8542.84;5676.689;-1719.504;9264.713;-9.637963;0.5096426;9522.041;4346.266;0.3642813;0.6472361;0;
17251.54;13659.66;-895.3141;22156.54;-10.83373;2.384653;18639.14;11795.25;0.4288826;0.5816184;0;
13573.15;10465;-100.0638;18502.12;0.6313611;-0.6989583;14750.7;8932.187;0.03864763;0.4510993;0;
11654.21;8369.235;1394.629;16787.74;4.247073;-0.7652389;12893.29;6789.862;-0.09132589;0.4506461;0;
12410.24;8982.217;2540.901;17509.36;-4.330034;-0.6974871;13636.56;7116.403;0.2336026;0.2552912;0;
-3607.618;-3329.796;2218.009;-1530.2;-2.919163;-0.4958375;-3716.006;-2783.087;-0.0265015;0.06013267;0;
-27779.22;-22291.01;1314.483;-31058.32;-16.71496;-6.657586;-29375.5;-17240.55;0.03849247;0.1250396;0;
-19047.15;-14834.13;419.5179;-25686.13;-20.38186;-9.129204;-20699.15;-12471.1;0.4282579;0.124914;0;
-8397.54;-4078.485;-986.1035;-15748.66;-19.49072;-3.560631;-10224.31;-3813.558;0.03802348;0.1897558;0;
-8288.231;-5340.313;-2128.819;-13990.94;-22.5526;-2.887223;-9315.68;-4200.499;-0.2868514;0.05963042;0;
8231.672;5506.838;-1787.101;8507.36;-12.21481;-5.630561;9074.629;4152.479;-0.2865632;-0.2002989;0;
17408.08;13786.3;-945.1648;22274.34;-10.86239;-6.026802;18800.84;11921.15;-0.4811773;0.05977177;0;
13841.64;10723.52;-156.6735;18782.61;-1.005837;-2.269763;15019.74;9188.257;-0.2857918;0.4495158;0;
11860.42;8587.551;1334.11;16947.37;5.961399;-1.798601;13086.91;7000.058;0.2992015;0.05926003;0;
12708.89;9254.582;2494.654;17847.49;-5.163026;0.07866695;13943.45;7384.796;0.4288355;-0.2656362;0;
-2841.012;-2640.461;2157.003;-665.2575;-3.349177;2.422991;-2962.461;-2299.479;0.2335026;-0.07046728;0;
-27322.77;-21875.53;1213.746;-30534.37;-4.283816;-5.148394;-28950.17;-16948.07;0.2982353;-0.2003312;0;
-18875.16;-14831.69;313.1664;-25556.37;-5.887103;-5.612101;-20555.19;-12457.82;-0.09186842;-0.1351625;0;
-7982.925;-3882.249;-1090.911;-15379.68;3.965426;-3.061171;-9821.002;-3777.784;-0.1567435;-0.005092029;0;
-8202.306;-5244.646;-2246.952;-13847.24;4.228885;-2.790164;-9214.324;-4196.51;0.03831607;0.1248478;0;
8206.849;5505.989;-1903.335;8550.94;8.444195;2.50423;9062.346;4180.716;-0.4814612;0.05975498;0;
17497.55;13861.19;-1055.41;22372.35;10.64651;4.51108;18882.55;11976.22;-0.221108;-0.3950765;0;
13834.79;10724.88;-268.1512;18766.64;2.665212;9.463162;15011.95;9188.347;0.1039509;-0.4596468;0;
11950.36;8680.984;1216.778;17021.4;2.728907;12.53487;13171.08;7083.465;-0.4158923;-0.004413573;0;
12670.53;9201.168;2367.664;17820.01;-6.784679;10.51279;13907.58;7328.393;0.03929696;0.3204276;0;
-2690.909;-2563.606;2046.289;-548.2321;-10.8637;10.63619;-2796.741;-2223.064;0.4940289;0.2551383;0;
-26687.88;-21273.94;1127.163;-29957.02;-4.356049;12.43404;-28312.74;-16350.48;0.1037284;0.1249472;0;
-18397.84;-14388.87;212.2706;-25138.46;-5.690842;12.15361;-20088.46;-12090.04;-0.2861799;-0.005113016;0;
-7384.441;-3434.661;-1195.735;-14866.1;-0.862353;7.854495;-9241.079;-3600.936;-0.1559576;-0.1350426;0;
-7476.221;-4719.687;-2338.927;-12901.48;-0.1919012;6.306117;-8447.719;-3850.034;0.03910111;0.1249625;0;
8358.585;5562.812;-2005.618;9020.031;2.88975;2.012995;9278.738;4248.921;-0.2208076;-0.005097751;0;
17492.94;13875.79;-1149.657;22372.56;5.632537;-0.4004131;18878.57;11982.2;-0.090651;-0.3948967;0;
13846.57;10736.86;-358.493;18752.19;-8.170875;-0.3330278;15012.05;9198.413;0.03937477;-0.06966317;0;
11674.26;8396.566;1105.663;16807.83;-12.91906;-2.141171;12901.78;6791.36;-0.09059948;0.3202109;0;
12353.31;8905.87;2272.246;17456.29;-3.527983;2.616585;13578.33;7044.499;0.03942624;0.3848565;0;
-2777.865;-2562.772;1983.295;-814.7572;-3.055923;3.551717;-2946.401;-2257.579;0.03938663;0.1246004;0;
-26671.73;-21172.31;1086.876;-30030.75;-14.37236;3.615131;-28336.13;-16324.21;0.2342491;-0.2003615;0;
-18227.32;-14373.29;211.9422;-24970.82;-15.83179;5.487021;-19906.93;-12105.85;0.298981;0.3195786;0;
-6856.822;-3086.979;-1159.332;-14411.62;-15.48108;-0.6808003;-8713.979;-3570.99;-0.09112342;0.5141594;0;
-7193.01;-4356.035;-2299.218;-12694.12;-16.06777;-2.220663;-8130.387;-3860.583;0.03890282;0.1238388;0;
8205.793;5479.229;-1983.222;8802.802;-6.339706;1.599535;9168.076;4147.43;0.1038311;0.253649;0;
17424.43;13783.33;-1142.338;22275.2;-2.247499;0.4592178;18804.78;11914.84;-0.22111;0.05849213;0;
13888.92;10789.23;-352.1183;18803.75;-2.177891;4.276661;15052.22;9226.635;-0.3508225;-0.2664033;0;
11708.99;8429.629;1105.003;16828.42;-0.5017399;6.080904;12935.27;6839.856;-0.2205353;-0.2011683;0;
12297.66;8844.805;2265.684;17431.21;10.21603;-3.168668;13516.6;6967.088;0.4293597;-0.1359988;0;
-2827.305;-2638.971;2005.568;-755.4972;14.2916;-4.572065;-2984.895;-2309.394;0.363961;0.2539419;0;
-26623.66;-21146.13;1130.711;-29935.09;6.976227;-3.361839;-28295.69;-16244.08;-0.4809802;0.3186541;0;
-18353.99;-14418.45;259.4492;-25092.64;7.10294;-4.49711;-20041.08;-12102.65;-0.6104316;-0.2014049;0;
-7274.792;-3380.629;-1096.911;-14793.97;2.675173;1.267819;-9137.146;-3618.886;-0.2200142;0.1236342;0;
-7599.706;-4713.42;-2238.36;-13246.64;1.265965;3.744792;-8623.656;-3918.675;0.1050436;0.513314;0;
8009.76;5278.124;-1939.322;8400.123;-2.28528;0.1240723;8890.038;3983.761;-0.02499662;0.4478309;0;
17323.7;13692.64;-1098.92;22161;-5.096023;0.8607599;18705.73;11791.32;-0.1549062;0.5123483;0;
13859.37;10750.49;-304.527;18786.55;3.013422;5.34763;15027.54;9207.933;0.1700862;0.1220294;0;
11666.54;8394.522;1152.609;16774.3;3.546258;6.748898;12886.38;6784.191;0.29985;-0.3328646;0;
12382.04;8921.287;2328.797;17508.24;6.825224;9.287346;13615.59;7050.393;0.1046466;-0.3974975;0;
-2699.872;-2614.149;2074.177;-633.3795;8.224886;10.81862;-2825.394;-2227.64;-0.09036054;-0.4620654;0;
-26965.29;-21526.76;1196.565;-30250.25;8.417692;9.869989;-28616.4;-16602.27;0.03966494;-0.3316665;0;
-18392.38;-14612.9;354.7535;-25178.71;9.949475;10.39594;-20069.55;-12344.06;-0.02534226;-0.07146383;0;
-6745.01;-3111.345;-991.1766;-14344.61;-0.1072297;7.237414;-8609.186;-3510.016;-0.2202188;-0.006424682;0;
-7572.485;-4617.523;-2162.591;-13255.39;-2.853788;5.555569;-8608.641;-3997.336;0.03987182;0.1235165;0;
7865.149;5249.191;-1868.471;8213.515;-4.391162;7.559352;8746.712;3930.167;-0.2200376;0.3832617;0;
17399.81;13731.26;-1029.421;22233.55;-7.936723;6.413169;18784.72;11843.96;-0.2198165;0.3179093;0;
13823.8;10733.85;-265.3326;18758.65;-3.441746;6.339742;14988.69;9177.312;0.1052411;0.05772047;0;
11702.96;8424.566;1172.836;16791.8;-3.839453;6.400354;12922.4;6821.864;-0.2197014;0.1226298;0;
12322.02;8869.187;2339.352;17462.83;-4.506157;0.2985986;13545.67;6995.122;0.04038874;0.2524413;0;
-2648.968;-2509.151;2095.373;-600.1151;-3.563624;-1.97906;-2816.471;-2163.698;0.1702828;-0.07264909;0;
-26539.34;-21059.52;1229.577;-29820.36;-8.783979;1.171065;-28225.7;-16180.18;-0.2196923;-0.4623801;0;
-18443.17;-14497.82;337.8824;-25136.09;-10.71851;0.7679909;-20136.73;-12223;-0.08953688;-0.5268829;0;
-7119.259;-3269.548;-1046.23;-14653.08;-2.669791;-0.3714906;-9006.706;-3650.377;0.04048777;0.05835261;0;
-7555.664;-4540.684;-2205.908;-13122.69;-0.3899325;-0.4381002;-8561.344;-3923.477;-0.02452025;0.3181634;0;
7879.346;5257.018;-1923.364;8355.455;-7.422139;-0.3036942;8807.018;3930.879;-0.08946296;-0.006993058;0;
17310.76;13656.64;-1098.563;22126.15;-7.21361;0.3664403;18684.01;11766.1;0.04056162;-0.2018881;0;
13921.47;10816.57;-324.848;18820.72;-8.010645;-0.8396207;15077.45;9254.735;0.6901942;-0.2666525;0;
11772.79;8510.339;1112.506;16866.05;-9.409116;-0.4368795;12985.75;6893.509;0.6245334;-0.2014173;0;
12396.08;8923.747;2276.584;17511.32;0.2458812;0.9702011;13617.86;7049.016;0.4290039;0.1885892;0;
-2532.787;-2485.146;2020.424;-489.7853;2.723881;1.036209;-2663.319;-2149.775;0.5585075;0.4482691;0;
-26768.65;-21345.43;1130.434;-30069.88;-0.56041;6.661613;-28461.31;-16441.63;0.2331096;-0.2668221;0;
-18367.34;-14686.49;262.515;-25141.44;0.2434603;8.999199;-20087.71;-12389.22;0.03797333;-0.9162275;0;
-6500.621;-3023.466;-1096.097;-14137.29;1.583362;4.43544;-8419.879;-3477.306;-0.09199951;-0.5255027;0;
-7442.877;-4531.403;-2287.896;-13262.13;3.389457;4.163051;-8598.902;-3923.445;-0.2218418;-0.3300727;0;
7694.746;5062.065;-2019.263;7912.221;-3.178033;6.302322;8494.541;3775.098;-0.09168416;-0.2647737;0;
17352.34;13687.25;-1180.592;22154.72;-4.581359;6.563921;18730.2;11773.17;-0.02662469;-0.004638306;0;
13971.77;10881.95;-404.701;18898.72;0.5144354;4.681803;15131.09;9318.524;0.2982388;-0.06960098;0;
11800.8;8526.926;1041.479;16868.03;-0.2230158;4.543133;13003.76;6909.086;0.03806973;-0.1994657;0;
12342.41;8884.938;2206.596;17505.71;9.622846;3.131927;13570.82;7001.688;-0.2868052;-0.134298;0;
-2593.096;-2529.146;1940.793;-470.6133;14.1685;2.124158;-2738.703;-2217.701;0.03831966;-0.004228343;0;
-26765.99;-21293.03;1062.439;-30005.95;2.632715;6.609758;-28464.08;-16471.43;0.03828116;-0.06919143;0;
-18475.68;-14701.86;204.5838;-25199.04;1.625691;7.473773;-20174.01;-12433.26;0.1681774;0.1257801;0;
-6628.338;-3083.249;-1155.969;-14247.36;6.6479;5.858794;-8526.784;-3537.11;0.4278778;0.1906211;0;
-7447.763;-4457.224;-2341.492;-13172.89;6.3728;5.718942;-8517.404;-3916.613;0.1026111;0.06049485;0;
7669.501;5085.366;-2083.518;8014.831;7.438124;5.579229;8566.103;3765.931;0.03754067;0.3203034;0;
17243.88;13571.82;-1257.964;22045.63;7.565348;4.434913;18616.81;11670.5;0.1024703;0.3849489;0;
13959.4;10865.27;-462.8174;18870.58;4.207867;5.569167;15105.1;9293.791;0.1673347;0.3195948;0;
11924.69;8658.079;1000.975;16996.36;1.926464;5.563571;13130.11;7036.832;0.2971012;-0.005563049;0;
12496.91;9032.952;2162.572;17639.28;7.751677;-0.8722587;13708.7;7149.045;-0.1579687;-0.3303942;0;
-2479.341;-2407.316;1888.723;-330.2977;9.351479;-2.143997;-2630.764;-2106.052;-0.2227773;0.1247092;0;
-26689.13;-21215.75;1002.863;-29946.95;-2.445938;-5.691877;-28420.83;-16399.16;0.03731589;0.1895512;0;
-18047.24;-14553.26;145.1925;-24870.96;-4.855354;-8.298431;-19779.54;-12325.95;-0.09265628;-0.2654106;0;
-6057.264;-2882.479;-1224.109;-13763.01;-4.715777;0.4844882;-7996.543;-3375.779;-0.02759584;0.05969278;0;
-7471.916;-4535.954;-2440.376;-13438.9;-8.462083;2.761299;-8721.422;-3941.116;-0.09253546;0.5144042;0;
7492.058;4936.595;-2177.946;7567.004;3.736581;-1.729149;8225.516;3655.043;-0.2223772;0.5788547;0;
17338.54;13649.83;-1323.717;22120.54;6.880659;-1.392558;18712.08;11724.22;0.03771565;0.2534363;0;
14038.17;10955.92;-526.2867;18949.83;-2.503378;3.967354;15190.11;9381.625;0.1026451;-0.2015897;0;
12031.5;8758.818;958.9957;17075.47;-0.6922011;5.771907;13221.18;7133.746;-0.02739272;0.1234495;0;
12623.25;9152.19;2142.968;17754.51;-8.662108;5.498175;13848.66;7259.339;-0.1572999;0.3182275;0;
-2225.793;-2271.409;1863.048;-171.6256;-11.40007;7.435034;-2361.884;-1937.789;0.0377602;-0.1368636;0;
-26521.9;-21107.55;975.9646;-29808.24;1.739551;3.944573;-28252.82;-16223.97;0.1026896;-0.1367261;0;
-18675.13;-14820.16;89.7414;-25458.9;3.211671;4.141558;-20448.44;-12484.92;0.03761907;0.38315;0;
-6869.722;-3292.431;-1301.337;-14562.69;8.96922;4.941192;-8845.479;-3636.532;0.03758127;0.5776671;0;
-7675.973;-4656.092;-2490.15;-13560.18;12.9787;3.797517;-8843.353;-3990.151;-0.4821952;0.05734786;0;
7391.358;4842.267;-2232.838;7531.102;5.397193;13.57296;8226.816;3542.761;-0.4167434;-0.5274158;0;
17149.34;13467.55;-1391.798;21908.34;4.320044;16.17166;18518.61;11539.52;-0.02652057;-0.5918532;0;
13988.28;10903.63;-566.8445;18910.75;9.808059;11.80164;15129.55;9333.813;-0.02649392;-0.2014545;0;
11979.12;8701.568;919.1346;17029.27;11.74059;12.79441;13173.31;7069.037;0.1684347;-0.2662194;0;
12547.27;9092.577;2099.742;17712.3;-2.538453;8.561749;13763.24;7206.158;0.2982002;-0.3309192;0;
-2386.102;-2359.589;1829.361;-162.6578;-6.55439;7.079643;-2504.685;-2009.22;0.2329332;-0.1356847;0;
-27083.13;-21604.51;922.7589;-30257.38;3.432531;7.608271;-28805.26;-16711.94;0.2976665;-0.2005157;0;
-19141.74;-15230.9;52.0501;-25944.88;3.361733;5.859192;-20922.23;-12903.94;0.03749801;0.05955513;0;
-6736.062;-3144.681;-1301.384;-14435.23;5.70288;8.197585;-8707.854;-3574.546;-0.3523437;0.1244626;0;
-7600.512;-4559.746;-2496.616;-13598.85;6.902598;7.452536;-8812.766;-3997.35;-0.2870223;-0.1355318;0;
7277.448;4780.331;-2235.409;7249.963;9.106465;7.579013;8054.553;3473.742;0.1030701;0.1244738;0;
17205;13519.02;-1394.616;21954.1;11.64193;7.638381;18576.12;11597.03;-0.09193548;0.3842181;0;
13935.5;10842.43;-607.7031;18874.5;4.664011;3.410903;15081.65;9274.05;-0.4816471;0.3188647;0;
11872.28;8611.857;871.1644;16920.78;4.123462;3.005578;13065.71;6979.537;-0.4811632;-0.0712598;0;
12606.06;9132.313;2065.407;17737.96;4.052946;-1.284228;13827.41;7243.528;-0.350745;-0.1361555;0;
-2557.73;-2582.807;1786.159;-456.8238;2.642354;-2.756501;-2684.582;-2086.408;0.1043788;0.05888329;0;
-27416.09;-21995.53;893.5304;-30628.68;7.126701;-0.7443039;-29144.94;-16887.59;0.2991759;-0.2010452;0;
-19210.59;-15352.66;44.99613;-25986.69;7.455308;-1.748239;-21013.79;-12963.68;-0.02596138;-0.3307779;0;
-6691.628;-3114.146;-1306.963;-14382.32;11.06416;4.616713;-8671.323;-3558.249;0.03903205;-0.2005109;0;
-7507.694;-4512.125;-2488.665;-13287.51;14.13451;5.482852;-8661.002;-3891.457;0.1689275;-0.0703747;0;
7331.785;4768.824;-2224.062;7603.083;5.814908;9.496197;8161.749;3513.811;-0.2860136;0.05963069;0;
17071.14;13392.83;-1386.622;21873.25;4.536267;13.57249;18446.78;11465.53;-0.09082421;-0.005396566;0;
13847.2;10765.49;-590.9401;18767.96;10.82737;-3.119469;15000.73;9204.501;0.6239077;-0.1353258;0;
11840.85;8569.316;883.8815;16917.13;10.88384;-7.001222;13044.34;6945.555;0.3634115;-0.2651245;0;
12421.4;8963.816;2080.86;17562.15;11.74356;3.11993;13649.75;7081.707;0.103177;-0.06995611;0;
-2727.987;-2740.172;1828.77;-593.2416;11.59804;3.317744;-2821.49;-2247.723;0.1680407;0.3199182;0;
-27510.76;-22069.75;955.4327;-30712.65;10.98317;1.639959;-29188.53;-16979.42;-0.2868996;0.1896621;0;
-19416.68;-15444.88;108.4293;-26139.63;10.43627;2.040209;-21144.08;-13054.46;-0.1566766;0.05953684;0;
-6821.088;-3096.134;-1248.279;-14433.85;6.608371;2.105142;-8737.314;-3592.094;0.2982522;0.2543791;0;
-7615.66;-4503.61;-2458.541;-13615.68;5.596377;1.366214;-8804.56;-3961.578;0.2979525;0.1241888;0;
7127.82;4633.325;-2230.746;7073.885;-2.045057;7.125252;7906.611;3369.625;-0.1571182;0.124064;0;
17045.48;13364.93;-1409.26;21808.91;-6.06149;8.72556;18435.98;11457.05;-0.5467644;0.05897197;0;
13886.65;10798.83;-630.5475;18849.65;1.37934;1.348915;15055.46;9239.707;-0.156411;-0.006054631;0;
11755.29;8489.546;827.666;16822.34;1.511676;-0.3270141;12965.11;6876.778;0.1685829;0.5136902;0;
12515.09;9059.1;2019.485;17685.79;1.242714;-1.867232;13759.47;7192.44;0.1034462;0.12337;0;
-2523.865;-2526.387;1742.156;-354.5586;3.585989;-4.142776;-2606.433;-2082.784;0.1683096;-0.4614601;0;
-27804.37;-22322.26;833.7055;-30917.04;-2.312112;-5.679159;-29439.75;-17249.16;0.1031731;-0.1361597;0;
-19648.46;-15749.73;-13.64421;-26344.71;-2.779279;-7.749863;-21305.22;-13329.42;-0.1567999;0.3187485;0;
-6365.801;-2881.676;-1345.648;-14043.3;3.520153;-4.39299;-8220.929;-3431.6;-0.2865771;0.05855889;0;
-7236.121;-4278.265;-2553.282;-12950.7;3.851409;-2.379149;-8323.176;-3750.255;-0.2213218;-0.2663366;0;
7172.396;4645.239;-2361.281;7529.897;8.804031;-10.28056;8043.559;3424.19;-0.2860667;-0.2011017;0;
17006.63;13323.44;-1560.872;21812.98;9.866913;-10.27023;18405.73;11417.18;-0.09087726;-0.1359323;0;
13858.49;10775.73;-772.1054;18789.07;9.053691;-4.097665;15034.96;9231.632;0.2340508;-0.1357957;0;
11843.04;8580.957;682.3148;16932.66;10.31739;-2.485957;13073.84;6983.435;0.2987829;0.05924276;0;
12567.8;9099.039;1877.965;17733.76;0.3266896;5.554309;13820.34;7232.757;-0.1562887;-0.07075145;0;
-2331.56;-2445.493;1637.636;-94.58647;-1.080158;9.5006;-2366.731;-1963.345;-0.3510337;-0.3305497;0;
-27505.83;-22106.93;756.3698;-30577.82;-8.514789;10.0939;-29100.95;-16900.75;-0.1557789;-0.1353156;0;
-19719.28;-15725.4;-82.15659;-26402.43;-14.26603;11.69135;-21383.4;-13173.14;-0.2855571;0.2546245;0;
-6507.219;-2899.929;-1405.346;-14119.24;2.694862;14.96164;-8345.563;-3494.555;-0.2852702;0.319336;0;
-7268.295;-4245.712;-2621.026;-13148.89;4.098673;16.68816;-8368.38;-3813.022;-0.1550488;0.05914571;0;
6976.898;4493.147;-2434.172;7054.392;2.084823;7.026098;7802.154;3281.182;-0.4147624;-0.3956851;0;
16879.98;13193.3;-1629.583;21670.2;3.556597;3.803857;18286.34;11299.96;-0.2194436;-0.5901895;0;
13718.71;10641.51;-867.796;18690.73;-1.739239;4.000984;14904.76;9102.082;-0.02432109;-0.1348251;0;
11541.03;8277.438;569.4477;16653.68;-1.871213;0.5139733;12774.04;6689.379;-0.284166;0.4500164;0;
12374.14;8915.406;1794.166;17508.2;-8.969279;2.857738;13635.51;7055.47;-0.08897846;0.3196296;0;
-2775.611;-2792.14;1579.501;-650.0893;-11.10372;2.118054;-2793.296;-2209.653;0.04104562;-0.005528319;0;
-28439.73;-22954.98;712.6304;-31419.78;-10.35563;-1.835884;-29970.58;-17689.88;-0.0889303;0.3193139;0;
-20624.04;-16407.51;-108.2671;-27162.85;-11.21588;-1.767118;-22208.62;-13846.96;-0.0238736;0.4489278;0;
-7110.395;-3190.359;-1423.747;-14691.45;-6.917703;-4.779452;-8894.184;-3596.218;0.1060851;0.3835094;0;
-7464.007;-4374.65;-2625.868;-13306.18;-6.575959;-4.841633;-8526.896;-3792.332;0.04101113;0.3181567;0;
6963.167;4453.935;-2432.388;7057.402;5.821881;-3.899068;7813.26;3219.596;-0.2838668;0.122935;0;
16705.63;13040.11;-1630.627;21496.81;11.77788;-4.83285;18125.28;11157.4;-0.3485489;0.2527461;0;
13681.59;10598.54;-833.2944;18656.57;2.321572;6.290929;14877.91;9064.752;0.04160538;0.4473942;0;
11543.8;8289.859;631.6195;16657.57;3.457339;8.963803;12786.27;6703.794;-0.1533384;0.05714058;0;
12329.41;8869.25;1838.69;17485.05;1.779902;8.217984;13599.78;7021.708;0.106685;-0.2677535;0;
-2684.517;-2791.868;1610.113;-540.049;-0.7674822;11.35792;-2680.509;-2240.617;0.4963818;-0.1375498;0;
-28767.83;-23354.47;722.8153;-31747.57;7.874453;-0.2412916;-30280.43;-18012.75;-0.088823;-0.07244427;0;
-21200.71;-16885.48;-122.7988;-27674.65;8.80357;-2.384442;-22764.5;-14186.16;-0.02376641;-0.1373388;0;
-7402.229;-3343.19;-1436.671;-14838.19;1.293612;-0.5735679;-9128.606;-3622.41;0.3660615;-0.007266138;0;
-7769.149;-4637.865;-2643.261;-13610.28;-0.3152784;-2.984316;-8821.365;-3870.956;0.1058243;-0.007258837;0;
6799.057;4287.748;-2451.153;6795.613;-2.458416;3.381878;7607.433;3128.074;-0.1541514;0.0577158;0;
16794.88;13129.85;-1640.066;21594.97;-5.26996;3.914343;18219.01;11226.51;-0.08902913;-0.07227688;0;
13683;10598.46;-863.4635;18675.52;-2.250555;5.986881;14895.65;9089.053;-0.348809;-0.1371716;0;
11538.72;8285.215;595.6399;16662.73;-2.382016;8.124197;12788.98;6703.146;-0.4134259;0.05786826;0;
12401.82;8941.306;1821.144;17543.13;-8.876356;4.09718;13683.26;7098.443;-0.08817378;0.3176795;0;
-2466.297;-2570.272;1579.278;-414.5135;-10.80982;5.365739;-2452.624;-2011.989;-0.02311784;0.2523929;0;
-28394.5;-22952.96;690.981;-31374.75;-8.589132;-1.806704;-29864.55;-17619.37;-0.1530293;0.1222047;0;
-20817.03;-16607.17;-132.8309;-27252.03;-8.781572;-5.555811;-22321.91;-13955.2;-0.4777122;0.3169839;0;
-6770.697;-2966.438;-1449.005;-14268.3;-7.968465;7.243145;-8475.542;-3509.112;-0.08742817;0.251698;0;
-7145.014;-4144.395;-2666.045;-12941.86;-6.48659;8.106646;-8196.553;-3681.404;0.3024637;-0.008424245;0;
6957.439;4439.988;-2479.412;7073.916;-8.356083;6.491032;7780.36;3241.13;0.1072578;-0.07338312;0;
16817.61;13152.65;-1670.514;21620.37;-7.409681;8.225944;18248.96;11287.22;0.04218267;-0.1382767;0;
13827.62;10739.68;-883.9172;18821.35;-5.326131;-0.02097842;15046.2;9209.712;0.1071076;0.2516663;0;
11717.46;8463.843;583.5775;16835.37;-5.119709;-0.6238037;12969.93;6900.052;0.1719673;0.1864461;0;
12535.52;9068.623;1800.692;17725.23;3.190831;-4.575048;13824.77;7216.831;-0.02310748;-0.4634147;0;
-2221.272;-2410.489;1563.251;71.14294;5.80057;-7.450656;-2155.798;-1902.497;-0.0880516;-0.2030797;0;
-28064.58;-22657.29;681.1225;-30905.64;1.440484;3.005863;-29506.12;-17345.2;0.04197156;0.1869284;0;
-20788.48;-16493.35;-168.8537;-27180.88;1.305315;4.275518;-22287.51;-13833.29;-0.3478747;0.05680589;0;
-7361.405;-3406.332;-1513.446;-14706.71;1.772518;6.347693;-9041.242;-3681.237;-0.4124925;-0.2031206;0;
-8074.989;-4836.392;-2742.775;-13953.04;2.37395;8.283698;-9156.345;-3977.199;-0.2821433;-0.07298177;0;
6546.841;4149.579;-2543.009;6398.988;-5.532666;7.002821;7322.093;3022.718;-0.2168925;0.1869609;0;
16892.23;13202.26;-1702.921;21649.29;-7.134697;8.33532;18325.06;11304.67;-0.08673985;-0.00812896;0;
13889.9;10803.51;-910.67;18925.32;-5.251518;1.896828;15113.17;9293.178;0.04328199;0.1867812;0;
11847.88;8604.347;567.0964;16934.34;-6.853832;0.2203488;13098.4;7037.36;-0.02172884;0.3814956;0;
12984.43;9498.872;1825.55;18192.63;4.53991;-0.7176336;14286.01;7651.336;0.04326034;0.05627554;0;
-1524.921;-1798.264;1584.68;919.8308;7.884251;-3.530135;-1425.954;-1419.125;0.1081842;-0.138683;0;
-27803.84;-22488.32;671.5767;-30511.44;3.924213;2.635659;-29221.44;-17241.9;-0.08682652;-0.008608996;0;
-21055.67;-16764.59;-168.5199;-27429.26;4.589856;3.235857;-22559.66;-13923.47;-0.2816413;0.3162364;0;
-7475.138;-3494.689;-1498.901;-14820.82;8.470985;0.5534105;-9140.993;-3641.641;0.1084457;-0.008918101;0;
-7937.234;-4723.979;-2725.449;-13764.58;11.34189;1.155701;-8976.542;-3881.469;0.3032388;-0.4636805;0;
6657.394;4231.893;-2531.197;6582.124;-2.33354;-4.070068;7460.313;3093.584;-0.2168046;-0.07341057;0;
16929.93;13250.25;-1700.289;21697.67;-5.881169;-6.209371;18371.38;11356.18;-0.4114888;0.3814346;0;
13921.06;10832.56;-902.4808;18952.16;2.02897;-1.045568;15155.98;9337.466;-0.08623863;-0.2036548;0;
11884.11;8637.869;570.9983;16970.2;0.4193413;-0.776586;13140.88;7065.986;0.04378271;-0.6582215;0;
12827.18;9345.923;1814.455;18085.44;8.121103;-3.990925;14137.82;7518.249;0.3685754;-0.3976908;0;
-1637.331;-1919.731;1580.905;926.445;10.79226;-4.388813;-1501.186;-1463.732;0.2382704;-0.2023891;0;
-27658.07;-22305.09;666.8377;-30256.91;6.093343;-3.781557;-29016.08;-16990.74;-0.3466751;0.1226509;0;
-20874.07;-16589.29;-190.9016;-27196.73;8.565467;-3.442842;-22318.06;-13782;0.1084446;0.05756035;0;
-6725.462;-2919.073;-1501.926;-14140.92;-1.891989;-7.056339;-8347.316;-3507.766;0.4331724;-0.5921709;0;
-6959.162;-3919.62;-2708.934;-12660.45;-5.105269;-9.12572;-7932.945;-3575.377;-0.2169363;-0.5266085;0;
6927.167;4455.095;-2515.902;7142.326;6.621508;-2.284413;7789.111;3273.853;-0.2167183;-0.4611121;0;
16993.52;13322.64;-1675.982;21800.4;7.351789;-1.411401;18436.6;11473.22;-0.1515332;-0.4606487;0;
14006.29;10910.31;-895.3769;19025.62;11.63131;-4.959956;15239.49;9393.514;-0.346283;0.05955285;0;
11693.42;8449.95;545.83;16813.85;15.1696;-4.151238;12952.83;6897.06;-0.2809677;0.1244604;0;
12694.49;9210.65;1796.809;17961.78;8.120779;-9.77345;14010.71;7379.633;-0.08578335;-0.07056673;0;
-1396.264;-1716.601;1584.89;1209.078;7.911549;-10.50044;-1251.667;-1364.765;0.1741722;-0.00552848;0;
-27437.46;-22110.65;684.8743;-30010.35;8.238392;-9.887045;-28793.27;-16839.83;-0.02090482;0.1893791;0;
-20651.41;-16571.05;-138.1506;-26996.66;5.685494;-10.94884;-22096.81;-13658.97;-0.08585116;0.2541562;0;
-6062.561;-2575.837;-1425.552;-13537.09;13.44931;-2.29722;-7676.035;-3338.1;-0.02079755;-0.07093593;0;
-6401.89;-3491.147;-2651.159;-12030.7;14.7086;-0.1515192;-7288.404;-3429.526;-0.08574399;-0.07086466;0;
7031.685;4518.04;-2493.854;7393.611;4.847205;0.5184624;7976.407;3329.524;-0.1506252;-0.1357608;0;
16973.03;13287.78;-1685.222;21802.31;3.435815;2.12541;18412.58;11463.81;-0.4103432;-0.1356244;0;
13968.41;10890.53;-914.5718;18981.62;-3.40014;-0.2210065;15199.95;9360.729;-0.4099309;0.05941392;0;
11693.01;8434.52;526.7794;16825.38;-8.554288;-0.8236308;12960.29;6899.197;-0.3445517;0.1892889;0;
12667.77;9191.238;1783.805;17921.1;2.841162;-5.109589;13978.71;7354.908;-0.3442054;0.1890987;0;
-1386.265;-1709.101;1591.578;1148.558;4.245803;-8.386558;-1259.249;-1387.373;-0.01902287;-0.135928;0;
-27329.22;-21992.81;698.3953;-29970.03;-5.806147;-8.445113;-28718.2;-16755.66;0.1758983;-0.2657261;0;
-20753.52;-16596.06;-130.3278;-27056.63;-7.943767;-10.647;-22203.72;-13683.88;0.04578685;-0.1355244;0;
-6405.432;-2881;-1411.334;-13833.8;-3.98367;-15.39197;-8026.124;-3494.178;-0.0192265;0.05951378;0;
-6744.354;-3806.904;-2629.522;-12388.17;-4.515531;-17.45292;-7701.031;-3534.614;0.2406622;0.1244213;0;
6896.476;4430.783;-2469.49;7245.232;-6.051235;-20.6505;7784.349;3279.062;0.1104857;0.254231;0;
17029.51;13340.19;-1661.195;21852.56;-6.112503;-22.90711;18468.68;11485.14;-0.3443967;0.5138449;0;
14028.18;10942.55;-903.3121;19048.14;-9.991127;-18.32937;15257.61;9425.708;-0.214116;0.1884919;0;
11737.45;8487.502;534.4047;16862.73;-10.71802;-17.77509;12993.03;6934.313;-0.1489335;-0.5913056;0;
12771.85;9289.598;1806.978;18028.4;-12.38219;-16.08272;14085.9;7451.55;-0.01884917;-0.3958094;0;
-989.2457;-1362.652;1622.598;1614.163;-14.31213;-13.3873;-850.0772;-1038.392;0.3709738;0.2542617;0;
-27150.96;-21853.34;721.2007;-29726.33;-6.996735;-18.33047;-28538.43;-16602.2;0.04576435;-0.005863174;0;
-21150.68;-16925.68;-110.0127;-27469.35;-5.448487;-17.84317;-22621.56;-13962.6;-0.2791183;-0.525596;0;
-6257.701;-2703.936;-1373.954;-13781.71;-6.51474;-12.60069;-7899.044;-3507.989;-0.4087726;-0.3951332;0;
-6126.148;-3275.555;-2589.509;-11854.87;-4.432089;-10.51162;-7051.624;-3341.297;-0.1484925;-0.5246708;0;
6999.694;4488.616;-2453.412;7328.456;-8.981987;-8.960512;7929.998;3267.896;0.2414608;-0.4591763;0;
16930.96;13251.5;-1657.33;21735.88;-8.638169;-7.209952;18363.28;11444.03;0.3711528;-0.1988456;0;
14000.12;10914.18;-905.5727;19000.04;-8.83056;-4.858366;15221.76;9357.982;0.2408452;0.1261909;0;
11616.19;8370.358;522.0576;16739.45;-10.63035;-4.652535;12874.57;6838.794;-0.01926613;0.06109679;0;
12832.75;9342.268;1809.136;18079.5;1.705193;2.25126;14135.7;7490.623;0.1756552;-0.3287686;0;
-791.7568;-1212.397;1648.398;1881.495;4.985033;4.794227;-646.2213;-1009.478;0.5003155;0.06136575;0;
-27124.19;-21883.58;753.7217;-29660.68;-0.1775397;-3.315342;-28518.72;-16724.42;-0.08489333;0.1912388;0;
-21372.11;-17015.17;-79.461;-27678.33;1.6313;-2.910113;-22874.13;-14077.19;-0.4096448;-0.003855412;0;
-7445.05;-3499.782;-1360.362;-14736.6;-4.264837;-13.49025;-9100.156;-3766.41;-0.2792985;0.1260832;0;
-7752.521;-4565.994;-2594.343;-13519.57;-6.404006;-19.03616;-8763.614;-3798.794;-0.2140505;0.06098912;0;
6482.649;4067.929;-2456.632;6449.748;0.3012102;-3.477353;7311.537;2997.53;-0.3437701;0.2558299;0;
16952.62;13263.31;-1646.492;21702.94;0.6357002;-2.335149;18386.85;11354.66;-0.1485226;-0.06926391;0;
13899.38;10813.9;-878.9099;18941.43;-0.3702926;-2.801683;15129.69;9322.767;0.306398;-0.3290637;0;
11718.97;8473.201;561.1561;16800.69;-0.2352226;0.1483199;12969.7;6906.078;0.3710575;0.1260384;0;
12833.16;9344.292;1849.194;18106.34;1.104184;-8.961325;14148.8;7518.452;-0.2140214;0.3208137;0;
-907.3048;-1352.569;1672.143;1773.802;2.509594;-10.49287;-741.9097;-1044.084;-0.2787737;-0.06931267;0;
-27318.93;-22093.88;767.9792;-29815.91;-2.71784;-5.391743;-28699.17;-16827.05;-0.08359159;-0.3940797;0;
-21794.12;-17303.01;-60.34526;-28048.53;-3.652138;-5.587274;-23274.86;-14296.47;-0.4733116;-0.003879707;0;
-7109.542;-3104.722;-1330.958;-14497.22;0.7721611;-2.567489;-8733.132;-3730.411;-0.472836;0.1910262;0;
-6849.479;-3815.869;-2556.473;-12633.43;1.307249;-0.3545333;-7856.417;-3546.94;0.04737778;-0.1340024;0;
6660.367;4166.408;-2422.955;6778.793;2.377662;-8.994792;7484.441;3046.639;-0.01763717;0.1909689;0;
16869.27;13202.29;-1621.125;21653.71;2.843787;-11.79892;18307.34;11346.19;0.0473479;0.5156137;0;
13907.35;10811.36;-867.5615;18932.62;4.51587;0.06861413;15137.28;9286.971;0.177235;0.1252916;0;
11493.04;8249.495;561.2175;16604.44;5.047195;1.609153;12743.15;6707.556;0.1770569;-0.199671;0;
12676.03;9188.417;1855.753;17944.48;3.769326;-2.411379;13996.9;7350.943;0.3068137;-0.06953569;0;
-589.2975;-1087.655;1695.717;2082.539;4.032982;-1.069359;-412.8675;-835.0668;0.1765707;0.3203382;0;
-26713.76;-21481.94;800.4627;-29193.26;0.5463056;-10.44565;-28082.03;-16266.19;-0.01850872;0.255049;0;
-21444.63;-16958.02;-36.39008;-27700.33;0.4784077;-13.85122;-22939.46;-13958.62;-0.01849012;-0.07004397;0;
-7135.235;-3185.394;-1314.992;-14528.92;-2.669905;-7.072151;-8775.035;-3745.551;-0.4732429;-0.005006249;0;
-7069.392;-3937.064;-2545.192;-12781.31;-4.207463;-7.935823;-8010.613;-3602.389;-0.4078001;-0.005001218;0;
6558.771;4154.327;-2407.39;6724.998;3.566296;-6.387303;7456.197;3026.213;-0.01758627;-0.1349309;0;
16966.77;13267.91;-1585.992;21721.15;4.90286;-5.57709;18405.1;11409.3;0.1123661;0.1250741;0;
14023.71;10936.59;-828.1227;19037.6;10.12187;-9.188442;15250.48;9413.382;0.4370899;0.4497851;0;
11582.01;8336.216;596.7123;16681.29;14.26488;-8.978322;12833.34;6789.44;0.111814;0.4493332;0;
12777.86;9280.329;1899.02;18043.27;8.489776;-11.84944;14088.94;7446.003;-0.08320039;-0.1358244;0;
-482.3494;-963.2578;1737.474;2226.645;9.821392;-12.70832;-311.6065;-850.2808;0.0468179;-0.4605246;0;
-26912.77;-21717.53;832.7443;-29386.41;11.21804;-11.28897;-28294.21;-16629.96;-0.08316383;0.1246442;0;
-21983.36;-17409.92;-9.763192;-28237.97;12.01008;-12.14834;-23493.57;-14339.16;0.1118218;-0.005415756;0;
-7462.888;-3348.818;-1299.043;-14831.6;13.6056;-7.782365;-9116.789;-3813.647;0.04674206;-0.2652797;0;
-6991.013;-3944.089;-2524.964;-12703.69;12.92234;-7.171699;-7959.705;-3558.972;-0.08323959;0.1247909;0;
6681.939;4172.812;-2360.899;6864.984;18.80386;-6.15981;7550.11;3062.965;0.1117461;0.05969819;0;
16980.58;13314.27;-1538.392;21753.25;18.18175;-4.479047;18405.36;11443.61;-0.3431376;-0.005329135;0;
14015.67;10908.3;-796.4999;19025.77;21.24494;-11.84249;15237.2;9381.268;-0.5376948;-0.1352585;0;
11586.24;8348.026;639.7977;16675.22;22.56277;-12.83533;12826.7;6798.213;-0.1473505;-0.2650572;0;
12901.69;9394.311;1961.834;18159.07;8.80969;-15.16677;14213.06;7550.423;0.1776343;-0.06988888;0;
-110.0646;-678.1486;1801.411;2630.618;7.52804;-18.43364;68.11987;-593.9959;0.3723578;0.1900507;0;
-26255.31;-21110.37;889.4645;-28715.72;-7.282629;-7.698091;-27662.54;-16082.22;-0.08278774;0.05992506;0;
-21374.4;-16998.9;45.43206;-27670.07;-15.04484;-5.412997;-22939.29;-13955.34;-0.1476719;0.1897995;0;
-7304.799;-3474.281;-1242.248;-14735.17;6.403835;-11.43584;-9031.691;-3843.553;0.2422805;0.4494782;0;
-7041.509;-4072.441;-2468.632;-12750.34;9.144067;-10.55363;-8051.511;-3584.085;-0.147767;-0.1356795;0;
6792.584;4274.786;-2310.699;7017.304;7.862081;-14.15998;7667.448;3150.336;0.04728354;-0.2654779;0;
17126.06;13447.94;-1495.879;21874.92;10.93564;-16.08826;18538.71;11560.22;0.2421381;-0.1352764;0;
14202.94;11098.3;-743.5659;19189.14;11.92903;-7.967343;15400.84;9562.34;-0.277844;-0.2650752;0;
11852.56;8601.418;697.0825;16917.72;13.45728;-6.619678;13069.89;7023.113;-0.4074995;-0.1348742;0;
12973.97;9471.053;1996.354;18246.27;13.51111;-9.2253;14263.62;7621.502;-0.2771553;-0.0697713;0;
326.9897;-285.6426;1837.895;3066.696;14.09977;-8.144364;458.9053;-396.786;-0.1469422;-0.1996359;0;
-25392.57;-20250.12;939.0305;-27971.52;6.517144;-11.95409;-26915.48;-15477.98;0.1780422;0.1903688;0;
-20923.71;-16500.19;73.14668;-27305.97;3.228065;-12.87984;-22613.7;-13554.59;0.4377326;0.1901775;0;
-6851.809;-2980.618;-1233.739;-14394.99;6.239908;-8.84798;-8683.496;-3749.109;0.3723255;-0.1998177;0;
-6577.137;-3465.909;-2464.973;-12384.67;5.496704;-8.236303;-7669.324;-3475.665;-0.01785269;0.1252198;0;
6837.201;4411.554;-2297.892;7103.311;1.204273;-7.290267;7676.579;3211.624;-0.2127368;0.125094;0;
17255.57;13559.8;-1459.597;22002.18;-0.06973488;-6.010326;18647.04;11683.14;0.177281;-0.06993371;0;
14371.63;11264.06;-720.5009;19321.96;3.681379;-5.535407;15548.63;9683.6;0.4369723;0.06007124;0;
11789.18;8552.8;687.8593;16844.64;4.079822;-4.123203;12985.24;6964.81;0.1116965;0.1249782;0;
12995.46;9475.691;2001.414;18247.01;7.825791;-6.128548;14270.02;7602.238;0.1115842;0.5146567;0;
581.6824;-75.23734;1864.627;3331.088;9.82766;-7.06009;699.0605;-198.2185;0.5012762;0.2542702;0;
-25123.98;-20034.5;958.0516;-27711.28;5.196084;-0.4888518;-26709.6;-15280.8;0.4358051;-0.3306914;0;
-20632.96;-16474.17;93.46059;-27089.08;3.5169;0.5833664;-22408.94;-13542.15;0.0455632;-0.3953264;0;
-6603.619;-3071.125;-1212.227;-14224.83;9.273166;-2.900271;-8517.739;-3771.107;-0.1493846;-0.5248639;0;
-6578.493;-3600.834;-2454.181;-12405.47;10.33558;-3.500203;-7751.233;-3489.004;-0.01929982;-0.3944018;0;
6848.153;4373.465;-2293.123;7111.312;6.373075;-5.238182;7649.802;3199.969;0.3055563;-0.5239402;0;
17336.78;13642.94;-1464.39;22053.81;10.18506;-6.103696;18718.95;11743.3;0.4351839;-0.7832831;0;
14422.22;11331.26;-731.4117;19350.78;-0.2740189;-9.915468;15586.32;9741.627;0.1748773;-0.19779;0;
11911.26;8669.115;681.8008;16948.78;2.605669;-11.51303;13095.96;7073.207;0.1097342;0.2571802;0;
13027.99;9519.738;1996.017;18274.62;3.943197;-12.10431;14296.45;7643.824;0.109624;-0.002947646;0;
886.6563;196.4946;1862.796;3660.597;1.460988;-14.23554;1002.63;-79.44666;-0.2153229;-0.3277814;0;
-24360.76;-19246.46;963.3758;-26967.75;51.09277;-7.724078;-25956.89;-14694.35;0.1097302;0.2572541;0;
-20424.17;-16048.39;88.34712;-26908.4;65.1076;-6.912521;-22222.8;-13161.72;0.1745873;0.6467996;0;
-7078.787;-3282.222;-1222.895;-14633.4;56.19995;-8.714054;-9000.117;-3913.717;-0.02049018;0.126411;0;
-6942.941;-3787.887;-2461.637;-12761.89;62.97599;-8.03553;-8093.26;-3584.932;0.2393998;0.0613166;0;
6701.305;4299.746;-2316.954;6876.097;45.83242;-13.92177;7523.933;3139.245;0.1741919;0.256157;0;
17237.43;13536.98;-1504.22;21950.19;40.42774;-15.64934;18623.02;11628.65;0.1090495;-0.003969742;0;
14298.98;11211.34;-790.1608;19255.83;34.76104;-15.76758;15465.97;9633.322;-0.02099474;0.06100159;0;
11628.08;8390.27;598.3419;16682.49;28.42947;-17.02435;12822.69;6802.045;-0.280843;0.3208097;0;
12816.9;9313.776;1923.137;18062.21;15.13902;-17.14121;14089.88;7445.071;-0.0856588;0.3204873;0;
789.5109;125.844;1819.912;3531.902;6.884782;-17.72683;903.512;-106.9922;0.3042313;0.1902306;0;
-25029.1;-19906.17;933.5589;-27583.74;14.58102;-15.90054;-26603.88;-15239.84;0.2389583;0.06010477;0;
-21241.67;-16841.07;65.18191;-27607.88;11.28384;-15.21474;-22971.21;-13856.9;0.1737508;0.1250117;0;
-7522.182;-3685.456;-1243.413;-14996.32;28.08534;-16.40508;-9382.075;-4050.308;0.1086089;0.1248861;0;
-7494.462;-4299.926;-2487.21;-13381.82;35.35814;-17.32636;-8681.59;-3713.264;-0.0214349;-0.0701414;0;
6320.472;3950.156;-2347.202;6372.953;20.31843;-11.07966;7086.759;2887.042;-0.08638071;0.1897985;0;
17102.67;13402.75;-1536.375;21818.55;21.23602;-9.059098;18499.55;11467.87;-0.02132657;0.3195424;0;
14158.27;11072.43;-808.9771;19128.26;18.87016;-16.9538;15342.03;9525.945;0.0436622;0.1892867;0;
11543.35;8308.17;585.5727;16613.53;14.96643;-17.40564;12744;6725.198;0.173553;0.1890965;0;
12648;9147.053;1901.635;17899.9;26.00346;-21.13908;13935.19;7286.312;-0.2164254;-0.1359303;0;
555.675;-137.4136;1813.143;3223.955;26.91436;-23.79709;716.8226;-279.929;-0.2811753;-0.1357937;0;
-25326;-20220.15;940.9771;-27890.24;15.30037;-15.86944;-26838.41;-15418.63;-0.02102341;0.2541468;0;
-21553.56;-17057.24;83.99316;-27844.47;12.94047;-14.78177;-23242;-14003.89;-0.345839;0.1889241;0;
-7821.763;-3908.78;-1200.696;-15210.93;8.506835;-15.50373;-9634.833;-4115.11;-0.2805241;-0.006167744;0;
-7779.327;-4571.86;-2438.85;-13654.76;4.948314;-14.21547;-8955.004;-3770.365;0.1745291;0.05880579;0;
6250.691;3902.726;-2299.203;6250.508;8.091173;-15.60783;6994.2;2879.77;-0.150483;-0.2011227;0;
17174.49;13471.87;-1487.362;21891.35;7.680902;-15.52516;18577.22;11523.76;-0.4751685;-0.2658879;0;
14191.9;11106.42;-779.5667;19170.61;7.605835;-12.89729;15382.43;9569.928;-0.08488696;-0.005751381;0;
11451.03;8211.693;599.4926;16530.57;9.273131;-11.34372;12652.97;6622.647;0.1750677;-0.005745602;0;
12567.95;9070.21;1927.722;17822.18;7.857295;-15.55219;13851.74;7215.551;-0.02001023;-0.005739829;0;
529.4318;-142.2467;1839.141;3177.563;8.652706;-15.46958;653.149;-324.2878;0.1099446;-0.07070141;0;
-25708.96;-20593.48;952.6443;-28279.87;13.46678;-13.31058;-27258.15;-15851.84;0.1748014;-0.2655324;0;
-22039.21;-17459.77;104.1444;-28391.18;13.85539;-12.82839;-23748.34;-14398.97;-0.08524358;-0.3952003;0;
-7915.885;-3859.87;-1173.88;-15372.44;22.75008;-7.590951;-9763.885;-4107.493;0.2396788;-0.1349338;0;
-7836.389;-4497.794;-2428.507;-13853.05;26.54464;-5.573896;-9037.185;-3823.115;0.43434;0.2550058;0;
6078.479;3799.807;-2310.5;5848.473;14.46152;-3.089927;6822.164;2724.671;-0.1508025;0.1248149;0;
17078.95;13369.18;-1509.736;21729.33;12.50461;-0.5415322;18475.48;11422.54;-0.2156183;-0.2651145;0;
14158.22;11066.39;-795.3586;19139.12;12.5594;-3.153261;15337.33;9514.957;0.3043371;-0.004978788;0;
11492.99;8257.774;588.3391;16537.45;10.33597;-3.08311;12685.66;6656.813;-0.02080546;-0.06994113;0;
12469.36;8966.491;1893.935;17710.08;10.86145;-1.4055;13741.54;7092.87;-0.2806539;-0.3947076;0;
473.0683;-256.4337;1803.514;3059.605;10.91789;-1.605036;579.9766;-400.2906;-0.02050255;0.06046044;0;
-25319.12;-20240.15;946.5693;-27944.01;6.084145;-2.20627;-26927.09;-15465.33;-0.02048195;-0.06953499;0;
-21840.11;-17202.83;88.83008;-28169.42;4.001926;-2.471985;-23624.65;-14150.09;0.1094733;-0.6541712;0;
-8333.478;-4228.788;-1210.387;-15767.8;17.39352;-3.541167;-10240.29;-4263.486;0.239298;-0.2637098;0;
-8386.323;-4992.402;-2464.572;-14506.03;21.99774;-3.403643;-9687.721;-3996.225;0.1091229;0.1263592;0;
5788.842;3558.506;-2333.222;5409.194;11.59414;-4.94083;6443.488;2557.155;0.3039152;-0.1986045;0;
17064.64;13352.88;-1502.044;21684.9;10.17597;-5.069832;18450.18;11363.03;0.6934139;-0.2633723;0;
14170.17;11069.46;-788.8929;19153.22;19.34179;-3.055249;15347.55;9523.565;0.3029131;-0.003238265;0;
11383.43;8157.456;580.212;16422.26;19.52343;-3.320111;12562.93;6540.881;-0.4769993;-0.06820235;0;
12456.03;8944.625;1911.21;17675.29;17.29301;2.443635;13734.66;7070.695;-0.086716;-0.1980685;0;
590.2845;-173.8153;1829.048;3093.993;17.07456;3.713733;712.5544;-303.6751;0.3681425;-0.2628368;0;
-25377.15;-20317.95;961.1771;-28064.77;5.938971;2.102533;-26981.93;-15536.28;-0.08699878;-0.3275401;0;
-21607.33;-17163.1;122.6323;-28037.51;0.9765099;2.435335;-23400.18;-14178.42;-0.02194403;-0.1323089;0;
-7509.425;-3667.158;-1175.151;-15081.83;3.051634;-2.724736;-9427.743;-4076.523;0.5627841;-0.132176;0;
-7816.222;-4445.393;-2454.139;-13920.21;0.5029718;-4.329528;-9087.515;-3866.187;0.1724146;-0.1320432;0;
5866.602;3656.879;-2338.059;5571.334;-1.104148;-6.669519;6575.748;2591.157;-0.2825301;-0.06694315;0;
17055.5;13314.66;-1518.792;21677.25;-0.7018729;-7.935493;18444.53;11366.78;-0.2172789;-0.1318432;0;
14234.59;11156.75;-792.2865;19221.25;-5.054448;-10.47281;15402.19;9584.72;-0.2820279;0.06319127;0;
11502.32;8252.541;596.4058;16531.72;-4.379784;-12.27077;12686.7;6658.383;0.2379943;-0.1317742;0;
12515.11;9016.064;1921.64;17774.19;-1.494995;-2.546154;13784.37;7131.202;0.4326571;-0.0666745;0;
706.8527;-30.78037;1839.656;3416.572;-0.9576296;0.8054895;833.6823;-243.9636;0.04241835;0.2582292;0;
-25409.01;-20341.21;952.7208;-27952.58;15.31933;-2.745354;-26991;-15673.95;-0.1525263;0.0630677;0;
-22570.93;-17733.18;61.83582;-28886.34;21.7343;-1.46992;-24346.32;-14629.5;-0.2823077;-0.196865;0;
-9277.917;-4979.97;-1257.626;-16652.45;15.61689;3.287284;-11178.71;-4556.945;0.1727473;-0.2616346;0;
-9040.381;-5638.382;-2518.79;-15166.36;17.00772;4.891449;-10339.86;-4198.513;0.3025084;-0.06646965;0;
5643.639;3420.202;-2388.589;5212.597;16.11997;3.814808;6300.526;2450.725;0.04233512;0.1284992;0;
17074.16;13363.14;-1566.054;21699.77;13.49181;3.610026;18465.64;11352.96;-0.08764211;-0.1964667;0;
14207.36;11095.3;-831.8175;19189.08;13.88039;3.003674;15383.36;9566.287;-0.2174887;-0.3262039;0;
11484.02;8257.603;563.4111;16529.67;11.05341;1.861946;12671.17;6629.115;-0.08733551;0.06392789;0;
12504.06;8987.138;1883.306;17726.06;8.564054;-1.555993;13780.37;7128.84;0.1076543;0.1937983;0;
625.6121;-170.8407;1779.028;3103.545;10.09569;-3.764806;740.8664;-342.4619;0.1725134;0.3885056;0;
-25609.39;-20587.72;881.5656;-28295.79;-15.30013;-4.899733;-27192.84;-15784;-0.02256193;0.5830173;0;
-22044.89;-17543.68;17.45738;-28453.05;-23.92592;-6.100441;-23810.69;-14424.16;-0.4123433;0.4524968;0;
-7907.102;-4017.979;-1282.594;-15466.03;0.6804893;-8.974517;-9797.775;-4156.348;-0.08709227;-0.002729275;0;
-8270.438;-4918.784;-2559.351;-14468.36;1.349391;-9.836277;-9593.888;-3970.653;0.3027993;-0.2625959;0;
5679.098;3464.15;-2440.197;5244.805;11.93158;-8.687684;6293.209;2509.347;-0.02234168;0.2574067;0;
17146.42;13407.98;-1608.99;21758.25;18.34995;-8.34404;18538.04;11423.86;-0.3471559;0.5819848;0;
14317.33;11228.3;-876.1155;19305.57;9.221838;-3.646972;15506.99;9682.719;-0.2168724;0.4514653;0;
11550.07;8301.406;504.7274;16588.25;12.29305;-1.031034;12740.35;6699.078;-0.02175249;0.321077;0;
12421.62;8922.015;1817.248;17677.57;5.851317;-1.498879;13705.48;7063.301;0.2381387;0.06088499;0;
722.2913;-26.84714;1730.558;3343.93;7.921543;-0.4256458;878.9793;-259.9004;0.3678341;-0.2640129;0;
-25334.63;-20225.73;858.3819;-27908.77;-4.076484;1.852141;-26861.54;-15506.27;0.1075952;-0.3936823;0;
-22113.63;-17461.5;1.980665;-28459.36;-10.36805;1.448382;-23826.42;-14373.5;0.1724544;-0.003482676;0;
-8444.033;-4369.563;-1298.118;-15800.44;24.40517;4.929917;-10282.77;-4405.095;0.04234643;0.3213575;0;
-9302.895;-5615.84;-2593.724;-15529.94;30.87836;5.862724;-10650.28;-4440.992;-0.4774348;-0.003802078;0;
4940.252;2967.538;-2492.698;4151.374;32.92343;-3.721482;5508.551;2092.266;-0.3470204;-0.328635;0;
17066.35;13304.41;-1642.62;21582.59;41.12937;-5.794152;18471.2;11293.94;-0.08680239;-0.3283047;0;
14259.29;11157.95;-895.1256;19300.81;24.00776;-10.81193;15460.32;9632.972;-0.4115519;-0.1330728;0;
11441.2;8211.248;489.6095;16474.02;21.70647;-14.41808;12637.52;6605.918;-0.4761057;-0.00300445;0;
12445.94;8927.571;1835.285;17701.23;25.70314;-9.781894;13740.2;7072.028;-0.4756273;-0.003001431;0;
874.2609;56.4615;1774.408;3389.11;22.86428;-10.77675;1028.62;-175.3452;-0.4751494;0.1269363;0;
-25525.97;-20536.63;897.1586;-28133.58;22.43916;-7.684827;-27055.02;-15742.78;-0.0848679;0.06184138;0;
-22609.4;-18007.57;51.18186;-28932.8;19.87102;-6.940293;-24322.05;-14728.79;-0.2147173;-0.1331228;0;
-8275.597;-4251.416;-1227.664;-15737.19;20.85641;-8.3399;-10084.91;-4253.455;-0.2794689;0.06191301;0;
-8590.993;-5093.578;-2515.501;-14800.28;20.90182;-8.599451;-9878.861;-4041.941;0.1755833;0.2567528;0;
5267.037;3147.541;-2397.61;4650.185;17.0634;-10.46633;5860.564;2245.368;0.1104395;0.1265602;0;
17063.58;13316.61;-1531.776;21639.52;17.84957;-11.12558;18465.79;11324.84;0.04536122;-0.003501702;0;
14265.71;11165.05;-789.39;19295.72;12.20555;-16.9418;15476.13;9640.337;0.500087;0.06146916;0;
11419.53;8181.813;595.2076;16475.07;9.647692;-19.00118;12626.27;6585.275;0.5645519;0.1263748;0;
12405.76;8895.276;1942.526;17655.85;20.75741;-22.33118;13709.74;7049.468;0.5639846;-0.1336216;0;
705.9775;-123.4144;1888.569;3203.054;20.60185;-25.65783;881.6243;-307.8111;0.7583199;-0.3283894;0;
-25647.13;-20636.9;1043.532;-28249.12;28.41803;-19.93862;-27133.79;-15764.11;0.4327213;-0.0032227;0;
-22243.02;-17796.64;230.111;-28531.83;32.74374;-20.85628;-23898.39;-14516.95;0.2373845;0.3216173;0;
-7900.668;-4042.901;-1034.172;-15260.41;11.34365;-15.94569;-9669.858;-4139.29;0.3670806;0.2563268;0;
-8886.401;-5191.072;-2335.916;-15063.33;5.371377;-12.17875;-10152.52;-4149.858;0.3017444;0.1911019;0;
4870.18;2922.052;-2247.924;4122.408;11.66164;-26.76842;5489.247;2069.032;0.04157187;-0.003992202;0;
17046.52;13270.35;-1393.938;21538.2;8.970608;-28.55001;18465.19;11283.46;0.4313341;-0.003988191;0;
14377.87;11276.22;-656.5942;19445.63;2.263789;-24.70341;15599.99;9755.869;0.5608354;0.3208525;0;
11599.56;8367.076;721.4044;16615.47;-0.1503592;-26.08517;12811.49;6782.197;0.04053316;0.3854975;0;
12754.66;9230.996;2080.746;18062.37;-4.503489;-17.61936;14069.4;7394.899;0.04049243;0.2551754;0;
1394.799;478.1625;2030.148;4312.714;-7.915215;-15.52518;1640.799;172.0331;0.1703864;0.06001701;0;
-25127.93;-20186.03;1160.326;-27403.55;3.212149;-14.43792;-26547.73;-15475.65;0.4300846;-0.06997798;0;
-22322.08;-17819.86;334.8868;-28572.15;6.289404;-11.34226;-23953.06;-14580.82;0.6895218;-0.1998423;0;
-7823.174;-3963.846;-925.4726;-15162.7;-2.08966;-16.15351;-9557.469;-4175.973;0.3639923;-0.1346742;0;
-8502.749;-4937.45;-2237.601;-14709.31;-2.422353;-15.2665;-9772.189;-4052.477;0.2336918;-0.1345389;0;
5014.255;2969.133;-2172.697;4269.032;2.135409;-18.06438;5592.896;2093.242;0.1684897;-0.004469011;0;
17065.06;13301.05;-1329.905;21602.64;2.468055;-20.18968;18479.04;11333.7;-0.1565163;-0.06943186;0;
14517.09;11415.5;-590.9709;19566.76;6.015549;-8.983491;15746.33;9890.387;-0.2213264;-0.3292315;0;
11710.93;8476.235;773.9059;16730.98;9.894271;-6.764089;12922.57;6900.244;0.03876536;-0.06903128;0;
12764.22;9245.218;2116.359;18068.77;-4.851429;-9.838446;14086.25;7406.725;0.2336284;0.1259401;0;
1577.243;597.2862;2061.416;4412.312;-8.396527;-8.756833;1819.673;283.7806;0.298361;0.1907809;0;
-24696.5;-19778.34;1188.969;-27023.4;6.95088;-10.55651;-26120.67;-15051.47;0.4929633;0.2555566;0;
-22005.96;-17581.4;354.1311;-28246.57;8.551485;-10.41194;-23636.95;-14297.54;0.4275006;-0.004569606;0;
-8065.53;-4363.747;-930.2043;-15372.6;8.274473;-12.07605;-9799.311;-4293.792;0.1022343;-0.06953236;0;
-9095.981;-5509.987;-2258.633;-15191;8.46723;-12.73368;-10315.06;-4229.321;0.1670989;0.06047219;0;
4770.396;2786.554;-2195.331;4099.322;15.55867;-9.70678;5407.986;2006.062;0.2318984;-0.1344906;0;
17112.74;13336.53;-1352.517;21633.84;20.76795;-8.491334;18533.78;11322.63;0.1017307;-0.06938811;0;
14486.01;11388.97;-614.7467;19539.97;-6.179814;-9.621511;15718.95;9896.072;0.03666111;0.190551;0;
11578.15;8341.729;725.9162;16618.78;-14.34528;-9.276929;12795.29;6748.924;0.2315263;-0.004542519;0;
12488.24;8978.569;2050.677;17806.91;5.897249;-4.511941;13815.56;7152.202;0.101359;-0.19944;0;
1222.891;310.2283;2008.886;4022.989;5.690253;-3.837579;1475.105;75.53771;-0.09364489;0.06062979;0;
-25002.94;-19976.92;1152.141;-27327.02;4.881228;-0.8195516;-26392.62;-15173.17;-0.09355079;0.1905036;0;
-21675.97;-17489.71;341.7651;-27918.81;7.957782;0.5878525;-23231.24;-14207.4;-0.1584241;-0.2644593;0;
-6490.956;-3295.824;-909.7931;-13981.98;-3.571766;-4.436336;-8174.812;-3881.747;0.2315391;-0.4590955;0;
-7543.276;-4129.373;-2230.465;-13666.74;-4.907348;-4.967681;-8680.34;-3748.833;0.3612411;-0.06883021;0;
5076.823;3105.954;-2183.59;4583.7;-1.085;-10.79008;5818.442;2172.131;-0.09389324;-0.06876104;0;
17040.35;13242.94;-1357.591;21599.41;-3.427458;-13.79341;18474.01;11322.33;-0.02883155;-0.1986266;0;
14597.63;11515.04;-634.5583;19643.68;8.967218;-10.49745;15828.71;9982.654;0.1011321;0.2563443;0;
11648.64;8412.259;705.7497;16708.21;11.23538;-11.15673;12881.96;6850.553;0.2309652;0.5159562;0;
12502.61;8991.542;2035.403;17823.71;10.01865;-10.60966;13836.85;7169.677;0.6205371;0.2555683;0;
1396.328;454.3411;2004.123;4131.236;15.29986;-9.929167;1657.183;130.2268;0.2950769;-0.06952518;0;
-24618.69;-19610.17;1166.06;-26995.38;-11.50771;-9.785285;-25978.23;-14893.54;-0.159991;-0.19939;0;
-21601.89;-17374.14;342.3646;-27773.52;-18.93088;-9.373555;-23114.73;-14016.52;-0.02989553;0.1256471;0;
-6647.973;-3389.034;-922.3751;-14088.39;3.191287;-6.952812;-8301.42;-3921.616;0.3599386;0.1904882;0;
-7530.861;-4060.071;-2236.412;-13460.74;4.259807;-6.744877;-8565.896;-3721.696;0.4245442;-0.004605286;0;
5133.625;3170.235;-2195.31;4919.583;7.269637;-5.666373;5980.811;2247.732;0.1642483;0.1903014;0;
17079.08;13278.31;-1364.739;21668.42;10.67858;-5.325765;18515.44;11365.19;0.2940179;-0.004791874;0;
14674.7;11598.09;-625.3324;19694.57;2.094038;-10.74591;15905.06;10068.54;0.2287552;-0.0697544;0;
11803.94;8563.282;720.7759;16878.95;-2.127624;-12.3427;13044.58;7002.988;-0.09631141;-0.1346516;0;
12634.29;9129.232;2049.946;17946.69;6.179909;-13.00007;13961.85;7308.825;-0.2911167;-0.1994837;0;
1502.377;546.1973;2011.685;4313.395;2.087863;-13.12097;1784.607;236.9697;0.03401257;0.2554882;0;
-24683.61;-19667.24;1163.089;-26965.64;1.215109;-18.39932;-26038.54;-14925.3;0.2938478;-0.1345726;0;
-21828.31;-17587.12;343.2698;-27981.83;2.821478;-20.05534;-23348.88;-14183.16;-0.09625155;-0.004502725;0;
-6403.151;-3262.938;-910.6013;-13868.03;-42.59408;-11.72955;-8049.047;-3871.737;-0.5509262;0.3853059;0;
-7185.29;-3825.313;-2233.083;-13308.86;-57.08694;-10.11017;-8281.558;-3639.634;-0.2255359;-0.3946894;0;
5019.706;3060.15;-2200.886;4533.103;-38.94394;-4.138717;5792.444;2110.417;-0.0304073;-0.004488773;0;
17025.08;13224.95;-1357.66;21551.47;-42.65586;0.3532369;18461.1;11334.44;-0.4201808;0.3853198;0;
14742.39;11663.22;-613.2629;19794.94;-34.10653;-5.608477;15977.71;10122.75;-0.09492189;-0.004871433;0;
11702.63;8462.791;727.4297;16771.98;-29.18312;-5.535859;12938.64;6916.355;0.2949775;-0.1997686;0;
12522.25;9014.178;2063.87;17867.54;-28.21579;0.1631311;13858.16;7191.404;0.09977911;-0.2645352;0;
1711.47;719.2072;2041.401;4637.557;-23.29732;1.100667;2026.984;369.6973;-0.03025583;-0.004400004;0;
-24255.62;-19281.34;1198.428;-26445.81;-15.23693;-1.445729;-25565.32;-14562.15;-0.03022542;0.3854085;0;
-21832.25;-17432.6;343.5595;-27971.83;-9.126051;-1.377294;-23334.81;-14062.92;0.09973963;0.5149559;0;
-7077.641;-3628.453;-957.3819;-14452.85;-13.40379;-5.394763;-8705.483;-4086.189;0.2295741;0.1896018;0;
-7885.417;-4316.256;-2280.942;-13901.93;-12.18487;-7.532736;-8935.257;-3816.498;0.1643761;0.05947655;0;
4791.279;2899.596;-2224.052;4318.111;-9.158519;-2.099671;5602.637;2028.245;0.2941456;0.3842535;0;
16955.24;13153.15;-1358.002;21487.19;-8.412382;-1.092879;18397.01;11231.92;-0.03098667;0.3189001;0;
14713.95;11633.18;-579.2154;19761.38;-9.006166;-4.641754;15949.71;10119.25;-0.2908249;0.2536123;0;
11823.18;8588.17;795.0511;16883.86;-8.327531;-4.302236;13067.02;7035.584;-0.550402;0.05845543;0;
12681.93;9174.429;2142.606;18016.24;-13.74515;-2.958255;14019.3;7365.564;-0.6797837;-0.1365053;0;
1738.915;768.8215;2111.405;4643.038;-17.95089;-2.486402;2059.089;412.3416;-0.1593619;-0.07140083;0;
-24725.69;-19721.07;1246.811;-26895.42;-1.187368;-0.4074933;-26031.53;-14993.64;-0.02926709;0.2535076;0;
-22352.21;-17957.29;409.2282;-28446.21;1.694213;-0.273118;-23843.9;-14496.52;-0.1591724;0.5131223;0;
-7030.145;-3605.89;-845.5212;-14354.96;-9.761693;2.473396;-8636.809;-4042.171;0.295759;0.2527373;0;
-7882.992;-4283.471;-2182.218;-14053.67;-10.35412;2.738842;-8991.697;-3821.765;0.5553312;0.05758134;0;
4538.58;2687.956;-2160.285;3760.071;-18.78381;-1.148859;5256.758;1828.002;0.1000018;0.05752348;0;
16835.95;13025.04;-1305.98;21302.77;-23.52036;-3.090149;18270.23;11102;-0.03003341;-0.007501665;0;
14614.4;11536.65;-550.4536;19697.26;-18.40651;-6.302163;15861.1;10018.28;0.2948335;0.2523752;0;
11617.65;8379.654;805.4808;16671.97;-19.92826;-9.04207;12856;6830.824;0.2295699;-0.007747715;0;
12414.43;8906.23;2157.929;17761.96;-24.39621;-13.25279;13753.76;7089.998;0.1643719;-0.397544;0;
1478.513;505.9684;2134.552;4320.425;-27.18474;-15.38286;1804.473;260.8346;0.229174;-0.007340476;0;
-25081;-20123.05;1280.429;-27289.06;-19.0531;-19.85514;-26375.66;-15233.36;0.1639764;-0.1372678;0;
-22879.58;-18363.4;455.9942;-28957.09;-15.6177;-21.64373;-24376.55;-14873.29;0.09884433;-0.5269339;0;
-7464.139;-3831.201;-785.84;-14813.33;-30.47149;-19.47859;-9087.142;-4213.271;-0.1611244;-0.2665351;0;
-8040.782;-4437.091;-2099.14;-14119.04;-32.24953;-19.86085;-9147.335;-3835.476;0.2288416;0.1235368;0;
4486.379;2592.851;-2081.226;3890.085;-25.38462;-13.20977;5225.792;1766.408;0.3585463;0.383282;0;
16678.57;12885.52;-1248.865;21177.91;-24.95795;-11.52199;18121.74;10949.7;0.03334935;0.0580602;0;
14544.53;11456.57;-481.5262;19595.94;-17.49813;-9.166066;15786.06;9942.155;-0.2265535;-0.2018675;0;
11679.18;8440.912;870.7781;16719.05;-13.52844;-7.616248;12914.85;6886.665;-0.2912932;-0.2016647;0;
12512.55;9012.061;2205.294;17862.24;-15.59095;-11.82846;13851.46;7203.598;0.09880352;-0.3963641;0;
1727.906;712.7352;2180.059;4685.8;-14.16876;-12.48634;2047.422;334.5902;0.3585736;-0.07112908;0;
-24994.62;-20018.14;1306.025;-27114.29;-7.456719;-19.84174;-26301.32;-15286.13;0.293246;0.05887707;0;
-22786.58;-18313.07;471.5381;-28893.12;-4.836283;-23.37183;-24270.62;-14803.36;-0.2267874;-0.2010515;0;
-7117.584;-3668.026;-778.9949;-14491.86;-7.980231;-24.15214;-8726.6;-4071.954;-0.09662486;0.1239873;0;
-8106.385;-4447.259;-2140.715;-14332.21;-6.966858;-26.74015;-9239.209;-3912.19;0.5531456;0.05889534;0;
4257.065;2504.733;-2149.746;3414.354;-11.91635;-25.57457;4965.298;1696.392;0.1627858;-0.3309679;0;
16831.75;13009.56;-1321.282;21268.82;-14.51732;-25.54887;18268.96;11071.27;-0.1622145;-0.2007006;0;
14644.58;11558.85;-586.948;19725.7;-5.594127;-26.26001;15887.03;10040.77;0.1627852;-0.1355316;0;
11679.4;8446.732;745.5348;16720.74;-4.114637;-26.23363;12914.44;6899.16;0.422491;-0.07042811;0;
12554.17;9041.504;2075.336;17893.86;-6.923542;-20.71479;13888.91;7216.893;0.4220665;-0.200292;0;
1552.655;566.4873;2036.331;4427.496;-4.773131;-18.81851;1845.045;310.7649;0.2917077;-0.2000908;0;
-25185.96;-20215.95;1175.748;-27354.34;-10.99763;-18.66564;-26517.58;-15341.88;0.4863167;0.2548817;0;
-22938.29;-18456.95;348.4194;-29000.96;-12.59417;-16.57047;-24419.34;-14910.58;-0.2937801;0.2546256;0;
-7474.301;-3992.1;-910.5792;-14787.89;0.01079217;-20.63966;-9085.015;-4198.618;-0.6183217;0.05946769;0;
-8235.139;-4656.987;-2247.054;-14335.33;3.024891;-20.48496;-9371.675;-3921.115;-0.162929;0.25431;0;
4369.117;2534.502;-2240.58;3675.418;0.878398;-19.99549;5089.978;1717.774;-0.3576673;0.3190218;0;
16740.93;12932.37;-1422.145;21213.31;2.150313;-19.90842;18183.33;10984.98;-0.2273732;0.1237992;0;
14583.85;11501.21;-679.62;19642.62;3.018809;-17.07519;15825.67;9994.141;-0.1621774;-0.07122723;0;
11783.79;8548.289;669.1665;16820.56;2.948426;-16.6562;13022.61;6987.621;0.1628223;-0.2010904;0;
12500.97;8994.394;2005.353;17845.01;3.481327;-10.61112;13839.28;7185.231;0.5524627;0.1239484;0;
1453.769;445.0237;1978.851;4351.195;3.612527;-8.256116;1776.972;206.7339;0.2270709;0.3836932;0;
-25224.48;-20278.21;1126.415;-27371.47;-4.362682;-8.850666;-26516.19;-15357.32;-0.03302663;-0.136431;0;
-23195.72;-18596.64;299.7292;-29269.48;-7.974645;-6.765302;-24678.77;-15039.28;-0.2278955;-0.2012613;0;
-7541.649;-3845.717;-934.2331;-14888.64;-4.282936;-12.98779;-9151.401;-4230.123;-0.3576012;0.3186797;0;
-8096.383;-4403.414;-2263.719;-14268.71;-5.551431;-14.91719;-9202.972;-3800.868;-0.1623398;0.1234575;0;
4228.015;2418.99;-2281.731;3430.022;-6.81865;-10.81636;4967.61;1636.736;0.357562;-0.2015033;0;
16638.28;12835.23;-1462.709;21084;-6.275935;-12.07811;18085.46;10889.24;0.4221701;0.05856852;0;
14568.98;11485.21;-715.3326;19647.93;-10.22077;-11.26224;15804.53;9974.718;-0.09799283;0.2534117;0;
11643.34;8401.866;634.6767;16695.85;-10.07678;-12.32259;12881.26;6845.31;-0.4876984;0.1232224;0;
12476.01;8981.895;1998.666;17807.22;-10.20037;-12.77909;13804.98;7167.173;-0.1623717;0.1230986;0;
1488.708;483.3863;1990.785;4323.88;-11.86506;-12.43133;1771.778;235.6393;0.6173995;0.2529096;0;
-25678.54;-20691.85;1141.617;-27836.86;2.547823;-21.93017;-27009.74;-15801.27;0.8116812;0.2526554;0;
-23548.19;-18978.06;351.7101;-29626.93;6.898544;-24.52041;-25030.36;-15420.47;0.4860289;0.05749955;0;
-7229.293;-3684.265;-840.2007;-14601.61;-0.6095;-23.62506;-8823.252;-4138.246;0.1607039;0.1224091;0;
-8241.563;-4437.448;-2184.649;-14575.42;1.198797;-25.61074;-9465.449;-3951.57;-0.09932696;-0.00764857;0;
3742.183;2124.746;-2229.899;2646.228;-5.16542;-19.62365;4314.562;1330.06;-0.4240639;-0.1375756;0;
16639.63;12815.3;-1397.294;20993.36;-7.437405;-18.06339;18065.23;10878.99;-0.4236378;0.3173341;0;
14653.99;11559.05;-640.27;19767.92;-2.473439;-17.64334;15910.92;10037.02;-0.09837539;0.7068192;0;
11795.1;8575.551;710.6633;16803.6;-4.011195;-14.74541;13021.04;7025.505;0.03165815;0.316305;0;
12726.42;9213.344;2080.823;18080.81;2.75799;-19.95514;14065.92;7390.727;-0.2932104;0.0561178;0;
1672.162;608.6096;2064.27;4642.298;5.032394;-20.40397;2007.605;374.8395;-0.1629811;0.1859961;0;
-25122.79;-20199.9;1217.777;-27205.39;-4.014992;-13.75234;-26406.02;-15287.98;0.2269868;-0.07406016;0;
-22870.14;-18459.59;419.9224;-28922.49;-5.551199;-13.13567;-24351.23;-14920.5;-0.1630454;0.05594894;0;
-7080.372;-3750.899;-818.2523;-14409.32;-5.680319;-10.71115;-8698.067;-4119.503;-0.1628816;0.3807294;0;
-8192.101;-4507.357;-2175.373;-14419.53;-8.085509;-9.829608;-9404.968;-3880.935;0.3570209;-0.009457184;0;
3997.148;2305.64;-2188.648;3083.807;-4.192619;-13.97255;4619.734;1517.847;0.1617601;-0.2043497;0;
16755.42;12928.76;-1349.526;21154.76;-3.250401;-15.36515;18190.19;10985.41;0.1615975;0.3155944;0;
14734.17;11646.3;-610.1967;19827.96;-11.68723;-16.55535;15983.23;10126.25;0.5512392;0.3802446;0;
12062.48;8829.337;753.2314;17048.47;-13.28308;-17.47647;13289.66;7274.063;0.2258486;0.1849605;0;
13194;9685.094;2158.83;18547.13;-12.80024;-24.42495;14539.84;7876.822;0.09568701;0.5096114;0;
2763.874;1583.101;2139.888;5969.1;-15.40032;-27.14665;3116.701;1139.681;0.09559086;0.1842626;0;
-23914.49;-19085.62;1249.278;-25775.34;-4.533855;-25.24391;-25212.29;-14427.31;-0.5541786;-0.3356613;0;
-22724.52;-18220.15;415.6602;-28739.98;-1.581563;-26.96004;-24214.79;-14657.91;-0.3587197;0.05448003;0;
-7253.17;-3812.478;-826.3834;-14559.64;-9.149411;-20.03389;-8856.755;-4226.778;0.03144475;0.4442293;0;
-8059.036;-4283.611;-2186.307;-14277.14;-7.532627;-17.7364;-9224.495;-3857.48;-0.1634889;0.3788157;0;
3903.022;2276.882;-2224.652;2945.819;-13.95542;-21.46951;4589.351;1434.098;-0.2282919;-0.1413037;0;
16683.96;12855.15;-1387.992;21038.19;-15.48164;-20.17532;18124.48;10923.51;-0.2280625;-0.1411618;0;
14776.17;11679.63;-630.8212;19873.64;-8.433485;-22.70034;16019.4;10165.83;-0.162866;0.3137515;0;
12027.89;8800.523;721.3833;17009.93;-8.089242;-23.48132;13255.52;7244.206;-0.09773505;0.05356685;0;
13067.21;9554.392;2107.493;18439.64;-1.919173;-18.63502;14409.9;7747.264;-0.1626042;-0.01145432;0;
2541.49;1357.906;2095.255;5744.809;-0.7781682;-17.14273;2906.242;978.1753;0.09742856;0.1184919;0;
-23879.38;-19028.26;1222.525;-25779.71;2.83896;-18.73303;-25164.26;-14324.82;0.6820368;0.1833402;0;
-22295.11;-17955.53;394.5246;-28315.3;4.644769;-17.30763;-23773.77;-14377.81;0.7463187;0.4430253;0;
-6233.766;-3255.71;-841.3446;-13704.03;-3.933714;-18.69682;-7833.708;-4003.293;0.3557648;0.2476781;0;
-6665.423;-3348.203;-2185.229;-12835.2;-4.800417;-19.07993;-7790.339;-3496.445;0.1605053;0.1174946;0;
4622.604;2791.796;-2217.173;4102.718;-16.18245;-11.55885;5367.941;1817.009;-0.03455799;-0.1424929;0;
16778.22;12950.65;-1394.233;21270.73;-21.65854;-10.00669;18219.62;11087.82;-0.2294253;-0.3372517;0;
14856.21;11780.72;-653.7344;19886.74;-13.53246;-6.714536;16091;10234.91;-0.3591295;-0.3369128;0;
11954.52;8711.869;702.7097;16997.99;-13.31779;-3.157816;13189.26;7167.4;-0.4887033;-0.466509;0;
12976.77;9474.79;2103.455;18318.83;-15.91638;-15.14428;14314.56;7666.444;-0.3582775;-0.1412035;0;
2649.817;1440.601;2088.754;5791.49;-16.03411;-18.2772;3041.15;1067.32;-0.03308083;0.3786771;0;
-24272.92;-19474.41;1192.792;-26170.31;-6.640871;-9.685205;-25542.1;-14687.57;0.03191975;0.2483619;0;
-23278.24;-18737.97;344.3011;-29298.53;-3.887532;-10.81412;-24791.02;-15053.53;-0.3579164;-0.01175701;0;
-6924.73;-3599.992;-892.2672;-14351.21;-4.152045;-9.195726;-8535.738;-4190.852;-0.03272003;0.05322215;0;
-7157.496;-3689.266;-2240.599;-13562.37;-2.540283;-8.315709;-8367.147;-3584.131;0.2921495;-0.07676601;0;
4187.887;2396.072;-2277.172;3180.946;-7.159431;-18.15366;4795.788;1535.633;-0.3578174;-0.07668888;0;
16646.37;12828.87;-1434.743;21026.76;-8.692478;-20.88166;18072.17;10930.16;-0.2275232;0.3781596;0;
14776.67;11693.19;-685.7087;19881.84;-12.36842;-21.12855;16025.61;10157.33;0.2924442;0.3128123;0;
11912.5;8672.621;657.6492;16903.08;-15.63754;-24.12149;13134.87;7129.687;0.09724828;-0.2072408;0;
12911.82;9413.765;2055.285;18282.51;-18.36849;-19.81047;14255.07;7601.97;-0.03278412;-0.2719999;0;
2592.683;1439.246;2058.686;5790.531;-22.10108;-19.18771;2959.419;1008.47;-0.4225552;0.1830448;0;
-23951.8;-19058.88;1192.615;-25850.13;-18.59527;-24.25901;-25240.29;-14411.39;-0.3571633;0.1178935;0;
-22768.96;-18289;367.2055;-28815.6;-18.04073;-24.10067;-24249.52;-14668.04;0.2279017;0.1177751;0;
-6418.519;-3289.387;-855.143;-13932.94;-25.12255;-25.81801;-8012.601;-4040.85;0.1627053;0.1826241;0;
-6719.915;-3241.776;-2200.544;-12974.61;-24.76251;-26.26089;-7887.671;-3465.968;0.1625418;-0.2073635;0;
4305.533;2618.663;-2251.494;3671.141;-25.60828;-20.80901;4998.36;1635.531;0.09741116;0.05271424;0;
16652.31;12824.67;-1424.553;21104.13;-25.71627;-19.11359;18090.33;10970.8;-0.4224254;0.1176286;0;
14909.6;11820.34;-667.3449;19948.69;-15.17521;-16.54909;16144.7;10265.8;-0.1621316;-0.2073263;0;
12085.89;8858.056;698.7331;17100.41;-11.74371;-13.98717;13313.46;7316.666;-0.09700137;0.05275141;0;
13181.29;9676.521;2103.356;18522.95;-7.980869;-16.31746;14520.08;7872.171;-0.2918059;-0.07723628;0;
2995.576;1738.142;2090.81;6251.148;-4.69032;-16.83693;3402.52;1300.748;0.09829133;-0.4019954;0;
-23811.41;-19026.48;1194.627;-25610.28;-2.47578;-11.19356;-25069.11;-14314.63;-0.1616768;-0.2716568;0;
-23116.46;-18554.14;347.1337;-29116.31;0.741888;-10.37858;-24624.61;-14844.27;-0.6162857;-0.3363512;0;
-7018.256;-3749.052;-879.4425;-14400.46;-9.976127;-15.86057;-8626.35;-4244.911;-0.2908298;0.2486929;0;
-7330.637;-3818.826;-2225.476;-13669.52;-13.71715;-17.51921;-8545.687;-3628.157;-0.09563553;0.5732797;0;
4041.313;2334.826;-2262.719;3074.385;-7.674168;-21.05158;4657.221;1487.169;-0.3554088;-0.07696974;0;
16706.63;12880.57;-1413.746;21070.92;-10.41312;-23.77666;18136.15;10973.78;-0.1601497;-0.4017291;0;
14864.28;11781.44;-672.8227;19955.94;-7.924413;-25.09243;16111.3;10247.86;0.2298153;0.05344594;0;
11900.08;8666.488;656.8104;16887.31;-7.179517;-27.21061;13121.28;7116.292;-0.1602197;0.5081636;0;
13019.91;9524.282;2071.095;18389.67;-20.97005;-26.37948;14362.71;7716.461;-0.5498627;0.3777184;0;
2857.945;1658.333;2087.411;6202.591;-24.43258;-25.95107;3263.415;1232.228;0.2302979;0.0525021;0;
-23894.86;-19031.73;1207.162;-25622.24;-22.46565;-29.34106;-25155.43;-14358.92;0.2950338;0.3123187;0;
-22823.65;-18371.55;399.6976;-28798.5;-24.45183;-29.37857;-24298.71;-14731.04;-0.4848707;0.1820702;0;
-6450.251;-3431.955;-799.8512;-13872.58;-20.27505;-26.46884;-8026.225;-4055.764;-0.09457948;-0.3378515;0;
-7050.887;-3561.939;-2161.332;-13302.5;-19.24933;-26.2413;-8231.975;-3512.679;-0.02951711;-0.07764263;0;
4066.863;2451.197;-2225.064;3313.212;-19.56576;-18.64604;4741.28;1565.613;-0.6791608;-0.07756461;0;
16743.54;12911.58;-1400.835;21139.48;-19.01023;-15.3452;18184.41;11017.12;-0.1587397;-0.01251933;0;
14886.61;11797.37;-679.8207;19946.21;-13.49877;-21.42511;16121.28;10258.34;0.1662565;0.2473626;0;
11903.24;8676.514;635.9825;16906.7;-10.13533;-21.87246;13126.34;7129.775;-0.02881258;-0.2726247;0;
13059.77;9558.582;2064.125;18416.27;-22.7848;-19.90804;14399.94;7758.073;0.1661184;-0.4672527;0;
3154.511;1891.405;2104.749;6502.245;-27.04881;-20.28987;3561.822;1411.558;0.0360168;-0.2069139;0;
-23496.17;-18688.89;1225.824;-25214.74;-11.68266;-24.6903;-24761.6;-14074.8;0.100948;0.1181307;0;
-22622.38;-18276.63;412.907;-28610.78;-8.857887;-27.1438;-24119.89;-14598.73;0.1008465;0.05304468;0;
-6096.99;-3302.599;-776.7539;-13571.68;-19.29784;-25.04011;-7695.069;-4033.08;-0.2240915;-0.01197596;0;
-6648.271;-3261.675;-2132.573;-12877.25;-18.14034;-25.81869;-7825.861;-3446.898;-0.2888337;0.1179708;0;
4126.59;2517.684;-2220.416;3476.398;-25.15472;-28.0701;4810.936;1589.613;-0.4184782;-0.2719518;0;
16720.36;12872.4;-1415.338;21142.57;-28.41197;-27.70698;18159.64;11006.39;-0.09322096;-0.3366459;0;
14919.97;11841.48;-692.5601;19970.37;-11.10207;-33.2386;16155.92;10294.31;0.2317094;-0.206373;0;
11863.37;8637.528;622.8499;16882.32;-7.875733;-35.54955;13087.29;7095.318;-0.1583275;-0.2711329;0;
12966.01;9458.354;2045.071;18313.77;-5.992785;-26.40439;14303.99;7655.591;-0.288103;-0.2058932;0;
3112.229;1809.94;2085.651;6408.668;-1.699856;-25.0382;3532.473;1369.867;0.3618599;-0.530523;0;
-23853.24;-19146.67;1208.089;-25607.81;-9.802472;-25.48192;-25104.06;-14437.16;0.8162677;-0.4000552;0;
-23726.65;-19055.16;384.9449;-29724.07;-11.13277;-24.04974;-25252.51;-15262;0.6855128;-0.009849212;0;
-7113.146;-3684.057;-801.6893;-14604.02;-5.227086;-26.57086;-8738.349;-4325.697;0.2300526;0.05512803;0;
-6807.992;-3310.979;-2136.244;-13008.52;-4.819692;-26.34322;-7964.234;-3435.655;0.03491939;-0.009894708;0;
4208.299;2461.87;-2212.808;3616.467;-10.57562;-28.12523;4909.004;1562.068;0.09985165;0.1850173;0;
16647.6;12830.17;-1407.863;21081.63;-11.97152;-28.49886;18082.79;10959.31;-0.2250854;0.5096681;0;
14921.63;11836.35;-689.6835;19957.8;-12.428;-29.7429;16157.86;10290.61;-0.09492454;0.1193519;0;
11818.74;8584.161;611.637;16835.57;-13.82204;-31.45451;13039.78;7044.879;0.2949749;-0.4005068;0;
12815.06;9318.85;2025.718;18166.88;-10.0571;-22.64832;14151.7;7514.499;0.03480913;-0.07526763;0;
3085.272;1802.197;2094.147;6398.987;-8.908897;-20.08028;3504.064;1326.914;0.03477415;-0.01022465;0;
-24008.96;-19238.38;1283.23;-25739.88;-6.957563;-25.82051;-25270.15;-14600.57;-0.1601628;-0.07518172;0;
-23961.8;-19314;523.9781;-29954.64;-2.931108;-25.12474;-25477.6;-15575.42;-0.4848386;0.1847632;0;
-6987.76;-3717.271;-658.5167;-14511.3;-11.83677;-25.43441;-8608.993;-4363.365;-0.1595147;-0.07529183;0;
-6722.79;-3291.826;-2041.472;-13120.04;-13.63354;-25.27488;-7918.405;-3388.078;0.03554759;-0.4650202;0;
4065.686;2362.094;-2166.7;3199.79;4.331099;-22.7042;4737.569;1466.513;0.1004792;-0.3995856;0;
16599.03;12778.53;-1376.701;20953.7;8.077791;-21.81067;18029.41;10896.35;0.03541091;0.05558727;0;
14857.24;11768.71;-651.0252;19912.37;10.74899;-21.31987;16084.9;10222.34;-0.02959201;0.1854661;0;
11714.02;8487.339;675.6499;16712.17;16.70004;-21.4994;12928.58;6939.573;0.03540507;-0.07458963;0;
12962.71;9460.349;2159.631;18294.07;1.210566;-14.71264;14292.46;7654.377;-0.1595325;-0.009547338;0;
3327.414;1958.281;2248.821;6667.696;-2.274251;-12.35351;3741.068;1514.222;0.2304318;-0.1394724;0;
-24197.36;-19556.09;1336.144;-25882.16;9.650753;-20.51284;-25479.01;-14851.04;0.360135;-0.269267;0;
-24496.7;-19725.41;490.7885;-30493.06;8.301885;-22.36769;-26063.74;-15909.36;-0.3548677;0.185775;0;
-7451.248;-3882.153;-680.6785;-14942.5;12.31203;-18.86222;-9108.354;-4440.649;-0.4844458;0.120621;0;
-7019.849;-3482.232;-2023.788;-13417.86;13.57246;-18.77629;-8244.383;-3473.655;-0.1591223;-0.00943491;0;
3910.058;2187.668;-2110.772;2962.759;1.100239;-23.64705;4544.868;1334.873;0.03593962;0.05554191;0;
16474.97;12660.5;-1303.775;20824.79;-2.183397;-23.89122;17898.26;10765.31;-0.02906384;-0.2693506;0;
14724.07;11633.26;-588.5421;19799.51;-1.779061;-27.14926;15951.42;10084.34;-0.3538713;-0.463982;0;
11661.96;8434.813;723.9523;16658.31;-2.64793;-29.66727;12866.98;6886.171;-0.02867906;-0.2036464;0;
12738.62;9236.898;2154.63;18089.82;-10.95066;-16.10727;14066;7428.96;0.3611538;0.316297;0;
3159.953;1834.224;2208.531;6446.882;-14.22219;-12.87597;3573.572;1341.333;0.03595421;0.3159792;0;
-23729.93;-19027.79;1334.125;-25506.01;-5.299293;-15.14039;-25016.63;-14438.33;-0.0940166;-0.009175071;0;
-24044.35;-19301.9;490.3332;-30058.65;-5.62876;-11.37425;-25617.57;-15577.04;0.2309146;-0.009165852;0;
-7424.282;-3922.318;-719.0831;-14951.87;4.759372;-20.87416;-9102.043;-4516.506;0.2306826;-0.1390913;0;
-6934.221;-3412.631;-2064.059;-13353.54;10.1796;-22.92959;-8200.033;-3445.769;0.03554874;-0.4637883;0;
4010.795;2296.227;-2136.26;3116.952;-0.4805516;-13.99807;4625.154;1406.818;-0.02945433;-0.2034529;0;
16556.99;12746.32;-1310.621;20903.88;1.328592;-14.11791;17977.12;10851.52;0.03554261;-0.008346436;0;
14924.23;11829.73;-584.0129;19965.12;-5.907387;-9.013139;16146.27;10275.82;0.1654416;0.3164987;0;
11754.35;8523.223;716.9515;16746.32;-9.451425;-6.525775;12953.86;6962.84;0.100308;0.5110826;0;
12805.6;9309.29;2151.666;18142.3;1.878554;-13.48532;14126.95;7499.945;0.1651746;0.1207651;0;
3449.972;2073.709;2211.879;6740.728;0.804939;-13.87367;3865.076;1557.518;0.6197799;0.05567639;0;
-23738.74;-19071.67;1318.917;-25477.24;7.836728;-14.59648;-25045.06;-14484.86;0.7490919;0.2505225;0;
-24345.32;-19617.14;477.6072;-30350.59;10.3071;-15.25164;-25954.69;-15838.6;0.4235025;-0.07456596;0;
-7503.323;-4039.721;-725.1746;-15060.22;0.5174795;-16.37503;-9215.901;-4580.416;0.2931423;0.05544364;0;
-7153.299;-3514.315;-2078.765;-13595.69;0.5843084;-17.63119;-8461.672;-3486.689;0.1629131;0.3152573;0;
3840.491;2247.713;-2142.706;2923.037;-11.60742;-12.12099;4431.354;1379.792;-0.1620874;-0.00989618;0;
16678.57;12855.11;-1314.093;21007.12;-16.41755;-11.03715;18091.03;10943.33;-0.03198981;-0.07485358;0;
15016.62;11910.58;-591.9476;20055.6;-12.58363;-11.16002;16226.99;10349.68;0.3578464;-0.009811023;0;
11927.34;8705.091;716.2087;16892.66;-16.38841;-9.742169;13113.13;7125.845;0.1625848;-0.1397358;0;
12936.63;9431.021;2158.139;18274.92;0.1724777;-12.07672;14248.47;7633.301;-0.09744793;-0.0746281;0;
3958.649;2486.203;2234.931;7309.431;6.936482;-11.9976;4358.023;1772.604;0.09755201;-0.07455311;0;
-22651.52;-18058.95;1344.694;-24387.89;-11.82473;-11.65063;-24017.77;-13786.06;0.4222907;-0.2044129;0;
-23661.55;-19038.26;475.4977;-29721.58;-12.81723;-11.77289;-25373.52;-15301.06;0.09702966;-0.3341422;0;
-7170.74;-3913.035;-733.4039;-14791.99;-4.365232;-12.16296;-8990.37;-4541.013;-0.03300251;-0.008969717;0;
-6814.96;-3285.042;-2084.581;-13295.12;-4.762988;-13.15548;-8181.786;-3444.046;0.03199799;0.3808434;0;
3861.805;2225.819;-2168.943;2981.375;2.409094;-9.860163;4445.249;1331.704;-0.1629362;0.1205913;0;
16570.64;12732.92;-1348.925;20897.25;3.946914;-9.515341;17964.05;10821.67;-0.03283778;0.05550279;0;
15033.26;11946.32;-628.3372;20038.79;-0.9461954;-11.78314;16217.07;10351.58;-0.09777213;0.1204144;0;
11873.91;8645.7;673.6088;16819.86;-1.61483;-11.90526;13037.11;7054.078;-0.2925759;-0.2695107;0;
12938.7;9438.267;2132.323;18245.67;-8.311989;-14.17066;14227.47;7623.419;-0.3572493;-0.5291092;0;
4290.741;2788.339;2225.664;7776.141;-11.78626;-14.35737;4695.867;1989.93;0.03291374;-0.1387735;0;
-22477.57;-17937.45;1328.221;-24105.87;-12.84615;-16.88824;-23889.19;-13775.32;0.29275;0.446072;0;
-23978.75;-19206.91;463.8519;-30082.79;-14.90934;-17.67506;-25779.64;-15567.49;-0.1623155;0.2507218;0;
-8050.541;-4457.105;-739.2285;-15574.53;-21.45844;-13.63845;-9933.021;-4825.521;0.1626843;-0.2043016;0;
-8092.349;-4272.015;-2104.518;-14750.33;-25.52272;-13.08888;-9640.042;-3848.379;0.4223902;-0.334031;0;
3253.849;1765.323;-2180.02;1908.001;-13.57533;-6.377556;3642.066;1042.718;-0.2277076;-0.3986627;0;
16600.9;12767;-1325.383;20828.35;-10.41288;-2.285311;17975.42;10769.17;-0.09754416;-0.2033601;0;
14942.09;11849.94;-585.2355;19985.03;-18.30665;-10.11983;16131.65;10273.2;0.2273906;-0.3330904;0;
11809.91;8589.449;716.0737;16729.2;-17.14918;-11.18133;12955.87;6983.545;-0.09767463;-0.2028211;0;
12872.35;9370.89;2171.81;18193.05;-19.20805;-0.6540818;14158.43;7541.104;0.09732554;0.2521541;0;
4269.138;2738.834;2282.914;7706.375;-21.8017;2.025832;4651.945;1951.77;0.1621951;0.3168681;0;
-22513.75;-18040.97;1406.091;-24182.33;-5.235373;-5.210177;-23957.65;-13847.74;0.09706477;0.3815171;0;
-24739.3;-19691.48;524.3083;-30825.51;-0.3399929;-5.740806;-26583.88;-15923.44;-0.1629021;0.056297;0;
-9111.065;-5068.609;-684.455;-16553.13;-14.40582;-5.534089;-11019.51;-5069.858;-0.6824772;-0.1386616;0;
-8505.913;-4603.669;-2026.655;-15127.5;-14.59242;-7.337006;-10041.3;-3847.782;-0.6168241;-0.07355492;0;
3115.984;1590.252;-2116.541;1669.919;-16.118;-1.368275;3515.291;893.5463;-0.4862696;-0.4632851;0;
16466.19;12662.51;-1279.428;20636.82;-18.04516;0.3076123;17836.32;10634.81;-0.2259116;-0.0730155;0;
14963.06;11853.95;-546.3536;20018.79;-14.40971;-6.45779;16149.62;10292.97;0.2290868;0.1869272;0;
11754.15;8547.885;729.1483;16659.01;-16.47133;-7.188113;12897.8;6928.076;0.2938239;0.05680472;0;
12917.79;9418.65;2191.618;18227.31;-3.259267;-5.908276;14205.97;7588.576;0.09862665;0.5115191;0;
4298.311;2757.702;2304.889;7750.647;2.236364;-6.505125;4686.051;2054.385;-0.03140713;0.316103;0;
-22933.1;-18430.53;1410.271;-24563.7;-14.51137;-4.22123;-24376.57;-14127.55;0.2934611;-0.138986;0;
-24667.46;-19872.93;575.9916;-30761.97;-14.83158;-4.016039;-26499.17;-16161.51;0.2281989;-0.3337483;0;
-8041.079;-4443.6;-583.692;-15607.22;-14.34817;-1.734645;-9943.426;-4857.038;0.0330676;-0.333413;0;
-7636.808;-3907.012;-1940.798;-14269.88;-15.74027;-0.05839001;-9163.885;-3599.615;0.6177404;0.4465301;0;
3381.331;1834.936;-2054.134;2097.821;-5.140905;-3.876236;3809.963;1070.656;0.6820871;0.7709182;0;
16558.04;12739.45;-1238.416;20793.88;-2.12163;-3.60441;17937.25;10751.75;0.161663;0.1854375;0;
14941.49;11853.12;-521.3129;19988.05;-0.981398;-5.47631;16125.88;10274.21;0.0965332;-0.3344876;0;
11778.03;8570.201;743.3879;16701.04;1.296764;-7.346269;12925.18;6958.889;0.4212729;-0.5940208;0;
12744.31;9247.011;2178.263;18075.06;6.25293;0.9668134;14035.33;7423.925;0.3558823;-0.20362;0;
4163.266;2659.854;2299.825;7518.575;9.327129;2.171474;4547.79;1884.465;0.09565531;0.1214214;0;
-22273.37;-17734.44;1448.472;-24014.95;2.28516;-1.58163;-23709.09;-13562.12;-0.09934282;-0.13857;0;
-24276.7;-19358.55;601.785;-30298.08;0.07206092;-1.647024;-26086.75;-15627.12;-0.1642103;-0.07346345;0;
-8137.876;-4383.896;-587.3785;-15684.83;7.038213;-5.932155;-10015.17;-4909.405;0.09582402;-0.07338963;0;
-7040.575;-3426.61;-1923.772;-13486.06;8.370312;-8.136631;-8463.863;-3458.808;0.6804338;-0.07331589;0;
3885.324;2163.212;-2019.072;3036.821;-3.359746;-5.985002;4430.648;1296.31;0.5498154;-0.008274876;0;
16496.28;12699.1;-1213.666;20849.92;-6.035687;-5.845083;17889.3;10765.17;0.09449158;0.05670078;0;
14963.31;11881.67;-517.9827;19957.85;-1.809088;-12.26939;16146.02;10294.86;-0.1005054;0.3814805;0;
11664.99;8447.292;724.1011;16639.36;-2.611553;-13.52967;12828.55;6849.778;-0.2303391;0.3161299;0;
12580.69;9102.549;2170.396;17905.76;3.48664;-10.63594;13877.19;7298.713;0.02976172;0.05594284;0;
4324.321;2759.305;2324.98;7702.639;6.564596;-11.29502;4737.773;1964.01;0.4195359;0.315756;0;
-22512.01;-18011.17;1475.882;-24166.73;4.950409;-2.509148;-23912.49;-13786.75;0.354147;0.3154387;0;
-24822.28;-19908.42;630.9796;-30837.16;7.423681;0.9094422;-26605.02;-16083.02;0.1588891;0.1851871;0;
-8449.801;-4665.006;-544.5014;-15940.24;4.803277;-2.976421;-10289.98;-5018.41;-0.1011399;0.185001;0;
-7901.504;-3992.889;-1912.454;-14497.16;2.789695;-0.8969591;-9359.508;-3667.31;-0.1010383;-0.2049889;0;
3051.653;1587.992;-2047.651;1727.497;17.58902;-4.84799;3516.476;899.2688;-0.03596942;-0.1398156;0;
16417.85;12597.42;-1244.933;20611.36;21.1223;-5.847802;17808.16;10625.73;-0.2958027;0.2501289;0;
14949.87;11862.27;-528.823;20022;7.034903;0.2533382;16154.31;10290.79;-0.1655707;0.3148449;0;
11794.16;8589.849;749.0975;16723.98;4.281168;1.123862;12961.22;7011.562;0.1594323;-0.07527547;0;
12882;9390.842;2195.93;18214.94;4.209517;1.792562;14188.62;7581.102;0.09430479;-0.4000365;0;
4438.125;2855.312;2302.325;7948.394;1.459597;3.063375;4881.724;2098.096;0.02924269;-0.4646019;0;
-22356.06;-17912.63;1417.924;-23883.81;-2.225565;1.519751;-23702.58;-13652.21;-0.1656887;-0.3991677;0;
-24770.9;-19812.8;561.3975;-30680.61;-5.171066;1.65219;-26506.58;-15981.89;-0.03558755;-0.3337993;0;
-9013.714;-5144.565;-627.4131;-16322.04;-4.026794;2.454264;-10814.82;-5159.465;0.3542522;0.1213075;0;
-8409.519;-4539.088;-1989.723;-14810.27;-4.42489;1.982917;-9842.435;-3760.465;-0.2308098;0.3160876;0;
3108.396;1603.778;-2099.48;1928.362;-9.109492;4.191361;3583.134;957.6622;-0.4904472;-0.1390014;0;
16464.9;12661.17;-1286.09;20719.13;-11.24379;4.722952;17866.79;10656.67;-0.230085;-0.008927039;0;
14886.49;11796.39;-589.8661;19944.57;-1.25216;1.168233;16097.01;10267.57;-0.1648865;0.4458533;0;
11629.56;8424.681;659.5988;16598.39;2.299071;0.7651619;12804.44;6826.417;0.03018119;-0.009366064;0;
12677.72;9199.525;2124.512;18014.05;-5.874913;-1.579949;13989.94;7414.009;-0.1647512;-0.269226;0;
4457.701;2877.86;2271.208;7831.031;-4.729934;-3.520805;4896.369;2113.767;-0.2945203;0.4456853;0;
-22546.55;-18054.18;1395.084;-24139.44;-9.21316;2.711962;-23892.71;-13768.16;-0.034355;0.2503354;0;
-24967.57;-20019.25;553.7924;-30861.09;-13.75825;4.584699;-26694.45;-16095.32;-0.1642552;-0.2696549;0;
-8496.361;-4733.166;-615.6453;-15866.92;6.885826;-1.850087;-10275.68;-5017.189;-0.3589921;-0.2044166;0;
-8050.841;-4131.851;-2002.142;-14596.82;10.5626;-1.982194;-9472.364;-3740.568;-0.2936641;-0.07427649;0;
2905.745;1491.274;-2119.164;1532.836;-4.384839;0.7660373;3363.878;834.6737;-0.09846698;0.1207002;0;
16446.05;12616.89;-1276.364;20633.05;-6.456538;1.234148;17843.27;10650.48;0.09653398;-0.2042578;0;
14999.34;11917.32;-564.2509;20088.43;-9.798953;5.117796;16221.53;10361.87;0.291339;-0.2690199;0;
11678.6;8474.334;699.6498;16628.33;-11.79884;7.390073;12856.04;6902.926;0.3560136;-0.008880245;0;
12583.84;9098.376;2157.995;17938.58;-19.95866;4.971262;13901.01;7305.784;0.4206232;-0.008871322;0;
4370.678;2771.129;2288.51;7821.071;-22.75164;4.832301;4838.08;2042.819;0.5501353;0.05610494;0;
-22699.73;-18289.49;1427.86;-24221.53;-22.05919;8.980266;-24008.88;-13936.83;0.2897131;-0.3337555;0;
-25692.55;-20616.06;587.441;-31518.51;-25.11849;8.569345;-27377.97;-16628.2;-0.03541469;-0.5932895;0;
-9244.316;-5282.418;-589.4642;-16567.82;-6.070585;8.828666;-10987.31;-5300.425;0.02958823;-0.007987282;0;
-8128.771;-4327.963;-1945.94;-14575.34;-0.50478;7.614224;-9550.846;-3619.426;-0.3602456;0.05698808;0;
3055.497;1507.002;-2043.278;1870.482;-4.924902;2.114034;3510.862;898.8945;-0.4248509;-0.4628079;0;
16391.02;12593.27;-1200.367;20638.43;-0.09718259;-0.6343297;17795.32;10603.44;-0.03461997;-0.007571487;0;
14946.72;11852.03;-466.8411;20021.21;-12.22087;-9.475195;16169.69;10318.71;0.2252842;0.6421096;0;
11688.93;8484.795;806.863;16662.63;-14.82056;-14.55626;12869.89;6902.877;0.03015579;0.4465623;0;
12644.87;9169.468;2276.469;18006.04;-7.639351;-14.6756;13965.03;7400.5;-0.4896132;0.05630956;0;
4742.298;3087.651;2433.852;8365.702;-9.574058;-16.87123;5250.117;2292.175;0.0955848;-0.008714362;0;
-22138.93;-17723.16;1569.246;-23460.1;-1.459137;-18.3279;-23393.5;-13460.85;0.4203255;-0.07367295;0;
-25023.41;-20088.78;733.026;-30858.22;1.48909;-18.10853;-26685.89;-16122.9;0.1600337;-0.3334683;0;
-8495.949;-4805.036;-428.3771;-15842.62;-9.094977;-18.55916;-10210.81;-5085.586;0.1598729;-0.07326385;0;
-8001.188;-4136.994;-1792.23;-14595.24;-9.890121;-18.33962;-9445.009;-3693.502;-0.1651244;0.3166138;0;
2736.599;1327.527;-1832.939;1240.314;-11.88992;-9.211697;3126.371;741.5602;-0.5547625;-0.07350837;0;
16449.74;12623.95;-900.3461;20604.66;-15.42794;-6.456202;17852.01;10659.67;-0.2943357;-0.4632385;0;
15091.18;12004.81;-175.8676;20194.64;-6.101691;-2.832758;16330.69;10464.57;-0.2290726;-0.3328384;0;
11651.86;8447.12;1060.125;16621.02;-5.894489;0.9210716;12834.47;6881.273;-0.2938098;0.2522021;0;
12531.74;9051.512;2515.828;17911.66;-7.965647;-6.983657;13863.66;7276.438;-0.03364523;0.6417528;0;
4582.993;2958.647;2653.136;8021.301;-6.014284;-7.512503;5081.338;2148.872;-0.03361142;-0.008565514;0;
-22005.83;-17551.31;1800.772;-23531.06;-19.80697;-6.500211;-23247.63;-13300.71;0.03138969;-0.398361;0;
-24781.59;-19830.78;973.94;-30584.36;-22.86853;-6.426696;-26412.3;-15817.03;-0.03360919;-0.2030587;0;
-8593.159;-4902.686;-181.2085;-15901.62;-16.68263;-10.77407;-10302.29;-5074.213;-0.2284774;-0.2028546;0;
-8109.294;-4185.04;-1534.658;-14478.8;-17.00066;-13.30853;-9448.499;-3676.299;-0.03334584;-0.07271611;0;
2832.014;1470.184;-1669.048;1731.781;-11.02271;-2.176238;3368.354;876.296;-0.2282144;-0.007675704;0;
16443.2;12612.89;-855.248;20692.13;-8.667106;-0.2985898;17862.48;10645.85;-0.3579197;0.05729935;0;
15046.33;11957.02;-133.1887;20105.77;-4.639909;-0.9010751;16275.16;10423.21;0.0972113;0.1222091;0;
11781.54;8577.636;1147.801;16755.88;-1.285368;0.9083084;12976.66;7010.557;0.162081;0.1220863;0;
12656.46;9177.961;2635.525;18015.46;-5.303541;-4.5181;13984.81;7406.014;0.4217875;0.1219637;0;
4714.559;3036.384;2786.674;8270.002;-6.503661;-5.92014;5233.513;2246.427;0.4213637;0.2517758;0;
-21758.86;-17361.03;1916.622;-23164.43;2.678926;-6.048158;-22995.79;-13065.88;-0.09879847;0.3814575;0;
-24580.21;-19687;1071.277;-30412.42;6.092486;-8.051569;-26214.45;-15647.48;-0.2936012;-0.0736972;0;
-8484.742;-4920.455;-109.7377;-15803.6;-10.52443;-8.177444;-10177.84;-5057.419;-0.4232409;-0.1385905;0;
-8193.296;-4322.825;-1498.586;-14755.94;-12.792;-9.240893;-9630.011;-3728.909;-0.1629463;0.5112222;0;
2676.758;1326.572;-1622.36;1214.755;-12.37701;-12.78164;3067.397;770.4222;0.2270215;0.6406432;0;
16514.3;12683.36;-779.7781;20670.6;-15.98189;-14.24236;17913.01;10703.58;0.2917608;0.7049668;0;
15189.35;12098.01;-72.63087;20294.24;-0.3584468;-13.62521;16431.53;10573.6;0.1615329;0.5093564;0;
11803.73;8599.107;1161.697;16762.35;2.588674;-13.87945;12986.85;7023.677;-0.2284334;-0.07586145;0;
12617.61;9144.61;2619.171;18002.19;2.653422;-14.2674;13950.18;7387.292;-0.3581386;-0.1407526;0;
4951.251;3234.591;2780.488;8480.516;6.468173;-14.52099;5472.014;2359.346;0.03202531;-0.2055785;0;
-21356.57;-16937.77;1925.873;-22774.81;-4.120897;-10.95637;-22585.28;-12803.97;0.09696047;-0.4652413;0;
-24324.68;-19484.79;1092.699;-30117.48;-5.992767;-9.136882;-25955.19;-15420.39;-0.2279737;-0.3348391;0;
-7873.263;-4529.08;-66.78534;-15287.05;-3.44115;-11.53903;-9577.563;-4895.598;-0.1627772;-0.07463331;0;
-7437.208;-3618.141;-1460.736;-13887.6;-4.977933;-10.38878;-8785.457;-3514.949;-0.1626137;-0.07455832;0;
2904.68;1585.084;-1628.777;1813.36;-3.030549;-10.78018;3439.23;908.6113;-0.292385;0.05545129;0;
16497.55;12651.72;-825.4185;20737.82;-2.357918;-10.63538;17920.82;10734.67;0.09771286;0.1203629;0;
15283.09;12198.37;-118.9438;20334.3;-6.776178;-5.601098;16513.15;10648.79;0.4224514;0.1852093;0;
11912.1;8706.804;1116.305;16893.23;-7.841097;-4.255872;13109.92;7146.769;0.03222286;0.3149579;0;
12642.22;9175.034;2561.675;18012.03;-1.603927;-2.911998;13967.76;7438.718;0.03219048;0.1197394;0;
5321.255;3497.992;2735.294;9029.076;-0.263145;-1.636396;5893.264;2512.201;0.3569948;-0.465087;0;
-20666.69;-16372.65;1886.439;-21893.74;0.4076807;-2.103633;-21850.29;-12372.84;0.5515382;-0.2047503;0;
-23838.52;-19139.86;1041.936;-29636.65;2.282305;-1.230741;-25478.75;-15117.82;0.2261473;0.3801615;0;
-8082.194;-4891.263;-119.7775;-15307.71;-1.873174;-5.784222;-9752.263;-4978.61;-0.03394934;0.2498448;0;
-8581.256;-4592.121;-1538.944;-15118.01;-2.87567;-7.452983;-10062.97;-3871.162;-0.1638499;-0.01027558;0;
2111.559;1003.089;-1701.94;444.377;-0.2608119;-3.22563;2389.398;579.227;-0.29362;-0.4000693;0;
16648.33;12789.47;-839.0999;20697.58;-1.39865;-3.021441;18033.1;10799.52;0.03151178;-0.4646346;0;
15360.23;12265.45;-144.9491;20486.74;-0.4602152;-3.621251;16624.45;10746.4;0.4862515;-0.07436374;0;
11867.99;8671.288;1052.407;16801.54;-0.6598476;-2.679912;13050.7;7105.079;0.4207956;-0.1392564;0;
12905.81;9431.377;2541.57;18274.89;-4.946092;-5.490381;14246.59;7697.904;0.09553605;-0.009181748;0;
5682.963;3844.422;2742.32;9412.929;-5.275915;-6.489608;6256.144;2840.372;0.03047272;0.1207622;0;
-20449.08;-16156.72;1888.929;-21623.31;-9.290078;1.018818;-21617.06;-12213.18;-0.09949259;0.5104449;0;
-23599.49;-18998.83;1058.729;-29360.79;-9.682884;3.094205;-25198.06;-14965.22;-0.2293273;0.1850953;0;
-7709.579;-4718.515;-110.6851;-14995.73;-10.20902;-0.8607755;-9368.76;-4878.812;-0.03419484;-0.4647641;0;
-8300.641;-4401.478;-1533.827;-14787.54;-11.60528;-0.3241081;-9703.298;-3798.122;-0.09912783;-0.2044278;0;
2166.365;1023.642;-1692.268;667.1985;-0.6752791;-1.797346;2581.516;582.1197;-0.03406088;-0.009320339;0;
16575.88;12702.66;-834.9977;20660.73;0.66457;-3.068155;17988.64;10726.26;0.2258427;-0.07427832;0;
15433.68;12352.98;-119.4867;20539.92;8.970274;0.7528334;16688.15;10837.78;0.0956811;-0.009236339;0;
12132.26;8922.267;1098.865;17068.21;14.98948;0.8190598;13322.91;7355.186;-0.03434972;-0.3340638;0;
12988.36;9526.196;2574.862;18366.51;-4.78518;0.2153905;14327.25;7814.061;0.4204562;-0.3986954;0;
5897.784;4012.141;2780.17;9675.285;-7.459689;1.018969;6491.97;2925.21;0.3550664;-0.2033928;0;
-19916.78;-15663.81;1947.7;-21056.93;-5.041296;-3.603755;-21072.08;-11907.93;0.1598076;-0.1382211;0;
-23467.88;-18802.32;1110.694;-29190.55;-7.915643;-3.935049;-25049.29;-14791.64;0.4195164;0.2517219;0;
-7614.332;-4644.267;-56.83587;-14888.02;-2.08054;-3.328248;-9251.355;-4892.07;0.2241928;0.641273;0;
-7981.368;-4091.688;-1475.409;-14448.54;-2.27952;-3.525853;-9354.456;-3750.944;-0.2957712;0.1858572;0;
2168.554;1088.275;-1653.056;722.5344;1.741258;0.02766343;2631.938;576.1986;-0.4254087;-0.1391662;0;
16582.24;12703.19;-802.4464;20663.35;4.151382;0.02763563;18003.93;10744.99;-0.1651119;-0.2039938;0;
15487.65;12406.42;-79.34689;20581.08;-1.278773;7.529574;16735.23;10881.95;0.3547928;0.1860153;0;
11995.01;8788.302;1147.179;16950.94;-0.8753462;10.26819;13195.79;7231.251;0.4194036;0.4456978;0;
12802.48;9341.907;2629.78;18186.38;-2.884199;4.296571;14143.25;7606.449;-0.0357892;-0.2044235;0;
5629.715;3757.385;2822.915;9310.657;-4.153122;5.095988;6221.831;2790.286;-0.1007206;-0.2691855;0;
-20403.69;-16135.47;1972.91;-21627.78;-2.542335;-1.607242;-21560.44;-12145.67;0.02931531;0.1858564;0;
-23913.97;-19268.54;1150.278;-29635.2;-3.67788;-3.882986;-25506.08;-15121.71;0.2241879;0.05573498;0;
-7192.431;-4463.277;13.41157;-14625.59;-0.9948673;-0.7309477;-8835.258;-4856.561;0.3538973;0.1206463;0;
-7038.512;-3457.515;-1393.77;-13648.38;-0.9938676;-1.534009;-8400.173;-3464.893;0.02870499;0.2504598;0;
2483.527;1302.834;-1586.178;1137.458;-4.743913;2.620353;2952.55;684.2545;-0.3611279;-0.0746286;0;
16492.79;12618.15;-755.0012;20642.17;-6.815251;3.957378;17910;10710.21;-0.2308304;-0.009586268;0;
15470.48;12392.89;-29.41936;20546.62;-6.943101;5.293;16716.08;10847.27;-0.2305984;0.3802274;0;
11914.24;8707.252;1193.058;16878.23;-8.94488;6.62734;13108.68;7154.408;-0.4902361;0.05500865;0;
12603.83;9143.171;2660.871;17982.25;-13.62494;7.692408;13940.09;7407.713;-0.3598088;-0.2698833;0;
5485.725;3620.271;2871.122;9135.436;-15.41991;8.890249;6083.63;2628.715;-0.0995779;0.1201919;0;
-20379.41;-16101.35;2048.18;-21631.58;-20.89678;4.661574;-21529.84;-12147.45;-0.09947784;0.3799405;0;
-23968.15;-19237.19;1221.505;-29698.36;-22.34965;3.652146;-25559.44;-15109.63;-0.2942799;-0.07521266;0;
-7445.02;-4559.965;74.01042;-14835.18;-23.26422;1.036203;-9092.861;-4906.644;-0.03411485;-0.2050718;0;
-7309.416;-3591.587;-1325.892;-13846.17;-23.44191;-2.179958;-8666.231;-3534.635;0.4856582;0.05500365;0;
2298.571;1192.119;-1505.781;957.6105;-17.59121;4.788275;2787.926;593.0931;0.1603335;0.05494839;0;
16427.05;12546.03;-672.4983;20559.25;-15.96594;5.989156;17855.38;10633.34;-0.1646644;-0.1400089;0;
15440.84;12362.26;29.44995;20517.91;-2.955456;-2.992331;16681.61;10821.85;-0.03456422;-0.07490083;0;
11837.21;8634.233;1237.688;16816.83;3.87904;-4.262;13040.56;7089.568;0.03043786;-0.009858225;0;
12582.47;9111.907;2716.763;17955.32;-3.960762;-2.918119;13917.76;7376.953;-0.03456007;0.05511902;0;
5416.029;3600.22;2923.271;9001.603;-2.350168;-2.915187;5981.493;2684.13;0.030442;0.3799004;0;
-20841.34;-16565.03;2095.405;-22096.72;0.3315106;-0.9027702;-22021.16;-12411.46;0.03041141;0.1846166;0;
-24711.76;-19876.21;1266.184;-30382.72;0.8006681;0.6386834;-26330.66;-15611.89;0.03038085;0.05449641;0;
-8115.538;-4916.546;107.4;-15420.48;0.4650709;2.848417;-9759.608;-5118.115;-0.09958436;0.7041151;0;
-7861.366;-3995.988;-1301.906;-14505.5;-0.3396796;4.787999;-9280.194;-3649.083;-0.03451695;0.5734729;0;
1938.47;829.8068;-1486.754;276.3286;0.330247;7.998369;2278.513;363.8029;-0.03448227;0.1181253;0;
16292.7;12427.52;-623.4434;20328;-0.7418118;9.463835;17685.82;10493.77;-0.3592843;-0.01192811;0;
15458.02;12377.3;130.2108;20565.6;-0.5399956;13.40632;16725.09;10841.71;0.09584807;-0.1418508;0;
11892.07;8689.944;1363.554;16846.94;-1.276387;15.26825;13085.73;7149.453;0.6154904;-0.01177359;0;
12576.25;9113.698;2844.563;17965.92;-4.489309;10.69819;13916.34;7382.335;-0.03480137;0.05320558;0;
5526.903;3642.552;3042.448;9149.295;-6.026016;9.682695;6146.46;2690.913;-0.4245704;0.5728909;0;
-20840.43;-16679.38;2191.099;-22070.29;-8.430859;6.792822;-21956.84;-12557.02;0.03062755;0.5073479;0;
-25194.92;-20169.51;1325.8;-30890.96;-10.23105;4.173723;-26803.93;-15922.53;-0.09933791;-0.467672;0;
-8996.276;-5410.577;135.8461;-16251.42;-8.278385;4.303495;-10629.86;-5355.305;-0.1642054;-0.3372674;0;
-8840.951;-4775.801;-1302.318;-15488.03;-6.662477;2.758564;-10260.56;-3893.484;0.09582893;0.2477775;0;
1426.995;405.1776;-1513.746;-453.3008;-15.89918;-0.6602157;1736.191;121.6777;-0.1641367;0.1175939;0;
16274.05;12424.7;-653.9374;20204.97;-18.4288;-2.602057;17663.88;10417.05;-0.4888085;0.05250837;0;
15463.63;12365.1;87.28491;20601.56;-6.353846;-0.3890671;16730.96;10856.76;-0.228448;-0.1424464;0;
11867.27;8671.334;1283.658;16806.71;-5.409456;-0.3216932;13055.76;7113.326;0.03165093;-0.5970747;0;
12571.43;9107.679;2750.224;17960.86;2.165417;-2.464763;13914.4;7365.595;0.03161912;-0.2066707;0;
5376.069;3523.392;2947.673;8986.06;7.856668;-2.730218;5962.458;2615.719;0.161522;0.1183737;0;
-21393.86;-17171.62;2089.266;-22602.14;-8.428201;-1.923679;-22544.96;-13016.4;0.03142506;-0.01167994;0;
-25730.71;-20699.66;1245.152;-31360.53;-10.42946;-2.055712;-27324.12;-16375.44;-0.2284759;0.1182665;0;
-8626.828;-5115.985;94.41658;-15923.2;-7.538597;0.223712;-10261.78;-5284.018;0.03162305;0.1181477;0;
-8029.331;-3991.204;-1325.183;-14655.8;-10.94727;1.764095;-9429.942;-3647.169;0.03159128;0.05306159;0;
1696.259;695.3434;-1534.965;-15.22449;0.3842083;-3.261276;2075.942;229.8928;-0.09837515;-0.01195907;0;
16251.47;12396.25;-693.5007;20242.84;3.129512;-3.525931;17658.27;10449.73;0.2915277;0.1179876;0;
15459.03;12357.23;30.114;20576.15;-6.652896;-1.847875;16714.92;10825.58;0.4211695;0.3127711;0;
11775.12;8581.437;1230.543;16735.23;-6.311419;-2.448865;12967.06;7033.479;0.03094226;0.05258746;0;
12407.52;8939.848;2697.006;17798.18;-13.87354;3.849869;13747.43;7199.684;-0.03405617;-0.1423674;0;
5361.474;3465.206;2908.688;8895.138;-19.62037;5.788445;5948.497;2531.761;0.3557821;-0.272159;0;
-20924.3;-16757.6;2087.833;-22254.4;-2.319307;2.969406;-22078.24;-12638.97;0.0305879;-0.4018202;0;
-25236.97;-20248.39;1263.68;-30935.38;-0.8431081;3.234354;-26841.68;-15927.05;-0.5541489;-0.7262532;0;
-8480.411;-5026.369;120.484;-15784.21;-10.35408;2.762224;-10120.41;-5205.49;-0.1637881;-0.6605561;0;
-7849.906;-3887.357;-1290.584;-14433.5;-11.01326;2.290568;-9229.906;-3609.512;0.2911479;0.05474836;0;
1826.95;747.7519;-1510.364;185.4236;-14.61854;0.9486688;2233.517;271.197;-0.03398134;0.2495954;0;
16205.46;12347.5;-686.1659;20220.46;-12.52775;0.1439204;17614.93;10411.42;-0.0339472;-0.2703941;0;
15486.55;12393.37;37.19158;20592.28;-32.94435;-0.5259925;16742.75;10857.84;0.0960216;-0.4000571;0;
11941.4;8734.785;1248.951;16892.2;-40.81547;-0.7933958;13135.74;7188.815;0.1608925;-0.3996552;0;
12554.61;9106.286;2732.388;17951.03;-8.891074;-1.328462;13896.16;7370.215;0.4855675;-0.1393842;0;
5648.472;3694.18;2958.277;9207.098;-4.662581;-1.193161;6256.112;2751.144;0.4201123;0.2505599;0;
-20556.27;-16393.67;2134.905;-21823.29;1.035531;1.688243;-21692.18;-12289.67;0.1598208;0.05540609;0;
-25005.41;-20132.34;1307.893;-30652.26;9.540956;3.562007;-26594.9;-15785.4;0.02972549;-0.1395516;0;
-7956.924;-4912.675;175.1473;-15334.08;-6.543558;3.223514;-9578.378;-5198.949;-0.03527172;-0.009476697;0;
-7537.261;-3640.61;-1249.063;-14304.62;-6.738053;4.091053;-8944.224;-3562.388;0.2896004;-0.07443452;0;
1533.023;647.4412;-1502.773;-301.9219;-5.793278;10.986;1895.725;129.384;0.3542768;-0.009392383;0;
16112.78;12239.57;-679.4578;20040.28;-8.601472;14.45795;17518.08;10328.42;-0.4256873;0.3154538;0;
15604.74;12505.38;54.35646;20727.85;-0.8223211;8.683015;16866.57;10965.56;-0.4902269;0.1852021;0;
11920.56;8726.962;1249.576;16865.83;-0.1519095;7.870617;13114.33;7177.523;-0.09993028;0.05508133;0;
12461.85;9000.177;2722.267;17864.67;-4.974528;14.56076;13804.74;7282.504;-0.3596992;0.1199933;0;
5680.328;3751.048;2967.282;9367.341;-6.242327;15.14897;6280.314;2706.999;-0.1644358;0.1848401;0;
-20505.22;-16317.32;2160.299;-21636.38;-2.686082;12.11964;-21653.39;-12406.58;0.09559881;0.2496217;0;
-25117.12;-20226.56;1336.666;-30736.01;-2.013797;10.96875;-26727.64;-15872.44;-0.03443193;-0.07546581;0;
-8015.119;-4965.978;221.2264;-15375.27;-7.30306;7.675691;-9664.487;-5167.617;-0.03439733;-0.2053247;0;
-7483.547;-3618.116;-1179.948;-14169.37;-8.300099;4.787713;-8885.304;-3517.157;0.09557191;0.3146204;0;
1626.335;684.0303;-1428.98;-106.3844;-10.03307;4.381065;2016.134;187.2197;0.1604432;0.2493369;0;
16100.91;12223.07;-625.5413;20063.99;-11.899;2.769073;17507.29;10312.8;0.160282;-0.010783;0;
15548.47;12456.96;87.54162;20657.85;-6.528409;-3.261991;16803.95;10907.28;0.09515361;0.1191625;0;
12064.76;8865.435;1294.285;17000.53;-4.64584;-5.067252;13260.63;7321.457;-0.2297787;0.1190428;0;
12805.24;9356.057;2798.134;18177.83;-9.866084;-9.147997;14141.78;7637.219;-0.0346458;0.05395583;0;
6254.054;4205.209;3050.069;10004.74;-9.521379;-12.68884;6887.148;3133.555;0.3551931;0.1838363;0;
-20027.46;-16015.73;2218.515;-21072.04;-7.770499;-3.030792;-21134.38;-12108.11;0.0949668;-0.1411851;0;
-25176.02;-20233.49;1371.398;-30792.81;-8.633347;-2.089985;-26780.23;-15897.67;-0.1000306;-0.4658799;0;
-8723.09;-5461.655;235.2462;-15908.85;-0.1182058;-4.700159;-10346.18;-5393.155;-0.0349628;0.1842616;0;
-8649.342;-4561.43;-1206.422;-15356.26;1.556852;-4.360521;-10152.92;-3888.084;0.03003968;0.2490438;0;
849.9227;56.97523;-1486.318;-1345.007;-1.928313;-8.308011;1038.941;-251.0499;-0.09992519;-0.3359126;0;
15985.38;12117.92;-673.6076;19741.68;-1.323163;-9.103458;17352.28;10137.28;-0.3596942;0.05422901;0;
15566.23;12463.08;44.80219;20734.49;-6.546746;-15.7255;16846.47;10944.52;-0.229398;0.2490766;0;
12135.41;8942.053;1230.942;17027.9;-6.204399;-19.32665;13314.5;7384.999;-0.1642002;0.1838589;0;
12788.88;9334.835;2713.241;18175.01;-13.09802;-14.28364;14134.24;7616.958;-0.09906787;0.1836742;0;
6098.529;4078.28;2962.981;9922.288;-14.2903;-14.40325;6730.717;3014.989;0.2258684;-0.07637973;0;
-20010.23;-15937.7;2148.849;-21003.64;-8.98466;-16.46519;-21116.22;-12078.33;-0.1641626;-0.01133564;0;
-25078.1;-20108.56;1306.894;-30660.98;-9.846289;-15.71189;-26653.65;-15789.82;-0.423867;0.1186104;0;
-8367.112;-5181.194;172.7437;-15646.6;9.18627;-18.97815;-9989.512;-5310.998;0.03133025;0.3133933;0;
-7860.424;-3886.386;-1247.404;-14440.83;14.4693;-20.9685;-9250.325;-3595.224;0.3561355;0.4430131;0;
1365.716;509.3117;-1521.855;-344.8555;13.18196;-10.23047;1772.715;80.77706;0.3557776;0.4425679;0;
16022.6;12148.96;-718.4481;19974.31;16.91976;-8.277686;17440.68;10202.84;0.09555078;0.2472212;0;
15567.44;12472.01;12.25065;20667.57;4.444181;-12.02035;16822.46;10940.23;-0.03447991;0.1820055;0;
12023.96;8824.243;1207.856;16969.62;1.760399;-10.1998;13219.25;7271.529;0.2903914;0.1168552;0;
12473.91;9029.238;2687.148;17879.02;-3.868425;-21.10746;13813.55;7302.734;0.4850017;-0.2730663;0;
5879.516;3854.965;2934.854;9537.741;-8.954753;-24.10042;6501.653;2836.31;0.2896123;-0.1428572;0;
-20320.16;-16226.22;2117.72;-21462.42;-5.730574;-18.44976;-21438.11;-12277.73;-0.1004827;0.2470904;0;
-25418.94;-20524.22;1301.564;-31018.26;-7.332406;-18.83312;-26990.95;-16072.94;-0.1653491;0.1818748;0;
-7804.503;-4947.619;201.8395;-15193.89;-7.057595;-14.72836;-9418.397;-5214.587;0.2246211;0.05175736;0;
-6964.408;-3221.356;-1227.989;-13730.09;-6.782084;-12.23525;-8376.688;-3403.333;0.159428;-0.403066;0;
1447.865;581.9238;-1526.604;-392.1123;0.190956;-13.56256;1823.809;-12.53821;-0.2305362;-0.207759;0;
15921.56;12038.69;-713.8215;19820.23;5.214606;-12.67821;17330.49;10156.32;-0.03540253;0.1172865;0;
15638.1;12546.6;34.14518;20740.36;-2.226349;-7.172995;16895.99;10985.86;0.2894697;-0.1427008;0;
12040.89;8844.892;1236.319;16965.25;-1.82197;-5.893112;13232.08;7301.231;0.1592442;0.2472467;0;
12564.77;9117.659;2728.982;17958.16;5.347156;-3.81078;13902.19;7392.548;0.02914952;0.3119656;0;
5940.954;3910.767;2972.429;9547.604;4.403778;-1.127695;6563.345;2873.06;-0.03584712;-0.01318459;0;
-20150.36;-16081.33;2145.575;-21369.98;15.98728;-12.11152;-21275.46;-12148.92;-0.1007784;0.1167634;0;
-25220.69;-20239.83;1323.956;-30801.78;19.85598;-14.24274;-26803.22;-15866.7;-0.2955792;-0.078256;0;
-8044.44;-5016.085;197.9722;-15411.92;2.554677;-8.601986;-9664.231;-5269.508;0.02955451;-0.2730794;0;
-7360.243;-3491.981;-1233.976;-14086.88;-0.5283733;-7.923514;-8766.421;-3501.802;0.4193289;-0.07790298;0;
1345.811;553.9492;-1507.285;-367.9841;-3.073438;-6.441988;1740.908;26.41314;0.09407081;-0.01285736;0;
15891.74;12010.87;-700.0508;19841.99;-5.950738;-4.560055;17307.71;10110.41;0.02900895;0.3119923;0;
15584.26;12489.22;35.06468;20675.64;-9.293661;-0.4695748;16837.86;10936.72;0.2888492;0.1817441;0;
12162.94;8971.734;1262.475;17097.25;-12.43215;1.67429;13358.54;7421.604;0.1586242;-0.3381773;0;
12771.56;9314.776;2778.475;18156.23;-3.04254;9.241435;14107.89;7604.911;-0.1663719;-0.2728701;0;
6187.393;4183.101;3024.152;9930.286;-1.431893;13.51906;6828.255;3103.965;-0.231172;-0.2725959;0;
-20197.74;-16169.09;2188.719;-21228.25;0.5792782;9.218565;-21295.77;-12269.37;0.02892963;-0.467224;0;
-25960.02;-20824.75;1327.733;-31530.17;2.654801;10.54896;-27557.54;-16385.7;0.0938679;-0.2718526;0;
-9219.884;-5719.67;169.0743;-16489.49;2.919577;7.993132;-10846.08;-5619.463;-0.2310631;-0.01171004;0;
-8564.241;-4387.652;-1267.53;-15313.06;4.055719;6.109578;-10009.97;-3768.213;-0.2957983;0.3131385;0;
701.0552;-0.1501195;-1525.22;-1381.486;-1.508061;10.99307;997.5416;-271.8232;-0.2305337;0.1828891;0;
15845.36;11986.84;-676.3943;19661.62;-3.38158;10.17823;17237.52;10012.7;-0.1653347;-0.1421314;0;
15539.07;12425.96;77.84403;20682.22;-7.597741;9.364208;16808.06;10900.46;0.1596681;0.2478155;0;
11980.75;8796.104;1282.91;16899.27;-11.07371;8.283194;13171.16;7244.101;0.09454031;0.1825992;0;
12473.42;9013.777;2783.428;17878.13;-6.909394;6.868229;13812.19;7288.874;-0.2953587;-0.2073884;0;
5844.005;3850.889;3044.905;9430.714;-5.764352;7.196243;6462.923;2824.416;0.02977475;-0.0772453;0;
-20622.64;-16568.5;2230.753;-21833.64;-11.98785;-0.5808253;-21733;-12599.41;0.3545815;-0.142135;0;
-26494.48;-21329.14;1396.274;-32079.89;-11.0378;-1.116105;-28083.16;-16781.59;-0.03557879;-0.01205753;0;
-9206.563;-5696.459;289.4579;-16532.7;-10.4235;-3.191394;-10829.75;-5678.035;-0.1654777;0.247824;0;
-7968.335;-3867.667;-1114.003;-14737.66;-11.41838;-4.996726;-9372.209;-3563.624;0.02959057;0.1176403;0;
905.1836;130.6017;-1407.516;-1112.862;7.884181;9.610208;1256.167;-257.8748;0.02956084;0.2474567;0;
15646.13;11785.42;-620.0286;19469.72;13.43596;12.61478;17045.2;9853.427;0.09449848;0.05230606;0;
15424.9;12311.25;109.3844;20563.58;9.737792;19.76904;16687.15;10767.06;0.02943618;-0.3375506;0;
11882.24;8689.209;1314.7;16802.43;13.14426;25.64355;13075.49;7148.229;0.09437395;0.05259268;0;
12508.29;9049.262;2824.276;17897.3;3.016995;15.36964;13848.17;7321.627;0.09427912;0.3124092;0;
5750.379;3763.681;3079.62;9401.545;-0.0001467028;15.62213;6388.487;2774.146;-0.0357503;0.1821606;0;
-21001.05;-16903.61;2254.439;-22116.55;1.540095;12.32439;-22073.61;-12853.12;0.2891223;0.2469449;0;
-26331.23;-21252.58;1445.454;-31898.57;-1.274492;9.096824;-27877.47;-16782.66;0.6786359;-0.01317259;0;
-8831.816;-5546.564;346.3663;-16133.68;-1.942796;14.31223;-10422.66;-5570.468;0.483052;-0.07812669;0;
-8210.391;-4141.913;-1084.2;-14952.58;-4.016949;13.09228;-9622.209;-3678.475;0.1577299;-0.07804819;0;
651.3774;-44.66806;-1384.959;-1408.81;-2.807464;11.73946;984.9141;-360.5383;0.0276367;-0.4028065;0;
15650.32;11781.1;-580.3776;19446.42;-2.670921;10.65594;17059.64;9823.736;-0.1672931;-0.272467;0;
15445.97;12328.67;159.8338;20583.66;-6.084489;9.305575;16718.52;10800.23;-0.1021577;-0.01232391;0;
11929.28;8738.475;1351.137;16847.05;-6.680612;8.358586;13129.07;7190.67;-0.102055;-0.2072136;0;
12465;8999.495;2853.18;17863.91;-4.866214;3.996358;13815.69;7284.519;-0.1669198;-0.4668747;0;
5920.648;3921.282;3124.394;9526.175;-4.258112;1.848949;6552.627;2886.375;-0.0368174;-0.2065362;0;
-20723.04;-16672.5;2302.604;-21866.5;-4.120111;1.110279;-21791.68;-12706.44;0.09315427;-0.01142667;0;
-26511.76;-21460.2;1479.702;-32035.89;-2.775825;-0.2974779;-28027.52;-16886.36;-0.1668087;-0.1413499;0;
-8825.172;-5527.403;379.5802;-16124.71;-3.643692;-2.440572;-10381.4;-5602.463;0.02826094;0.1186615;0;
-7710.376;-3652.274;-1049.396;-14403.76;-3.037794;-4.112632;-9044.663;-3523.891;0.4180366;-0.01139239;0;
847.277;120.3923;-1360.84;-1087.11;0.984722;-1.36226;1262.608;-308.527;-0.03715484;-0.3362176;0;
15554.86;11674.12;-570.5883;19399.56;2.189181;-1.226925;16976.56;9763.768;-0.2320195;-0.2709125;0;
15409.01;12295.82;147.9055;20538.39;5.268441;-1.560607;16681.19;10754.19;-0.03688437;-0.3356076;0;
11930.13;8730.736;1322.479;16859.03;7.004459;-0.3534075;13142.83;7191.964;0.1580547;-0.5951397;0;
12454.39;8991.11;2818.866;17853.33;4.853967;-3.836043;13800.77;7277.363;0.3527979;-0.4646071;0;
5911.066;3882.451;3103.858;9553.15;4.781741;-3.698222;6554.865;2861.142;0.2225087;-0.3991729;0;
-20959.74;-16986.24;2302.296;-22030.53;5.179078;-1.082233;-22017.46;-12962.25;0.09235049;-0.5287065;0;
-27175.66;-21993.99;1478.302;-32660.54;5.173874;0.3254349;-28694.61;-17401.75;0.02729035;-0.2683059;0;
-9396.479;-5809.721;390.894;-16595.03;3.493736;2.133586;-10928.44;-5826.03;-0.03770441;0.05680044;0;
-8223.45;-3959.466;-1034.001;-15077.75;3.959716;3.538084;-9670.133;-3619.095;0.02730082;-0.008223979;0;
254.9458;-342.3978;-1373.229;-2217.808;-0.9343832;9.495827;460.934;-647.9969;-0.2975633;-0.1381504;0;
15383.69;11531.71;-584.5261;18979.38;-3.545413;12.03164;16763.59;9601.534;-0.232297;-0.07304424;0;
15460.47;12322.25;137.7609;20638.57;9.050453;12.08653;16753.57;10776.79;0.2227078;-0.2029055;0;
11969.48;8776.819;1307.253;16847.76;11.58695;13.07913;13162.95;7237.923;-0.03738533;-0.2027016;0;
12803.09;9345.491;2838.513;18164.41;7.489475;12.32917;14152.71;7637.758;-0.2972171;-0.00759595;0;
6661.229;4534.718;3138.197;10497.96;8.084186;11.98187;7352.397;3453.73;0.2228203;0.05737902;0;
-20324.87;-16445.72;2295.059;-21164.78;7.607548;8.821635;-21324.8;-12522.57;0.5474331;0.1222887;0;
-26943.03;-21795.4;1447.647;-32435.3;7.868324;7.205303;-28467.3;-17241.89;0.4819157;-0.2026709;0;
-9626.948;-6142.92;337.3432;-16835.02;1.6975;5.121592;-11180.42;-5919.921;0.5463988;-0.2024672;0;
-8978.206;-4681.589;-1124.261;-15770.74;-0.5813811;3.776848;-10434.46;-3854.757;0.2859804;0.1225729;0;
-176.214;-658.0767;-1455.433;-2663.708;1.630006;3.170207;-0.9489525;-778.3192;-0.4939151;-0.1374196;0;
15492.71;11632.64;-644.4091;19078.29;0.2882213;2.564175;16854.1;9639.32;-0.2985168;0.1875552;0;
15459.65;12316.74;68.00563;20655.68;2.364037;4.169188;16758.06;10796.19;0.7412606;0.3822688;0;
11986.08;8794.804;1219.452;16856.49;2.094218;4.031034;13175.87;7247.057;0.7405158;-0.07288675;0;
12800.85;9339.235;2743.242;18178.54;4.704082;9.720349;14151.75;7626.394;0.4149351;-0.1377809;0;
6511.707;4394.238;3059.606;10347.06;6.910158;11.988;7186.738;3317.314;0.2196161;0.05725962;0;
-20188.57;-16274.62;2261.306;-21059.9;-1.335808;6.617444;-21225.72;-12417.86;0.0244934;0.2521041;0;
-26602.04;-21477.14;1443.788;-32025.79;-2.137773;5.873982;-28129.12;-16882.34;-0.1704332;0.2518508;0;
-8900.741;-5612.244;350.1986;-16169.3;-0.5953839;7.877568;-10475.46;-5675.685;-0.3001967;-0.1382063;0;
-7650.437;-3559.837;-1078.029;-14375.56;-1.800234;8.204567;-9011.431;-3481.488;-0.1699603;-0.3979368;0;
610.4144;19.48968;-1411.778;-1381.746;4.497238;4.847177;1017.884;-387.3405;0.02511246;-0.3325696;0;
