Fp1;Fp2;O1;O2;POLY3;POLY4;A1;A2;Video;Audio;event;
26587.18;22057.49;-7070.593;31568.81;-0.8936348;-0.9195445;27501.88;18088.44;-0.439569;0.1052471;0;13:31:05 Рука;
1841.265;2721.522;-7140.512;2814.719;2.256071;-2.994969;1139.187;2613.801;0.01564404;0.1051413;0;
-34539.41;-30538.51;-7890.832;-34700.82;7.812533;-0.7146624;-35413.26;-26536.63;-0.04933902;-0.219801;0;
-28663;-25116.18;-8654.233;-31723.77;12.56108;-1.115842;-29168.11;-21155.22;-0.3741262;-0.02467814;0;
-15139.73;-11524.04;-9921.365;-19173.17;11.81153;-1.583601;-15624.92;-7692.748;-0.1788482;0.1052813;0;
-14648.49;-10963.08;-11089.12;-19153.05;15.14856;-1.180112;-15287.71;-7365.585;-0.3086032;0.559947;0;
11552.58;11444.36;-10860.24;8657.369;3.344343;-2.786395;11592.05;10833.55;-0.5681624;0.884221;0;
32685.64;27507.72;-9983.95;38104.05;-1.68286;-3.051527;34158.75;23257.21;0.3419512;0.03875711;0;
29032.73;23467.3;-9188.063;34579.42;6.892647;-1.909873;30383.05;19442.1;0.9263137;-0.2861185;0;
26113.71;20587.41;-7718.065;30107.17;3.804262;-2.376834;27317.74;16528.1;0.3406768;0.03900566;0;
25658.12;21443.86;-6375.388;30030.88;4.604722;0.50582;26451.47;17634.7;-0.1144368;-0.09096822;0;
-789.3768;508.6685;-6462.872;172.6072;5.872894;1.443073;-1535.253;898.9102;0.01561282;-0.02590947;0;
-38675.98;-34679.61;-7263.503;-38733.61;-13.82526;-0.835797;-39548.02;-30541.69;-0.3092396;0.2989533;0;
-33206.41;-29667.45;-8023.07;-36174.61;-18.29935;0.5047015;-33711.12;-25763.29;-0.5038309;0.2336856;0;
-19868.34;-16284.62;-9243.797;-23870.43;-14.46354;-6.327882;-20358.76;-12450.46;0.08138145;0.0385487;0;
-19348.63;-15567.58;-10386.74;-23803.41;-16.92725;-8.197045;-19962.46;-11836.32;0.2112344;0.1684447;0;
8816.168;9072.422;-10123.84;5619.272;-3.312587;-0.01707435;8884.424;8806.552;-0.2437493;0.1033081;0;
32019.83;26984.91;-9243.01;37137.53;1.446163;0.8537209;33468.15;22815.16;-0.178537;-0.2865998;0;
27951.09;22683.18;-8478.57;32602.16;-2.975919;5.742495;28870.22;18643.01;-0.04842294;-0.1563771;0;
24845.62;19759.5;-7023.997;26492.19;-1.56641;8.817818;25576.2;15659.42;-0.3082437;-0.02628532;0;
23500.38;20011.12;-5698.196;26106.97;7.477494;5.526916;24214.3;16463.19;-0.3729013;-0.2861283;0;
-4972.343;-2868.954;-5797.48;-4219.794;11.4221;6.325158;-5706.147;-1855.117;-0.1776246;-0.2858408;0;
-42661.09;-38651.88;-6597.718;-42629.29;6.051984;7.18958;-43506.82;-34387.37;-0.1774461;-0.4154882;0;
-36915.57;-33436.38;-7370.416;-39928.48;9.328433;7.584254;-37410.47;-29544.62;0.08260159;0.104668;0;
-23786.17;-20224.14;-8604.698;-27774.62;-5.617768;5.701111;-24280.18;-16364.3;0.1474859;0.4943669;0;
-23319.52;-19504.42;-9766.151;-27727.91;-11.90876;4.824605;-23928.25;-15549.51;-0.177499;-0.09083597;0;
5601.664;6177.747;-9533.856;1583.012;12.01599;6.628296;5630.218;6584.969;-0.43719;0.1691247;0;
30725.54;25842.26;-8658.618;34820.65;13.34308;6.48767;32100;21927.06;-0.111914;0.3638568;0;
26401.64;21925.58;-7884.334;30491.65;18.2198;5.476407;27132.37;17802.09;0.1480678;0.1036218;0;
23157.14;19092.66;-6429.827;23035.23;23.55915;4.600126;23686.04;14971.71;-0.3068523;0.03855033;0;
21867.58;18872.46;-5102.967;22780.82;5.785609;7.140855;22448.26;15711.75;-0.3715113;-0.09142309;0;
-8368.468;-5893.303;-5179.268;-7695.228;4.708069;7.535578;-9174.13;-4228.642;-0.3061707;-0.1562986;0;
-46303.57;-42304.87;-5938.647;-46139.86;-2.865123;4.178859;-47130.88;-37980.71;-0.1759284;-0.3510436;0;
-40048.41;-36602.59;-6696.609;-43098.78;-8.421949;4.308626;-40541.91;-32776.2;0.08411776;-0.2207561;0;
-26736.7;-23168.74;-7933.974;-30735.17;4.447236;1.893033;-27239.22;-19284.38;-0.3057708;-0.09059963;0;
-26293.87;-22450;-9082.451;-30641.52;4.107975;2.025097;-26866.41;-18467.71;-0.1105615;-0.4153453;0;
3281.696;4069.551;-8839.537;-1202.122;9.327784;2.558926;3308.131;4745.605;0.2143863;-0.2849933;0;
30008.37;25241.15;-7958.468;33428.84;11.73028;3.092096;31367.9;21450.41;-0.2406006;-0.02483755;0;
25221.2;21457.1;-7188.636;29033.5;8.637039;8.045604;25825.58;17296.9;-0.3702935;0.1051221;0;
21595.95;18406.96;-5760.751;19855.4;10.3033;8.707349;21725.82;14276.62;-0.2399867;0.2349512;0;
20512.86;17830.19;-4438.656;19686.96;-1.563398;16.4685;20811.39;14905.09;-0.3696803;0.2996824;0;
-11022.8;-8351.75;-4520.247;-10361.62;-6.116179;18.19338;-11815.17;-6371.102;-0.3043415;0.4942833;0;
-49654.13;-45661.27;-5329.358;-49279.72;-0.1491622;19.11287;-50463.64;-41346.16;0.02080104;0.4288193;0;
-43463.65;-40033.37;-6108.328;-46484.57;-1.621905;21.97393;-43964.44;-36211.1;0.1507148;0.1035517;0;
-29884.86;-26319.6;-7318.047;-33825.26;-3.898427;2.058404;-30395.39;-22456.8;0.0206287;0.2333824;0;
-29246.25;-25387.23;-8440.189;-33545.43;-3.62609;-3.704075;-29807.84;-21338.43;0.1505426;0.3630826;0;
977.2608;1891.503;-8185.52;-4189.166;-7.306142;0.1175525;949.4045;2870.576;0.3452934;-0.09205368;0;
28975.02;24343.13;-7324.661;31281.25;-7.499871;-4.504266;30315;20692.23;0.1500444;0.1679082;0;
23593.55;20683.29;-6575.986;27078.38;-1.061974;2.801156;24054;16603.06;0.214861;0.2327068;0;
19631.88;17621.1;-5148.468;16728.31;1.818505;3.46817;18970.06;13649.92;0.1496778;-0.3522331;0;
18099.18;16065.39;-3839.294;15804.2;2.955754;-0.4871856;17769.52;13738.68;-0.1753093;0.03792488;0;
-14882.12;-11929.16;-3896.468;-14279.27;5.297308;0.6520138;-15621.38;-9286.617;-0.1101658;0.1028541;0;
-53028.52;-49080.04;-4646.174;-52565.92;11.52128;-2.563822;-53806.27;-44794.54;0.01987954;-0.2220859;0;
-46231.02;-42830.45;-5394.377;-49352.3;14.52381;-1.891417;-46760.1;-39040.78;0.2147616;-0.0919281;0;
-32616.9;-29046.28;-6580.264;-36525.84;15.04508;-2.760172;-33124.34;-25162.01;0.3444805;-0.02686839;0;
-32408.9;-28603.41;-7705.677;-36617.74;16.905;-3.427228;-33000.57;-24539.38;0.279167;-0.09180874;0;
-1991.452;-821.9125;-7474.984;-7787.845;11.59672;5.21677;-2147.68;317.2625;0.3438538;-0.09171648;0;
27956.36;23494.24;-6603.782;28966.9;8.905755;7.08705;29122.23;19889.42;0.3435083;-0.1565917;0;
21840.61;19507.04;-5859.267;24969.97;16.46624;8.2855;22271.32;16045.87;0.6030325;-0.02649964;0;
16435.37;16121.56;-4458.55;13213.72;17.78887;9.54985;15442.24;12930.52;0.7973287;0.03849433;0;
15856.74;14995.21;-3130.797;12753.9;7.656938;11.01388;15015.32;12988.87;0.4716908;-0.4163157;0;
-17220.51;-14247.52;-3162.853;-16737.91;7.113381;13.74899;-18052.25;-11346.31;-0.243424;-0.6107994;0;
-56110.04;-52214.25;-3911.297;-55498.38;3.221467;0.204989;-56837.79;-47927.82;-0.6329834;-0.2203817;0;
-49453.85;-46041.35;-4644.434;-52516.02;0.003049369;-3.144242;-50001.31;-42260.53;0.01732604;0.03970914;0;
-35975.08;-32416.55;-5839.133;-39840.96;14.33666;4.695677;-36466.72;-28544.49;0.2122107;-0.3501348;0;
-36088.97;-32278.46;-6995.869;-40150.44;16.53306;4.021129;-36640.07;-28176.68;-0.3727086;-0.349783;0;
-4965.863;-3504.985;-6767.731;-11251.68;19.32948;7.901977;-5270.859;-2142.673;-0.5672362;0.1703072;0;
26693.15;22535.56;-5883.716;26062.69;23.19483;8.697832;27585.5;19061.09;-0.2418295;0.1051687;0;
20030.17;18040.37;-5116.562;22244.02;10.98136;12.30617;20439.94;15403.31;-0.1116518;-0.4146757;0;
13347.27;14575.03;-3700.442;10118.11;7.621425;15.17395;12218.56;12438.3;-0.3064417;-0.5441937;0;
12153.92;12827.06;-2394.785;8992.972;13.37357;6.78608;11044.88;11240.77;-0.2411664;-0.2837775;0;
-21546.63;-18399.91;-2445.321;-20919.91;12.22203;6.042449;-22349.99;-15285.55;0.14888;-0.08859035;0;
-59729.65;-55941.1;-3199.14;-59096.02;6.851114;5.299566;-60403;-51688.87;0.1487304;-0.218436;0;
-52822.26;-49368.11;-3940.52;-55878.52;5.906225;3.351736;-53390.5;-45612.3;-0.04632111;-0.08828185;0;
-39344;-35807.01;-5116.623;-43204.15;-2.204035;8.974812;-39821.31;-31932.56;-0.04627456;0.3665783;0;
-39222.47;-35437.26;-6249.598;-43233.55;-6.556077;10.23847;-39758.91;-31328.98;-0.3710648;0.3662099;0;
-7950.809;-6015.457;-6003.969;-14396.94;4.033082;7.548865;-8351.81;-4516.699;-0.3057246;0.1059726;0;
25301.1;21685.79;-5103.917;23230.95;4.096379;8.144126;25998.98;18318.1;0.2792887;0.4307028;0;
18489.05;16759.9;-4349.853;19535.31;7.307444;10.2794;18825.15;14803.59;0.4089427;0.3003353;0;
10281.93;12881.38;-2945.405;7237.993;10.58263;11.34079;9152.554;11578.44;0.08369512;-0.02480314;0;
9574.875;11643.94;-1634.634;6588.121;-0.6811355;12.46811;8489.748;10351.23;-0.2412257;0.1051565;0;
-23909.2;-20708.7;-1694.023;-23237.76;-1.283664;13.32624;-24676.41;-17458.64;0.08385341;-0.02488388;0;
-62527.99;-58842.06;-2454.75;-61837.2;-5.434584;13.31285;-63205.54;-54602.07;0.7334425;-0.02485888;0;
-55515.37;-52035.17;-3193.786;-58515.56;-10.25189;12.89757;-56069.94;-48292.88;0.4078689;0.04013344;0;
-42438.96;-38952.66;-4387.663;-46237.11;9.182238;14.62617;-42912.86;-35082.39;0.1475897;-0.08984157;0;
-43569.7;-39826.52;-5537.955;-47390.66;14.73272;14.47751;-44086.32;-35712.07;0.2124087;-0.2846533;0;
-11919.84;-9522.048;-5271.865;-18454.11;-2.964605;12.31963;-12396.89;-7820.6;0.08226063;-0.08946528;0;
23534.11;20650.55;-4340.72;19770.79;-4.301773;11.97233;24000.29;17477.61;0.4070147;0.4953307;0;
16930.69;15352.37;-3560.124;16406.58;2.736124;6.53481;17176.09;13864.42;0.01680166;0.299931;0;
8103.339;11197.23;-2122.268;5203.417;3.068167;4.518755;7042.92;10610.27;-0.3080519;0.1047276;0;
7381.852;10213.61;-799.2054;4699.861;3.93574;4.112317;6368.897;9310.148;-0.04787303;0.2995244;0;
-26575.92;-23309.56;-860.3087;-25842.75;3.061129;1.094075;-27289.65;-19963.89;0.1470771;0.03935403;0;
-64782.83;-61177.2;-1602.009;-64034.97;4.866714;9.532581;-65442.52;-56963.59;0.276864;-0.3504896;0;
-57561.93;-54063.21;-2326.565;-60513.93;1.914088;10.79568;-58100.45;-50344.61;0.01671644;-0.09026802;0;
-44255.71;-40798.8;-3507.789;-48012.79;-3.647541;5.761233;-44716.34;-36922.87;0.08166698;-0.09017732;0;
-44178.82;-40474.95;-4620.172;-48026.7;-12.21671;6.894154;-44675.43;-36401.96;0.4064216;-0.4149234;0;
-12595.27;-9944.1;-4337.544;-19146.93;-6.243569;-1.552501;-13068.47;-8142.87;-0.1786928;-0.3495392;0;
22807.58;20368.96;-3411.087;18514.3;-5.835154;-3.493324;23215.73;17212.38;0.01638876;-0.4141553;0;
16230.21;14719.15;-2631.175;15216.19;-51.30936;1.332836;16452.94;13434.42;0.4061763;-0.2188371;0;
6170.838;9496.335;-1204.746;3492.088;-62.64466;1.934343;5143.416;9960.875;-0.4388072;0.3660889;0;
5755.796;9055.447;127.9822;3241.719;-63.25227;5.281424;4765.232;8970.594;-0.1135296;0.3007537;0;
-27229.39;-23917.86;73.38102;-26515.97;-71.89626;7.151639;-27930.26;-20589.99;0.4712905;-0.2842546;0;
-65711.48;-62178.27;-691.0897;-64926.68;-42.41887;12.16805;-66363.88;-57999.41;-0.04892175;-0.1540343;0;
-58075.81;-54568.84;-1419.716;-61065.35;-34.00351;14.70105;-58605.66;-50842.3;0.2109968;0.04102249;0;
-44102.02;-40683.66;-2603.382;-47913.74;-30.35201;16.36086;-44549.7;-36847.59;0.4706541;-0.08895341;0;
-44330.66;-40631.88;-3742.161;-48155.48;-20.14109;17.95189;-44821.21;-36545.77;-0.04955751;-0.02389669;0;
-12879.84;-10225.27;-3483.903;-19450.77;-16.97204;12.64232;-13373.18;-8450.922;-0.2444097;-0.02387268;0;
22778.36;20371.39;-2572.422;18401.48;-11.12784;10.08438;23145.48;17228.04;-0.1791968;-0.08881603;0;
16636.45;15188.05;-1794.071;15597.53;-6.227514;10.07425;16829.39;13810.96;-0.04908207;0.04120789;0;
7334.855;10547.74;-365.2664;4594.129;-3.207147;7.384811;6288.178;10524.64;-0.2439348;0.3660032;0;
6657.806;9741.164;940.1633;4106.303;-8.093068;2.688708;5648.678;9209.069;-0.3736244;0.4306028;0;
-26886.04;-23627.29;863.6629;-26109.48;-9.022942;0.1407767;-27601.43;-20354.89;0.1464898;0.2352681;0;
-64741.05;-61203.06;113.4842;-63935.69;-17.05183;-4.682014;-65398.12;-57020.51;0.406212;0.1700643;0;
-56863.7;-53392.58;-607.455;-59844.09;-22.59342;-6.75378;-57395.25;-49698.64;0.3408365;-0.02500857;0;
-43267.76;-39859.02;-1791.218;-47027.95;-16.14133;-7.885643;-43717.01;-36025.09;0.2105593;-0.02498344;0;
-43559.2;-39889.11;-2929.533;-47382.67;-17.86643;-9.150395;-44055.81;-35823.04;-0.114489;0.234911;0;
-12257.78;-9663.527;-2684.273;-18779.57;-21.06366;-1.773261;-12753.43;-7930.923;0.3403974;-0.09016172;0;
23214.38;20710.42;-1780.685;19101.85;-22.31431;0.6399062;23620.41;17524.11;0.5999247;0.03986356;0;
17084.58;15521.8;-999.3816;16259.18;-21.55593;1.376075;17320.98;14091.41;-0.1802861;0.2996929;0;
7520.619;10731.39;428.8115;4838.016;-19.99306;3.384059;6482.284;10712.57;-0.1151376;-0.09041231;0;
6775.198;9926.971;1728.571;4260.349;-27.07291;4.318419;5771.718;9514.291;0.4696842;-0.09032147;0;
-26245.16;-22997.08;1636.348;-25516.83;-27.5152;5.184858;-26950.57;-19677.09;0.2093428;0.03970398;0;
-64333.25;-60831.64;855.9391;-63531.39;-24.13865;5.246632;-64982.68;-56675.35;0.01423046;-0.0902706;0;
-57045.21;-53575.47;104.0816;-59997.21;-25.2525;5.978172;-57570.54;-49887.11;-0.1806859;-0.02521256;0;
-43171.3;-39795.76;-1097.981;-46955.68;-10.35765;0.144772;-43621.5;-35994.96;-0.05056963;-0.09015457;0;
-43251.11;-39588.48;-2246.644;-47026.82;-5.189673;-1.328998;-43745.73;-35529.11;0.2743179;-0.1550313;0;
-12089.87;-9550.967;-2009.692;-18559.11;-11.88226;-1.595594;-12559.8;-7858.525;0.01417289;-0.02494086;0;
23451.06;20801.93;-1110.124;19487.58;-8.856215;-3.536374;23892.88;17614.74;0.1440933;0.1699862;0;
18048.82;16424.03;-324.4339;17377.26;-17.88965;2.763331;18296.07;14808.13;0.5337526;-0.2199886;0;
9602.157;12418.11;1099.083;6739.032;-20.61834;3.631332;8553.079;11573.06;0.3383143;-0.4146696;0;
8940.118;11485.2;2375.149;6223.501;-12.69339;5.771137;7927.451;10367.42;0.1430723;0.1704531;0;
-24688.67;-21545.21;2263.193;-23945.04;-13.75236;8.913414;-25390.26;-18281.66;0.07796119;0.1053145;0;
-62990.66;-59446.88;1464.756;-62172.18;-6.705945;-0.7408401;-63632.93;-55279.31;0.07788286;-0.41453;0;
-55822.58;-52408.17;693.0154;-58780.76;-3.685097;-2.280703;-56348.14;-48747.01;0.337674;-0.3491462;0;
-42162.12;-38798.05;-519.3218;-45931.09;-11.91944;3.214067;-42606.63;-34988.96;0.2723673;0.105976;0;
-42406.1;-38770.44;-1679.154;-46197.98;-11.97481;2.541008;-42893.9;-34735.04;0.01222428;0.1708369;0;
-11485.43;-8957.528;-1455.485;-17898.53;-14.44103;7.227138;-11957.54;-7264.664;0.012212;0.1056979;0;
23867.67;21191.95;-563.5013;20199.87;-17.10583;8.961432;24314.16;17980.14;-0.117735;-0.02434299;0;
18567.23;16902.13;208.6146;18114.82;-11.19415;4.464694;18826.32;15172.97;-0.377486;-0.5440573;0;
10619.39;13101.83;1623.818;7625.27;-12.12091;4.52719;9567.328;11982.2;-0.1172374;-0.2836412;0;
10905.73;12969.49;2910.321;7986.719;-11.23807;2.647119;9870.854;11496.54;0.2077172;0.1064478;0;
-22711.92;-19683.61;2788.737;-22009.67;-10.28877;1.572855;-23429.58;-16567.13;0.1425411;-0.1535285;0;
-61923.41;-58353.94;1970.845;-61037.07;-19.99035;2.642879;-62566.28;-54160.36;0.3372999;0.1714625;0;
-54581.59;-51224.25;1208.903;-57554.97;-21.84627;1.83655;-55102.97;-47584.91;0.01212427;0.6260616;0;
-40555.77;-37213.36;14.0068;-44332.29;-23.90043;3.509156;-40992.25;-33412.21;-0.377692;0.4305305;0;
-41017.79;-37385.14;-1142.988;-44816.65;-26.15359;3.639596;-41502.72;-33366.11;-0.2473778;-0.0246735;0;
-10149.55;-7929.337;-929.509;-16600.82;-18.22405;3.033092;-10594.94;-6326.988;-0.3120965;-0.2195507;0;
24817.73;21705.3;-51.29721;21601.94;-15.05791;3.297977;25333.17;18410.16;0.1429884;-0.2842975;0;
19515.67;17706.52;710.0591;19563.58;-19.52978;1.017365;19812.49;15774.63;0.4676815;-0.4789138;0;
11557.24;13891.7;2106.893;8576.325;-18.43843;0.6144453;10503.14;12596.12;-0.3773639;-0.3484979;0;
10777.75;12743.23;3367.235;7917.675;-10.04716;-0.1899673;9757.804;11345.38;-0.3120174;0.171591;0;
-22766.48;-19709.54;3233.011;-22016.14;-8.363103;-0.9935716;-23458.26;-16525.76;0.01313285;0.2363859;0;
-60738.63;-57209.01;2413.736;-59917.13;1.290843;0.3470854;-61366.34;-53033.35;-0.3766844;-0.08868834;0;
-53167.05;-49808.32;1650.13;-56124.52;6.714553;-0.1891268;-53678.8;-46177.16;0.01349814;-0.02363188;0;
-40007.46;-36708.99;423.7754;-43657.02;-7.157294;4.231815;-40428.05;-32894.39;0.468256;0.3012286;0;
-40818.93;-37164.06;-810.0616;-44517.47;-8.154481;7.040846;-41298.65;-33169.51;-0.181888;0.3658932;0;
-9515.923;-7367.209;-688.1835;-15876.09;-5.534318;-1.472939;-9931.662;-5767.484;-0.1817052;0.4304929;0;
25355.68;22193.4;89.18003;22752.61;-5.327687;-1.94034;25934.23;18846.79;0.07834676;0.3650931;0;
20727.04;18795.56;759.9407;21338.49;-0.2984917;1.343774;21063.61;16429.58;-0.05166665;0.2347915;0;
14548.42;15327.35;2115.652;11438.86;5.327887;0.7395769;13520.57;13442.52;0.07831995;0.3644903;0;
14822.16;15083.83;3381.701;11712.22;-4.724175;7.035108;13755.69;13132.62;0.01327391;0.2991567;0;
-19076.64;-16174.44;3262.08;-18395.51;-7.265023;7.362831;-19844.64;-13335.52;0.07822791;-0.09094796;0;
-58246.3;-54603.11;2452.114;-57354.88;29.44843;12.84791;-58887.35;-50392.46;0.208084;-0.2857586;0;
-50833.04;-47567.33;1724.952;-53815.04;39.39918;16.31811;-51360.03;-43967.14;-0.1169618;-0.09056945;0;
-37024.39;-33698.76;564.02;-40710.14;30.11619;2.302529;-37456.82;-29896.49;-0.1168443;0.2343583;0;
-37360.55;-33724.39;-601.7422;-41181.61;33.9707;0.8267128;-37869.63;-29763.5;-0.05175953;0.4290248;0;
-6292.152;-4619.833;-417.1988;-12572.56;28.04206;-2.322316;-6648.956;-3246.687;-0.1166749;0.03878967;0;
27105.5;23252.54;413.7404;25825.76;26.67374;-5.73599;27887.28;19754.41;0.1433117;-0.286086;0;
22070.87;19871.77;1123.155;23884.27;19.2122;2.776362;22499.2;16935.89;0.2081351;-0.1558639;0;
16079.44;16450.32;2476.69;12986.55;14.17003;2.907538;15038.78;13983.14;0.402828;-0.02577258;0;
15406.62;15213.03;3690.215;12301.53;15.56231;8.263129;14335.72;13374.62;0.5323579;0.03922066;0;
-18020.43;-15159.33;3534.396;-17351.09;12.26414;11.06811;-18801.22;-12221.52;0.07705159;0.1041486;0;
-55906.19;-52245.34;2702.542;-55127.29;16.40501;7.104995;-56535.42;-48081.63;0.01200682;0.1690113;0;
-48671.83;-45430.29;1909.005;-51662.84;17.66132;8.1026;-49200.02;-41827.7;0.0769621;0.03890678;0;
-34814.38;-31505.5;699.1318;-38530.93;12.01652;4.343536;-35242.04;-27705.06;0.1418521;0.103835;0;
-34413.96;-30776.24;-482.3834;-38305.37;10.93272;3.267445;-34923.37;-26843.71;0.4015789;-0.09117133;0;
-3969.177;-2596.282;-327.9761;-10162.96;17.82061;3.130196;-4314.519;-1267.778;0.2062734;-0.2859817;0;
27989.33;23830.86;485.4448;27474.33;18.94178;2.524204;28849.26;20279.92;-0.1187706;0.03914232;0;
23214.11;20799.22;1183.481;25676.59;18.11944;3.191498;23640.94;17382.09;-0.1836186;-0.02586435;0;
18189.54;17509.53;2533.894;15194.77;19.50775;3.322257;17278.4;14495.48;0.1414026;-0.155773;0;
17609.03;16427.09;3767.351;14707.54;13.45993;6.199184;16837.98;14360.69;0.3361626;-0.1556165;0;
-15789.48;-12996.41;3630.008;-15013.22;12.84319;6.996629;-16504.28;-10205.74;0.2708575;-0.5452642;0;
-53505.68;-49808.5;2830.854;-52726.25;9.682457;12.34811;-54169.98;-45622.73;0.205618;-0.3498143;0;
-45829.84;-42629.24;2069.828;-48819.81;6.523921;15.41692;-46332.06;-39030.46;0.07547668;-0.08959344;0;
-31868.89;-28560.21;855.8889;-35541.47;13.88573;8.837222;-32291.37;-24749.88;0.2053355;-0.2844054;0;
-31827.36;-28195.32;-334.9355;-35726.85;12.06312;7.823598;-32347.07;-24291.57;0.2700965;-0.2191523;0;
-1888.067;-783.7504;-150.8476;-7740.782;22.03133;8.753498;-2062.583;431.2635;0.1398905;-0.0240301;0;
29205.36;24725.82;696.753;29866.1;27.76997;6.199473;30326.1;21106.3;0.5945212;0.04096139;0;
24863.88;22120.42;1386.362;28028.54;1.016244;10.41305;25335.67;18096.04;0.2690872;0.1058876;0;
20810.97;18985.3;2737.196;18247.05;-3.540105;10.46957;20258;15215.02;-0.1859546;0.1057812;0;
20487.51;18189.27;3986.535;18390.71;2.156879;2.421217;20274.75;15678.91;0.139069;-0.2841292;0;
-12561.1;-9927.927;3828.138;-11637.34;-1.395261;1.615111;-13207.88;-7478.163;-0.1859075;-0.4137783;0;
-50676.13;-46926.44;2995.146;-49967.78;10.72993;-8.500751;-51393.86;-42740.67;-0.5755247;0.4961802;0;
-43890.11;-40722.39;2209.405;-46741.06;13.59954;-13.78374;-44348.03;-37110.61;-0.05520768;0.560649;0;
-30384.63;-27047.87;993.732;-34034.05;13.45215;-0.3736084;-30815.09;-23284.94;0.2696845;-0.02462044;0;
-29929.03;-26316.86;-169.4948;-33857.46;18.12671;0.631511;-30452.38;-22417.65;-0.05542319;0.105339;0;
17.37617;981.7542;5.337692;-5615.71;8.463925;-1.043697;-62.63014;2070.01;-0.1853022;0.2351678;0;
29838.26;25238.81;819.9854;30989.36;7.316345;0.2300276;31068.61;21560.43;-0.3150507;0.2998989;0;
25673.39;22637.98;1516.092;28988.61;13.73936;-2.047623;26193.52;18403.17;-0.2497668;0.2346302;0;
22037.77;19682.63;2853.365;19618.77;11.38103;-1.777634;21672.74;15636.03;-0.1845485;-0.1554096;0;
21192.49;18630.53;4052.987;19347.04;16.39343;-5.124873;21119.67;16035.41;-0.3142977;-0.2851882;0;
-11327.08;-8694.751;3872.722;-10456.13;13.2955;-6.325416;-12000.31;-6316.901;0.01085481;-0.08999957;0;
-48865.17;-45114.48;3048.711;-48249.5;12.94735;-4.912418;-49599.88;-40948.88;0.3356806;-0.08990914;0;
-41475.65;-38334.02;2287.279;-44404.44;11.19303;-4.505585;-41949.86;-34749.67;0.4003107;-0.0898188;0;
-27552.09;-24183.77;1074.465;-31200.72;-8.577819;-4.902955;-27979.96;-20426.62;-0.05486296;-0.1546959;0;
-27397.96;-23833.46;-126.4495;-31409.34;-12.11917;-3.290438;-27945.21;-19983.33;-0.2497099;-0.02460577;0;
1766.663;2614.547;37.7826;-3395.956;-41.57851;-2.818373;1798.874;3571.125;0.2702798;-0.02458104;0;
30779.99;25997.53;878.4783;32799.97;-56.67463;-2.078729;32092.65;22229.67;0.1400735;-0.08952369;0;
27168.91;23458.42;1581.804;30838.81;-21.0506;8.30547;27821.43;19063.56;-0.05496925;0.5602397;0;
23753.03;20595.05;2945.247;22966.03;-17.47948;11.51231;24175.74;16342.78;0.139988;0.6896114;0;
24038.07;20796.59;4201.592;24104.09;-20.07486;13.912;24558.17;17524.72;-0.120022;0.0392451;0;
-6794.674;-4589.696;4002.25;-5834.753;-13.48963;17.18006;-7553.849;-2959.429;0.0750006;0.104173;0;
-45641.57;-41817.34;3113.923;-45085.18;-18.0314;11.67045;-46387.66;-37654.2;0.07492524;0.234003;0;
-39273.62;-36130.72;2348.677;-42038.74;-15.53503;12.12748;-39714.33;-32495.44;-0.5098561;0.1038332;0;
-25722.28;-22368.53;1136.738;-29327.76;-9.624927;8.565318;-26177.94;-18656.06;-0.3144418;0.4285656;0;
-26174.41;-22619.48;-80.26205;-30128.65;-7.672873;7.217053;-26711.34;-18749.24;-0.1841912;0.428135;0;
2932.103;3689.205;87.70296;-1810.974;-6.794507;8.214545;2985.286;4572.542;-0.1840061;-0.1570013;0;
31501.33;26642.69;932.1591;34192.72;-6.050745;5.928993;32881.15;22854.93;0.1410155;-0.2867782;0;
28400.31;23981.95;1644.02;32398.2;-7.182765;16.57308;29142.43;19570.98;0.2708085;-0.09158806;0;
25149.17;21219.51;3019.707;25795.67;-7.242897;18.49881;25756.64;16983.1;0.1406017;0.03843865;0;
25348.09;21867.09;4270.824;27082.51;-9.847588;15.66706;26087.36;18269.49;-0.05444158;0.1683347;0;
-4336.176;-2295.439;4062.854;-3260.559;-10.97677;17.05784;-5047.79;-1168.291;0.0755478;-0.02673646;0;
-42657.46;-38839.76;3166.97;-42282.5;-9.290799;8.333159;-43453.36;-34703.39;0.1404392;-0.2216116;0;
-36528.22;-33392.3;2371.811;-39268.8;-9.549884;6.181455;-36979.95;-29721.81;-0.2495059;-0.1564216;0;
-23219.77;-19868.93;1140.326;-26892.96;-5.922966;4.634636;-23683.91;-16165.75;-0.1193205;-0.3511665;0;
-23214.05;-19671.45;-52.28295;-27245.91;-3.57249;2.084628;-23762.39;-15861.82;0.4005381;-0.2208789;0;
5410.242;6026.411;153.4787;1260.544;-6.650359;4.159004;5460.452;6587.981;0.2702009;0.2341144;0;
32312.28;27356.69;1011.737;35942.09;-5.705671;2.413269;33711.51;23422.62;-0.1198746;0.03897715;0;
29329.34;24376.39;1695.532;33633.5;-1.145587;7.635391;30128.56;19995.03;-0.3146562;-0.2858987;0;
26170.04;21628.33;3036.779;27609.21;0.9316689;8.163582;26836.02;17401.1;-0.2493727;-0.09070942;0;
26076.5;22337.79;4269.949;28818.83;1.332874;6.279979;26866.94;18618.89;0.01074726;-0.02565094;0;
-2662.788;-855.3019;4052.391;-1488.108;1.331535;7.412257;-3356.991;40.99244;-0.05423088;0.03934218;0;
-40507.92;-36676.66;3181.411;-40237.74;11.5116;-2.642387;-41302.76;-32555.71;-0.2490784;0.1692373;0;
-34016.52;-30851.2;2430.434;-36743.3;16.25546;-4.984013;-34445.84;-27186.87;0.01104123;0.0391326;0;
-19755.02;-16379.91;1230.438;-23514.62;0.9001551;-4.108226;-20221.5;-12688.11;0.2708995;-0.02587406;0;
-19037.77;-15527.4;58.32129;-23175.68;-1.780067;-5.175825;-19585.68;-11801.84;-0.05420941;0.363956;0;
8344.978;8750.271;255.0388;4731.247;6.125952;-0.816856;8400.58;8940.002;-0.1840896;0.2336556;0;
33123.63;28060.89;1102.169;37533.11;6.052448;1.059487;34577.48;23960.42;0.07596472;-0.2863179;0;
30581.24;24893.12;1810.58;35404.26;7.721305;3.067788;31549.82;20556.93;-0.1190136;-0.1560955;0;
27650.48;22220.22;3171.357;30262.18;9.857;4.672296;28436.02;18010.14;-0.05392671;-0.220906;0;
26939.56;22957.81;4414.825;30698.1;4.488462;12.43738;27799.66;19097.3;0.3359315;-0.1557167;0;
-445.9782;1166.977;4220.297;778.259;3.479574;15.43911;-1086.843;1775.838;0.140692;-0.09059292;0;
-37302.54;-33507.11;3360.518;-37129.97;10.97719;13.28015;-38116.37;-29416.35;0.2055179;-0.4803059;0;
-30987.83;-27773.92;2613.109;-33682.73;11.03351;14.27155;-31398.7;-24095.12;0.2702788;-0.4798233;0;
-16925.78;-13528.69;1412.991;-20676.29;13.2996;7.559034;-17379.1;-9845.216;-0.05482952;-0.1545045;0;
-16352.43;-12848.48;228.916;-20480.46;12.88507;4.939226;-16883.19;-9216.416;0.1401276;-0.02441456;0;
10219.89;10449.18;418.9966;7117.292;9.2548;3.862536;10298.53;10285.22;0.4648235;-0.1543247;0;
33785.58;28631.18;1272.209;38842.55;8.441217;1.112477;35272.14;24395.61;0.3344218;-0.1541696;0;
31220.41;25340.04;1995.254;36647.14;-4.695431;0.7094616;32465.82;21029.73;-0.1206857;-0.08904739;0;
28345.87;22638.79;3375.867;32142.57;-8.977621;-1.09979;29390.63;18458.43;-0.4454011;-0.08895791;0;
28243.32;23735.75;4629.687;32886.78;-11.51322;1.111751;29140.81;19695.11;-0.3799862;-0.1538359;0;
2020.073;3039.29;4414.578;3357.667;-14.71683;1.914307;1401.206;3191.547;-0.2496697;-0.2186486;0;
-34794.77;-31006.32;3546.92;-34706;-8.942244;-1.168709;-35645.3;-27033.36;-0.3143862;-0.02352691;0;
-28346.14;-25085.19;2826.029;-31057.71;-8.397395;-0.8326199;-28773.5;-21386.33;-0.444005;0.1713988;0;
-14204.75;-10820.58;1642.595;-18035.62;-3.432465;0.5748583;-14683.53;-7139.276;0.07617989;0.3661286;0;
-13431.31;-9981.016;471.4388;-17643.97;-2.088869;1.645886;-14015.84;-6518.63;0.206038;0.5606627;0;
12803.69;12689.17;666.6168;10091.45;6.95556;2.782942;12861.63;12040;-0.6387444;0.4301647;0;
34671.36;29359.8;1505.213;40195.41;12.03879;3.717906;36149.66;24981.83;-0.70307;0.1048957;0;
31753.44;25904.05;2212.688;38213.86;-0.900407;8.402854;33436.14;21629.31;0.07724458;-0.02514437;0;
29119.25;23393.35;3578.495;34638.86;-0.8995022;11.20769;30731.41;19241.98;0.2071016;-0.09008645;0;
29232.79;24497.71;4818.462;34694.18;-7.931196;8.115217;30241.96;20271.04;0.1419262;0.2348408;0;
4662.397;5405.825;4613.346;5989.076;-12.00906;8.441978;4044.446;4949.052;0.5965549;0.5594415;0;
-31268.67;-27468.73;3758.888;-31303.28;-3.28946;10.7779;-32149.55;-23716.95;0.4010535;0.1690754;0;
-25549.47;-22286.15;3005.425;-28305.14;-4.291509;9.89629;-26048.21;-18540.65;-0.3789575;-0.2858659;0;
-11651.95;-8250.133;1807.912;-15529;2.81275;14.37408;-12159.78;-4599.689;-0.1187074;-0.2206114;0;
-10529.09;-7140.193;650.4886;-14790.24;5.757661;14.96248;-11180.28;-3850.363;0.3361833;0.03947968;0;
14731.1;14366.6;821.9048;12227.86;0.8617557;7.579449;14740.19;13309.63;0.1409435;0.2993094;0;
35205.82;29805.1;1662;40992.61;2.201036;5.361518;36678.66;25319.81;-0.05410019;-0.02582808;0;
32246.58;26406.78;2391.806;39316.39;-4.298886;1.471121;33941.12;22165.86;0.2058235;-0.5455409;0;
29469.68;23810.85;3748.657;35727.7;-7.107605;-1.946365;31122.4;19647.67;0.07568204;-0.415058;0;
30256.44;25081.96;5009.224;36114.71;-0.9385217;-2.614238;31427.56;20779.34;-0.2492307;0.04013043;0;
7191.428;7150.743;4822.25;8735.125;-1.137673;-5.022875;6688.249;6346.888;0.01088909;-0.1548119;0;
-28895.55;-25182.93;3941.845;-29006.9;-5.691858;-5.821623;-29863.41;-21635.18;-0.0540892;-0.2196237;0;
-23287.24;-19974.29;3186.762;-26161.19;-7.628521;-7.021466;-23909.38;-16257.74;0.01093249;-0.024501;0;
-9390.741;-6038.357;1978.666;-13385.19;-5.945917;-5.875701;-10038.37;-2453.163;0.2058235;-0.3493131;0;
-8953.895;-5594.057;785.776;-13251.03;-7.280089;-4.597122;-9702.617;-2525.317;-0.11922;-0.08909273;0;
15953.54;15243.23;955.6819;13642.58;-7.942359;-9.147281;15963.39;13875.38;-0.1840675;0.3008009;0;
35741.74;30183.53;1791.707;41638.53;-8.135449;-8.93714;37223.63;25652.03;-0.1189152;0.2355313;0;
32517.04;26734.57;2500.612;40035.73;-15.29457;-4.574331;34192.02;22492.47;-0.1837631;0.2352946;0;
29790.11;24144.67;3837.52;36647.07;-16.88582;-2.694335;31415.8;19983.53;0.01132357;0.04015614;0;
30649.62;25391.02;5089.533;36714.04;-19.41445;-0.4142078;31886.65;21005.74;0.2062142;0.2350178;0;
8610.171;8384.744;4926.717;10219.56;-21.87318;1.126816;8166.86;7195.592;-0.05386235;-0.0250877;0;
-26843.32;-23131.38;4078.222;-27073.63;-14.81861;6.61804;-27895.32;-19832.24;-0.1837429;-0.7397032;0;
-21057.37;-17718.23;3357.172;-24059.67;-14.33423;8.620878;-21798.98;-14011.53;-0.05362361;-0.3491559;0;
-6491.271;-3079.466;2177.671;-10599.64;-8.560024;6.937643;-7252.11;463.2815;0.01139762;0.04099894;0;
-5838.995;-2512.795;992.9521;-10207.76;-3.728652;6.528896;-6669.581;111.9611;-0.1185485;-0.0240096;0;
17813.1;16804.8;1155.279;15660.31;-16.38456;4.914745;17805.81;14865.82;-0.5082334;0.1709166;0;
36082.91;30424.39;1956.058;42141.99;-17.64089;3.83808;37569.79;25836.04;-0.3777881;0.3006795;0;
32745.41;26998.21;2630.347;40664.41;-11.39388;-2.662999;34407.21;22803.21;0.2072976;0.3653447;0;
30124.29;24511.24;3968.905;37467.38;-12.18573;-4.937621;31723.19;20321.21;-0.1177474;0.3000103;0;
31170.75;25760.63;5238.651;37665.89;-6.278992;-9.286489;32502.66;21367.74;-0.1176291;-0.02512789;0;
10110.17;9482.775;5073.125;12120.79;-5.268305;-13.16205;9786.104;8128.645;0.4022278;0.2347667;0;
-25088.37;-21470.48;4207.772;-25348.22;-5.665154;-4.374239;-26180.44;-18270.45;0.271889;0.2994982;0;
-19593.53;-16187.74;3480.032;-22667.3;-3.917173;-4.235878;-20394.28;-12479.02;0.4015505;-0.3504762;0;
-5551.174;-2129.813;2284.104;-9588.013;-13.15664;-2.423205;-6342.742;1410.231;0.401147;-0.350124;0;
-5791.816;-2490.771;1071.729;-10105.47;-14.55091;-0.07636753;-6633.625;134.4392;-0.1189948;-0.0249355;0;
17883.2;16700.27;1230.791;15804.32;-15.54067;-7.310326;17920.89;14734.62;-0.1838426;0.04005689;0;
36346.72;30628.59;2041.459;42405.89;-17.66851;-7.235997;37848.79;26040.47;-0.3785599;-0.1548854;0;
32816.11;27105.65;2726.906;40912.66;-9.07694;-10.3768;34464.43;22914.41;-0.5730816;-0.2196971;0;
30207.84;24600.1;4073.737;37785.18;-7.728649;-11.70603;31805.62;20422.52;-0.1827016;0.2352951;0;
31251.46;25824.52;5343.878;37774.05;-4.639424;-8.077254;32580.77;21424.39;0.207286;0.4299607;0;
10622.9;9909.946;5209.605;12629.6;-1.888096;-8.805951;10305.95;8480.762;0.3370124;-0.02524277;0;
-24437.42;-20839.92;4361.513;-24666.14;-6.575248;-1.228214;-25518.25;-17686.58;0.01183704;-0.09018475;0;
-19659.88;-16236.02;3602.228;-22689.87;-7.371949;0.5815592;-20455.49;-12493.5;-0.0531422;-0.02512679;0;
-5273.224;-1860.577;2410.706;-9351.782;-3.011261;-0.4907521;-6050.147;1715.274;0.1418132;-0.3499382;0;
-4717.28;-1379.261;1210.229;-9084.155;-1.065852;0.7154338;-5548.145;1081.587;-0.1181986;-0.2846193;0;
18288.85;17164.38;1326.173;16268;-12.25056;-6.653286;18316.59;14979.53;-0.3129819;-0.02446393;0;
36122.14;30432.77;2111.321;42217.41;-14.18064;-8.990942;37617.95;25843.92;0.0121693;0.23543;0;
32714.01;27005.66;2800.508;40737.56;-9.209896;-10.58944;34368.73;22852.95;-0.05281027;0.1702261;0;
30056.47;24467.15;4135.678;37549.61;-9.334364;-12.85616;31659.96;20281.69;-0.2476592;-0.4796183;0;
31153.3;25714.32;5385.61;37755.39;-2.62718;-14.58479;32483.3;21347.47;-0.2474104;-0.2842344;0;
10656.58;9863.496;5216.375;12790.84;-0.8832277;-16.0437;10345.55;8451.149;0.2076096;0.1708226;0;
-24658.51;-21093.63;4335.948;-24853.1;3.874058;-14.15212;-25716.68;-17891.26;0.5322377;-0.08921842;0;
-19916.97;-16473.01;3546.518;-22953.93;6.147341;-13.86997;-20685.4;-12696.36;-0.05300316;-0.2190635;0;
-5446.819;-2051.165;2301.141;-9490.837;2.792262;-12.11454;-6196.635;1518.982;0.07698479;-0.08890866;0;
-5741.555;-2385.356;1051.549;-10047.83;2.923178;-11.5665;-6558.208;440.7309;0.4667115;0.04111536;0;
17095.08;16060.79;1164.998;14924.28;-3.30905;-6.464298;17100.57;14370.66;-0.1834309;0.1060414;0;
35928.73;30284.12;1987.288;41849.42;-4.779594;-3.443571;37410.41;25753.63;-0.2482139;-0.02399984;0;
32717.44;27004.83;2709.458;40775.57;-9.998728;-12.14777;34383.3;22811.72;0.07687219;0.1709263;0;
30112.54;24538.39;4075.923;37615.43;-11.99841;-13.40818;31712.77;20409.5;0.01182761;0.4306239;0;
31438.65;25995.4;5341.376;38108.95;-9.30704;-9.777749;32801.16;21606.03;0.2067177;0.4951586;0;
10625.65;9841.636;5157.131;12918.08;-10.10197;-10.16976;10382.52;8444.6;0.1415427;0.3647264;0;
-24422.1;-20822.85;4279.887;-24597.11;2.836251;-8.752962;-25443.85;-17608.5;-0.2484036;0.1044905;0;
-19263.77;-15816.79;3509.191;-22254.01;7.387753;-7.806406;-19998.88;-12006.91;-0.3131213;0.03941816;0;
-4790.584;-1331.823;2288.339;-8846.161;5.906461;-11.75049;-5515.241;2326.365;-0.3128067;0.1043459;0;
-4059.698;-780.2462;1081.083;-8427.089;8.178678;-13.34622;-4834.32;1594.066;-0.247525;-0.2205957;0;
18823.01;17502.22;1199.905;16888.49;8.236833;-7.43843;18921.71;15151.35;-0.0523743;-0.2853414;0;
36065.18;30334.32;1968.313;42203.11;8.630698;-7.29699;37592.57;25762.38;-0.1822564;-0.09015261;0;
32640.82;26973.54;2636.092;40883.39;4.602562;-8.02647;34299.02;22862;-0.2470406;0.1698074;0;
30077;24512.16;3964.524;37862;3.459837;-7.482542;31679.69;20345.38;0.07804436;0.1046694;0;
31200.93;25716.38;5223.999;37931.5;-0.8978957;-16.18262;32580.64;21368.71;0.2079006;-0.2852398;0;
11268.02;10316.3;5091.408;13496.68;-2.570957;-19.44846;11052.99;8846.377;0.2076917;-0.2199859;0;
-23707.09;-20156.39;4247.245;-23926.75;-3.037864;-15.20906;-24710.4;-16958.03;-0.1173537;-0.08983016;0;
-19228.94;-15731.9;3444.972;-22257.22;-4.441331;-15.26076;-19960.51;-11889.19;-0.1822031;-0.4145766;0;
-5458.284;-2040.526;2176.084;-9472.713;2.864149;-18.2596;-6178.135;1598.659;-0.1170527;-0.5440947;0;
-6064.07;-2679.404;944.703;-10357.6;3.397135;-16.90165;-6841.809;149.1862;-0.2468697;-0.4785807;0;
17089.44;16052.23;1097.114;14965.8;12.23596;-18.29125;17138.48;14294.22;-0.1816543;-0.2831978;0;
35926.3;30306.96;1929.249;41853.61;17.18015;-17.2012;37417.69;25787.31;-0.05153713;-0.08801118;0;
32828.41;27114.04;2629.552;41148.48;3.163093;-9.213134;34496.13;22945.05;0.208384;0.04201194;0;
30187.99;24689.04;3979.76;38016.54;1.687022;-7.127405;31778.13;20581.12;0.273142;0.04196972;0;
31842.17;26240.73;5257.336;38939.85;3.426639;5.070345;33279.21;21851.25;-0.3118386;0.1718622;0;
12433.21;11095.47;5081.077;15230.47;2.28412;10.62471;12325.08;9517.043;-0.5064272;0.1716896;0;
-22727.68;-19306.68;4165.179;-22877.83;1.679589;5.054574;-23726.34;-16193.46;0.07878769;0.04158235;0;
-18864.4;-15320.48;3344.748;-21886.38;0.4051035;7.125844;-19613.48;-11468.46;0.01374118;0.1714753;0;
-5091.559;-1672.951;2090.391;-9063.552;5.428538;0.4876182;-5815.04;2000.875;-0.3111093;-0.1535338;0;
-4967.284;-1640.02;860.6266;-9315.407;6.29374;-1.857274;-5755.349;896.6213;0.208942;-0.7380856;0;
18143.52;16938.42;990.8522;16174.96;7.827657;0.1540798;18232.83;14775.4;0.3386667;-0.4774745;0;
36054.65;30391.19;1794.452;42100.98;9.762176;-1.587631;37570.97;25843.54;0.2083918;-0.08719075;0;
32777.94;27101.96;2500.824;41137.84;4.26001;-0.4473262;34434.81;22979.99;0.2731497;-0.0221358;0;
30330.59;24835.04;3875.057;38248.87;2.84921;-1.317655;31922.36;20715.03;-0.1169288;0.04285379;0;
31749.71;26162.53;5144.71;38780.64;7.80284;-1.852194;33169.42;21785.41;-0.1168113;-0.3469933;0;
12545.68;11208.81;4958.539;15203.71;9.33524;-4.060648;12407.79;9605.195;-0.05172659;-0.5415466;0;
-21869;-18423.92;4063.909;-22119.12;-1.390432;1.971652;-22898.15;-15345.62;-0.3765113;-0.2161658;0;
-17809.26;-14261.42;3252.794;-20907.64;-5.60957;3.376312;-18598.19;-10456.04;-0.2461983;-0.1509813;0;
-3714.694;-243.4998;1991.19;-7836.477;8.998101;-9.755368;-4488.627;3406.203;-0.05104892;-0.2157969;0;
-2987.841;220.215;776.5172;-7431.396;11.60201;-11.82204;-3794.745;2510.12;-0.2458996;0.04428928;0;
19367.24;17778.57;930.253;17606.27;2.88281;-17.03471;19520.04;15303.04;-0.3755873;0.1092121;0;
36239.87;30456.95;1734.195;42424.46;3.214706;-19.96472;37791.09;25899.25;0.07956154;-0.2157343;0;
32780.91;27165.32;2414.516;41149.3;1.804956;-15.59089;34406.05;23059.35;0.2094163;-0.2804849;0;
30154.65;24647.26;3749.292;38164.03;1.467374;-15.77617;31734.84;20506.56;0.07927117;-0.2152357;0;
31507.31;25926.29;4990.618;38532.81;3.409258;-6.851831;32884.76;21553.98;0.1441589;-0.2799868;0;
12589.33;11217.85;4797.698;15169.78;3.271135;-2.893076;12356.3;9572.332;0.2739487;0.1750659;0;
-21569.73;-18145.95;3897.077;-21921.4;9.497139;-2.555254;-22684.66;-15140.13;0.01380406;0.3697921;0;
-17930.19;-14372.02;3060.268;-21094.23;11.42998;0.3275795;-18786.54;-10644.28;-0.05117715;0.1095511;0;
-4116.172;-637.6646;1784.302;-8306.344;10.07932;0.5951821;-4969.768;2932.077;0.273711;0.2393757;0;
-2571.998;606.6947;584.7044;-7184.229;10.73878;1.264413;-3466.48;2601.858;-0.05140075;0.3690699;0;
19912.54;18266.58;733.6042;18054.73;9.789986;0.9282282;20015.31;15489.34;-0.3112185;0.4986337;0;
36131.21;30356.35;1528.311;42286.35;9.646426;0.7933297;37667.41;25791.51;0.01393095;0.173296;0;
32782.09;27176.35;2224.519;41181.69;8.565007;-5.436758;34392.69;23077.37;-0.05105039;-0.08674751;0;
30268.89;24785.42;3563.609;38357.2;9.494406;-8.579432;31826.92;20627.31;-0.1809338;0.4330784;0;
31559.28;25953.97;4803.872;38589.94;2.451292;-6.092504;32962.41;21581.7;0.07911739;0.04283917;0;
13163.43;11678.12;4606.329;15678.82;0.5064458;-7.626929;12969.26;9971.779;0.01407055;-0.2820406;0;
-20546.97;-17151.67;3693.438;-21013;8.878681;-8.824958;-21709.62;-14202.16;-0.5706497;0.3679163;0;
-16689.96;-13127.56;2878.698;-19931.73;8.937109;-10.02172;-17613.73;-9521.966;-0.6350436;-0.0222575;0;
-2501.482;1010.074;1633.242;-6784.647;19.37698;-8.672054;-3408.931;4442.353;0.0152679;-0.4770065;0;
-1175.758;1920.664;428.1122;-5779.848;24.18028;-7.591614;-2092.603;3836.801;-0.04971479;-0.1516905;0;
20489.13;18586.86;570.8288;18833.12;15.78324;-14.41612;20635.87;15765.4;-0.3095342;-0.2814728;0;
36281.62;30452.13;1379.38;42534.78;16.97283;-16.00917;37840.39;25906.06;0.01561353;-0.4111246;0;
32914.59;27342.17;2078.891;41312.43;11.26235;-12.04115;34515.66;23245.06;0.01559784;-0.08587483;0;
30277.89;24808.61;3400.668;38372.04;7.835754;-12.56491;31823.15;20672.13;-0.04938517;-0.08578855;0;
31738.94;26098.18;4641.095;39052.89;14.25727;-8.466452;33175.89;21718.3;0.5353705;-0.1506697;0;
13919.75;12239.08;4443.903;16887.29;12.43526;-6.783432;13806.12;10493.78;0.6647673;0.1743184;0;
-19409.07;-16090.95;3511.998;-19835.84;14.36514;-10.52754;-20551.84;-13158.28;0.01442589;0.3690453;0;
-15319.11;-11738.4;2698.251;-18658.05;15.0203;-10.31601;-16279.6;-8354.235;-0.1804906;0.1088051;0;
-1103.873;2422.253;1443.919;-5424.399;5.092216;-11.37737;-2076.143;5590.169;0.07956009;-0.2161409;0;
145.7023;3045.551;223.9871;-4457.698;3.010019;-11.56689;-766.5737;4701.809;-0.1154219;-0.08598907;0;
21456.66;19163.25;374.8736;20020.45;0.7298187;-10.68449;21692.16;16078.88;0.01462879;0.2389341;0;
36435.9;30541.45;1169.066;42818.88;-1.81651;-10.27186;38019.18;26004.02;0.2095161;0.433596;0;
32929.19;27412.8;1852.173;41290.44;1.400496;-9.859636;34519.71;23343.79;0.1443383;-0.08657844;0;
30488.86;25015.56;3177.176;38560.91;0.8632253;-9.782746;32027.75;20878.19;0.2091606;-0.3463608;0;
31793.63;26138.38;4408.8;39101.54;4.144887;-5.553114;33252.46;21770.24;0.01404837;-0.2160781;0;
14587.54;12719.39;4216.152;17506.28;5.814686;-4.743739;14518.41;10934.16;0.01403425;-0.2808283;0;
-17918.76;-14676.5;3307.87;-18423.52;2.995804;-1.322965;-19050.55;-11768.22;0.07898749;0.04429056;0;
-13836.59;-10201.84;2522.69;-17186.65;3.261214;2.027511;-14791.62;-7113.056;-0.2459286;0.3041154;0;
323.4333;3781.547;1306.421;-4105.248;4.798178;-7.485919;-720.4612;6637.933;-0.3106488;0.2388425;0;
1165.06;3977.225;87.31434;-3462.741;5.797735;-7.612364;196.6302;5585.945;0.01450003;0.4335046;0;
21645.84;19334.23;210.0711;20396.5;3.113568;-5.19339;21945.28;16202.49;-0.1804166;0.3031343;0;
36483.84;30606;1005.96;42918.58;3.310534;-4.92024;38093.85;26077.76;-0.1152679;-0.02200703;0;
33086.94;27572.97;1676.736;41417.48;2.035386;2.787497;34674.76;23534.33;0.2746519;0.2378845;0;
30498.94;25050.96;2972.868;38535.61;0.02360927;5.062116;32041.93;20921.32;-0.1803954;0.4325475;0;
31951.74;26280.47;4209.445;39498.15;10.53978;12.35805;33440.51;21929.06;-0.2451815;0.04230877;0;
15123.59;13157.13;3984.545;18555.06;12.33785;16.02957;15145.59;11335.09;0.3397709;-0.2176031;0;
-17433.34;-14246.31;3004.751;-17767.04;8.640786;15.00872;-18511.34;-11330.79;0.3394295;0.1074523;0;
-13738.42;-10093.48;2199.666;-17069.12;9.77118;16.60123;-14669.77;-6972.308;0.2091538;0.1073443;0;
366.253;3874.007;989.6879;-3956.974;1.522339;11.62793;-627.3346;6740.075;0.1439763;-0.0876656;0;
1611.743;4232.339;-216.076;-2983.985;-0.6226445;10.27659;711.4512;5806.752;-0.4408745;-0.3474469;0;
22158.31;19511.72;-54.50245;20985.84;2.325718;6.314393;22517.24;16323.02;-0.7003008;-0.2171631;0;
36505.56;30600.15;759.0497;42988.46;2.992967;3.494765;38129.06;26096.4;-0.3097931;-0.08701019;0;
33006.21;27538.24;1421.547;41309.84;-1.631741;2.955389;34592.99;23522.47;-0.4394165;-0.4117595;0;
30484.08;25037.21;2710.408;38533.99;-3.974626;0.1392588;32039.73;20927.1;-0.3090403;-0.1514764;0;
31768.16;26098.36;3955.214;39236.51;11.83685;6.100478;33243.8;21769.59;-0.1138278;0.2384799;0;
15145.91;13065.47;3795.599;18398.74;14.97279;6.83116;15139.98;11241.83;-0.3086154;0.2382403;0;
-16966.16;-13839.8;2892.206;-17396.31;11.67619;3.94403;-18046.73;-10886.3;-0.1783706;0.4978703;0;
-13111.42;-9449.964;2105.787;-16476.72;12.66884;4.542913;-14028.28;-6465.848;-0.1132241;0.1075659;0;
695.2767;4227.333;883.9097;-3672.328;8.3692;-0.9541296;-271.745;6905.696;-0.243045;-0.02247684;0;
1519.788;4175.843;-342.2064;-3029.116;7.959625;-3.230469;646.9727;5832.012;0.08203594;0.3673498;0;
22035.92;19395.51;-177.5076;20988.54;-2.966713;2.800997;22409.16;16302.37;0.01698617;-0.02282337;0;
36498.09;30601.58;655.9081;43021.27;-6.915847;3.86991;38133.08;26099.09;-0.1779329;-0.08776777;0;
32928.43;27485.65;1297.301;41213.46;-7.04262;-3.032977;34528.15;23495.69;0.1470826;0.1721898;0;
30467;25023.55;2564.485;38465.68;-11.32245;-4.369588;32018.56;20936.44;-0.1129346;0.04208208;0;
31854.44;26226.26;3797.163;39444.1;2.822446;-1.552036;33367.67;21905.93;-0.1777884;0.3019092;0;
15083.86;13139.5;3586.732;18678.26;6.570654;-2.421255;15190.44;11378.29;0.2771616;0.2366385;0;
-16967.73;-13750.13;2657.25;-17256.66;-1.4739;1.801103;-17962.44;-10738.59;-0.04795361;-0.283338;0;
-12937.55;-9263.073;1899.897;-16282.21;-0.4006917;3.272796;-13819.47;-6338.303;0.01706192;-0.02318398;0;
841.042;4380.037;704.7437;-3480.682;0.000876481;-0.9502956;-116.8135;7013.624;0.4068488;0.2367087;0;
1731.187;4345.792;-497.5792;-2815.58;0.5367391;-0.3464943;904.1658;5924.886;0.2765053;0.1065361;0;
22173.28;19493.9;-322.1046;21196.43;1.139412;-6.508454;22632.13;16294.28;0.2112602;0.04146176;0;
36375.63;30493.49;503.4292;42929.31;1.807853;-9.783956;38027.23;26018.6;0.1460805;0.1063874;0;
32819.55;27388.04;1170.088;41066.12;-1.743937;0.4070368;34411.54;23419.3;0.1459338;-0.2185562;0;
30368.28;24946.92;2465.479;38381.86;-5.358531;1.344389;31931.21;20875.13;0.08081979;-0.02343453;0;
31585.15;25955.85;3683.357;39108.28;9.247912;-2.608955;33115.84;21658.53;0.1457059;0.1714911;0;
15230.27;13183.01;3483.317;18659.76;11.78421;-2.673316;15383.15;11383.53;0.2105269;-0.2184853;0;
-16312.68;-13143.56;2604.289;-16656.09;-0.1503436;-6.890372;-17268.15;-10127.97;-0.1794887;-0.1532985;0;
-12460.67;-8735.563;1867.666;-15800.15;-0.4849852;-9.361756;-13315.92;-5842.103;-0.3092431;-0.02320973;0;
1230.24;4781.362;651.8057;-3066.702;-10.13004;-7.208956;304.1844;7371.41;-0.3089323;-0.2180884;0;
1752.193;4484.33;-592.0993;-2772.47;-13.26769;-8.072491;920.6468;6137.167;-0.1786872;-0.2828366;0;
21677.32;19183.96;-426.8059;20541.1;-11.37933;-13.48987;22093.05;16038.35;0.2112963;-0.1526178;0;
36146.74;30300.5;427.0065;42577.5;-12.70706;-15.41876;37784.4;25834.8;0.08114936;0.3672743;0;
32739.79;27309.21;1077.594;41017.46;-3.853037;-13.99669;34345.66;23360.4;-0.1788016;0.49684;0;
30130.39;24729.3;2342.031;38111.48;-1.571014;-13.58073;31692.19;20667.79;-0.4384913;0.04156935;0;
31535.86;25912.3;3583.74;39097.75;7.070753;-16.91611;33064.61;21632.79;-0.1132139;-0.3482765;0;
15167.82;13156.29;3393.952;18758.05;12.62335;-17.16704;15324.13;11375.96;0.3416712;-0.4128939;0;
-16902.07;-13699.75;2469.91;-17169.05;5.911888;-13.13094;-17846.89;-10654.64;-0.1784108;0.0422924;0;
-12871.23;-9139.756;1712.62;-16218.78;6.040646;-13.05076;-13710.74;-6260.398;-0.3081663;-0.08768477;0;
1201.619;4761.602;508.5977;-3136.335;6.704162;-5.066863;272.5896;7352.677;0.0169801;-0.2175314;0;
1322.991;4084.842;-740.2233;-3140.008;4.285552;-1.846713;517.8016;5864.127;-0.372841;0.4323606;0;
21414.86;18946.61;-579.3413;20456.44;6.089907;-7.538223;21885.2;15886.15;-0.5024011;0.4319262;0;
36191.73;30360.23;266.0662;42681.77;6.151136;-6.659871;37841.6;25903.85;-0.1770595;0.1716229;0;
32736.5;27308.65;914.2853;40970.52;-7.184282;-11.20796;34343.8;23371.58;-0.1119143;0.04151571;0;
30204.99;24831.68;2188.507;38154.67;-10.19117;-12.60328;31764.6;20797.72;0.2780022;-0.3483301;0;
31583.4;25948.98;3414.347;39214.43;-9.645069;-11.8538;33153.22;21677.85;0.6675269;-0.5428821;0;
15840.86;13662.36;3196.399;19552.47;-11.24297;-13.78439;16123.06;11804.12;0.2770521;-0.2174999;0;
-15695.93;-12575.29;2242.446;-15983.49;-0.4480292;-5.732775;-16566.38;-9554.687;-0.1130303;0.1075554;0;
-12086.34;-8299.408;1449.091;-15481.02;3.839329;-3.717527;-12912.11;-5509.661;-0.04794938;0.432284;0;
1229.289;4803.256;207.8204;-3020.768;3.299608;-7.12986;336.5128;7257.757;0.5368049;0.496817;0;
524.626;3379.393;-1074.431;-3886.109;5.171326;-5.783098;-274.9556;5279.33;0.6662002;-0.02342095;0;
20749.24;18408.04;-906.1547;19637.02;17.28992;-10.06407;21180.04;15474.49;-0.244012;-0.08836476;0;
36199.07;30394.25;-23.81219;42559.51;22.36374;-11.66149;37834.76;25934.68;-0.3737015;-0.2182107;0;
32724.01;27297.35;624.6983;40976.13;13.03052;-7.697901;34341.31;23375.66;-0.2433913;-0.4778607;0;
30137.06;24795.21;1897.899;38052.86;12.74998;-8.560945;31695.07;20782.16;-0.2431468;0.3022275;0;
31609.51;25962.07;3163.792;39290.12;9.789431;-5.873086;33167.89;21694;0.1469016;0.4318585;0;
16041.56;13795.7;2979.142;19916.03;7.100277;-4.594509;16300.76;11947.98;0.146754;0.1715552;0;
-15233.53;-12143.3;2037.433;-15457.24;7.830077;-11.48901;-16104.39;-9135.886;0.01667185;0.04144814;0;
-11738.02;-7922.531;1245.845;-15073.39;6.14727;-12.2812;-12536.65;-5282.779;-0.04831224;-0.08852819;0;
2015.396;5643.349;17.14766;-2274.019;5.002993;-12.80473;1117.967;7889.848;-0.113231;0.1714301;0;
2087.724;4764.618;-1226.245;-2352.693;3.390376;-13.59565;1310.294;6436.334;-0.1780846;-0.02364415;0;
21618.18;18966.25;-1032.422;20786.13;7.94132;-11.0367;22120.27;15865.53;-0.242873;-0.08858773;0;
36076.56;30240.33;-135.7096;42601.6;9.273487;-10.82467;37729.42;25806.3;0.0172404;0.04143596;0;
32647.5;27272.31;568.0419;40827.66;6.182711;-6.259071;34253.42;23382.09;-0.2426463;-0.413377;0;
30040.13;24678.06;1893.43;37958.81;7.516645;-4.377259;31593.87;20661.86;-0.1774351;-0.1530923;0;
31387.16;25779.27;3156.454;39019.85;1.882038;-5.779503;32968.67;21542.94;0.4074492;0.2368656;0;
15949.71;13699.65;2977.464;19719.56;-0.5980998;-5.505764;16288.6;11847.66;0.01723577;-0.08820917;0;
-15348.28;-12263.07;2058.87;-15640.05;10.11977;-5.768163;-16202.26;-9212.806;-0.1776836;-0.3479899;0;
-12030.21;-8196.962;1263.107;-15419.17;11.98464;-6.700068;-12855.14;-5484.199;0.1473317;0.1720985;0;
790.4567;4395.84;24.55314;-3398.012;8.958484;-8.970694;-59.56911;6725.442;0.08221629;0.2368929;0;
-135.4194;2853.758;-1228.342;-4584.375;10.42335;-10.8372;-907.5518;4799.134;0.147101;-0.4130185;0;
20256.31;18079.71;-1047.791;18982.83;7.867282;-12.76876;20673.73;15212.72;-0.1129162;-0.2826689;0;
35952.67;30194.08;-150.8452;42189.95;8.998453;-13.62671;37570.84;25763.74;-0.1128027;0.1723866;0;
32706.79;27285.41;549.392;40931.3;4.233989;-21.11492;34332.78;23381.04;0.2121474;0.04227867;0;
30266.61;24964.02;1869.957;38053.91;1.215625;-24.37574;31803.83;20988.96;0.01703216;-0.1526658;0;
31941.15;26297.67;3144.031;39718.77;17.42305;-18.65788;33546.89;22046.93;0.2768844;-0.02257776;0;
16963.77;14559.01;2943.471;21292.79;20.68808;-19.57684;17406.11;12650.95;0.5364755;0.172347;0;
-14106.29;-11112.69;1972.656;-14205.93;13.96948;-14.3996;-14909.85;-8119.145;0.01619778;-0.02272824;0;
-10936.15;-7066.724;1155.084;-14379.83;14.15554;-11.57191;-11761.62;-4704.121;-0.04878584;-0.2825748;0;
2001.495;5641.024;-102.6329;-2223.328;11.46298;-19.19616;1121.342;7593.567;0.2760999;-0.2173235;0;
938.9695;3815.708;-1386.26;-3440.653;9.843868;-18.84201;147.8445;5688.625;0.2108551;0.3026336;0;
20740.99;18410.68;-1202.177;19829.09;7.489452;-20.22966;21218.74;15483.28;0.08070857;0.3672969;0;
36111.86;30350.07;-299.4848;42516.29;5.874336;-21.54893;37754.21;25918.61;0.01566014;-0.347713;0;
32759.33;27362.14;390.407;40927.61;2.31846;-15.56598;34369.49;23488.81;-0.04932294;0.1723752;0;
30294.45;25010.44;1707.196;38103.57;0.7749133;-14.74655;31829.98;21043.7;-0.2441754;0.562006;0;
31756.35;26116.79;2955.821;39485.18;1.71214;-12.11945;33358.6;21876.71;-0.1789627;0.1716373;0;
16743;14377.65;2737.303;20923.99;0.9071122;-9.561987;17177.69;12511.3;0.08108647;0.1714648;0;
-13359.09;-10359.32;1801.053;-13611.09;7.068142;-13.97313;-14178.2;-7332.369;-0.113897;-0.02360953;0;
-9505.298;-5692.205;1025.851;-13008.01;8.333838;-13.75814;-10333.42;-3719.205;-0.3086846;0.1713162;0;
4195.106;7869.107;-203.6559;-243.2882;11.54064;-13.54343;3266.207;9262.368;-0.1784398;0.3660461;0;
4206.039;6452.534;-1467.347;-204.7661;14.87795;-15.07037;3445.442;7955.573;0.1465762;0.04084159;0;
22694.67;19453.59;-1305.735;22347.51;4.815318;-6.414609;23334.43;16304.3;0.146429;0.04080055;0;
36236.27;30417.69;-448.6964;42925.12;3.67238;-3.661924;37922.5;26005.91;0.2112492;0.1057269;0;
32867.8;27575.57;216.6077;40928.77;3.735063;-9.686586;34453;23736.23;0.4059389;0.2355554;0;
30334.5;25004.44;1503.681;38161.69;0.517105;-7.265529;31880.33;21028.17;0.08069434;0.3652534;0;
31519.25;25933.28;2717.965;39289.22;10.76436;-14.96108;33114.31;21723.15;-0.3741581;0.2349517;0;
16988.21;14591.94;2485.099;21236.86;12.09272;-17.02246;17417.32;12708.26;-0.1788802;-0.0251538;0;
-12841.31;-9846.934;1509.185;-13043.71;4.378385;0.007882346;-13674.42;-6798.347;0.3410383;-0.2849979;0;
-9452.086;-5619.565;659.8451;-12926.48;2.431602;4.361643;-10283.43;-3644.535;0.3406956;-0.2197442;0;
4262.257;7926.666;-607.0876;-127.7961;4.907405;6.701663;3343.141;9254.441;0.0155166;0.3002154;0;
4300.172;6632.035;-1865.907;-133.4148;6.040574;11.18266;3505.636;8109.948;-0.1144337;0.2999137;0;
22366.08;19266.08;-1682.811;21957.76;-6.021935;10.36763;22960.05;16122.94;-0.04935135;-0.02522437;0;
36056.09;30276.88;-794.222;42694.01;-7.824545;11.42894;37731.61;25878.86;0.2105676;0.169703;0;
32780.79;27477.93;-121.5741;40816.73;-6.008022;15.90519;34362.38;23650.51;0.2753234;0.2344998;0;
30089.56;24793;1166.088;37919.27;-8.011717;17.4968;31630.71;20838.18;0.2100794;0.2342642;0;
31354;25764.4;2398.453;39013.39;9.411407;10.37915;32937.76;21563.33;-0.05000107;0.1690615;0;
16655.67;14272.93;2185.243;20661.46;15.02901;9.029063;17053.47;12388.41;-0.1798855;0.1039243;0;
-13103.14;-10084.58;1252.921;-13435.39;11.59765;6.809676;-13935.38;-7050.432;0.0801646;-0.02611486;0;
-9219.978;-5434.064;464.5261;-12729.65;15.53811;4.257483;-10035.05;-3655.972;0.01511671;-0.4158927;0;
4834.133;8462.897;-758.5761;327.4946;16.6606;9.343785;3891.886;9468.871;-0.2447678;-0.3505074;0;
5179.381;7279.484;-2010.903;808.3455;21.13184;9.468363;4440.432;8526.248;-0.1145872;-0.2202206;0;
22976.21;19554;-1873.763;22842.1;15.95304;10.26264;23692.24;16326.22;0.0154626;-0.349934;0;
35980.66;30190.24;-1026.68;42703.48;18.54898;11.19009;37677.38;25820.84;-0.04952028;-0.2196477;0;
32702.07;27449.11;-359.7016;40689.67;18.06183;10.04014;34267.34;23650.41;0.01549682;-0.2843943;0;
30112.93;24798.96;916.8934;37902.28;14.69478;10.43195;31649.97;20853.02;0.2753506;-0.2191412;0;
31272.41;25718.83;2151.382;39031.01;50.11337;8.746893;32866.9;21547.63;0.5999106;-0.08898632;0;
17081.05;14671.06;1963.751;21405.24;59.23907;8.269224;17550.28;12794.23;0.5993078;-0.08889691;0;
-12583.58;-9566.271;1022.407;-12767.1;43.10462;7.591208;-13389.01;-6485.741;0.2089016;-0.08880758;0;
-9488.519;-5650.887;204.0401;-13012.84;43.06131;6.712801;-10316.52;-3692.609;0.01378969;0.1061837;0;
4097.316;7739.079;-1036.448;-315.0363;36.78875;7.710801;3185.017;9009.031;-0.05119151;0.1710443;0;
4043.771;6415.324;-2301.739;-424.0554;32.93339;7.368138;3242.708;7948.164;-0.3110094;-0.08899691;0;
21977.3;18916.54;-2142.754;21507.07;19.0352;7.963459;22557.47;15844.99;-0.3756643;0.1059945;0;
35707.96;29951.59;-1273.912;42294.37;11.38026;8.558304;37376.93;25573.98;-0.2453521;0.04092069;0;
32433.33;27170.83;-623.271;40414.28;9.693885;5.267663;34008.12;23388.66;0.1446985;-0.02408777;0;
29672.54;24385.16;643.8124;37465.62;4.392859;4.257626;31207.68;20453.89;-0.05034896;0.1708385;0;
30862.64;25324.87;1877.483;38490.08;9.67973;6.262836;32437.12;21164.63;-0.6350045;-0.1541699;0;
16253.02;13935.27;1690.845;20208;9.468934;5.586713;16642.01;12112.68;-0.04966031;-0.2839497;0;
-13692.31;-10617.37;763.0493;-14033;13.41153;5.849031;-14536.24;-7502.447;0.2752263;-0.08876234;0;
-10214.95;-6340.778;-37.65911;-13756.12;16.011;5.441257;-11050.99;-4240.294;0.08004772;0.04126153;0;
3144.758;6842.641;-1262.318;-1275.52;15.92757;2.287714;2227.105;8375.486;0.01499995;-0.02374727;0;
2635.212;5177.708;-2521.76;-1879.356;18.7246;0.5438585;1841.201;6918.533;-0.5047538;-0.08869075;0;
21193.09;18319.63;-2365.459;20411.17;13.74929;-0.2604832;21739.3;15346.2;-0.4392793;0.1063004;0;
35445.19;29702.03;-1483.525;41865.85;13.60176;-1.131;37093.15;25336.25;0.08090079;0.2361283;0;
32164.39;26903.99;-816.3375;40183.33;11.31091;-5.282683;33747.2;23128.81;0.01585216;0.235891;0;
29527.97;24270.89;454.282;37263.35;7.949669;-6.54999;31052.94;20357.47;-0.1790658;0.1706866;0;
30809.07;25277.63;1702.292;38461.18;21.1372;-7.079272;32395.31;21126.71;0.01601615;-0.1543216;0;
15911.86;13603.29;1524.982;20026.09;24.93435;-8.143886;16367.08;11793.8;0.0809674;-0.08919917;0;
-14430.58;-11339.47;600.9446;-14680.59;13.05295;-3.71489;-15224.69;-8237.624;-0.114016;0.04082514;0;
-10770.03;-6880.815;-165.7741;-14312.52;14.24626;-2.907362;-11603.12;-4762.652;-0.1788688;0.1707188;0;
2857.17;6540.418;-1364.755;-1549.843;10.3462;-1.631887;1942.521;8162.295;-0.3086237;0.3004819;0;
2250.993;4884.504;-2619.408;-2259.475;8.259704;-0.8264518;1441.617;6705.353;-0.04844424;0.4301147;0;
20856.75;18140.8;-2444.738;20066.84;20.30784;-0.8256214;21377.91;15201.22;0.1465065;0.2997479;0;
35287.41;29569.5;-1559.662;41702.54;20.42214;-0.02099659;36931.66;25213.65;0.2113266;-0.1553247;0;
31965.85;26709.61;-901.3005;39957.36;35.07003;-6.518137;33540.32;22946.46;0.3410489;0.2346354;0;
29217.24;23973.87;382.1168;36959.71;42.53687;-8.922912;30742.51;20069.2;-0.1140651;0.494269;0;
30459.12;24948.04;1641.849;38020.13;21.52909;-5.631905;32020.9;20810.74;-0.2438852;-0.09093374;0;
15318.53;13164.7;1453.106;19207.27;19.96624;-5.760211;15701.61;11409.36;0.08119655;-0.02587502;0;
-15023.4;-11831.55;524.5809;-15389.85;17.87007;-9.505345;-15848.17;-8670.58;-0.1137871;0.6238244;0;
-10976.02;-7072.686;-235.5332;-14564.38;13.09669;-10.23261;-11810.02;-4951.436;-0.1136727;0.6231976;0;
2735.7;6489.732;-1438.379;-1721.002;22.46065;-8.882667;1808.241;8054.348;0.08134352;0.362702;0;
2162.801;4743.523;-2692.334;-2391.513;21.43371;-9.677536;1360.524;6519.554;-0.0486729;0.1024682;0;
20794.17;17954.88;-2534.738;19928.3;21.88068;-3.237573;21327.17;15016.07;0.01634335;-0.02756944;0;
34996.89;29282.57;-1670.093;41372.23;22.52828;-1.024005;36638.63;24925.48;0.2761963;0.1673603;0;
31682.45;26455.1;-998.4394;39638.54;16.07626;-5.577693;33250.6;22708.6;-0.1138853;0.03725744;0;
29123.95;23880.21;283.7324;36840.63;15.65797;-4.835277;30646.11;19977.19;-0.1787382;0.03722;0;
30260.89;24777.45;1524.886;37763.79;11.28798;-8.916255;31815.35;20655;0.1462781;0.1671173;0;
15002.28;12825.25;1354.438;18742.68;10.60705;-10.91678;15370.35;11102.93;0.2110985;-0.1578873;0;
-15420.9;-12220.71;445.44;-15833.37;6.108413;-4.207644;-16251.64;-9054.805;0.2758537;-0.2876634;0;
-11761.15;-7775.482;-345.0167;-15325.7;1.882717;-3.131689;-12598.48;-5368.165;-0.1791949;-0.1574396;0;
1644.118;5413.642;-1571.647;-2772.583;10.92315;-4.200269;715.1158;7369.314;-0.3739168;-0.2222488;0;
983.4382;3883.375;-2822.813;-3536.989;4.81661;-2.253543;185.3819;5728.636;-0.2436064;-0.1570581;0;
19890.74;17513.95;-2656.028;18878.39;24.3703;-5.46646;20422.13;14574.87;-0.1783943;-0.09193299;0;
34711.67;29036.35;-1765.587;40961.16;28.16421;-4.992086;36350.41;24711.98;0.406491;-0.35171;0;
31570.07;26318.01;-1051.421;39534.77;-4.55079;-0.09743843;33129.52;22572.28;0.5360172;-0.4163239;0;
28858.89;23651.78;290.9616;36570.13;-6.087435;1.041369;30382.07;19768.66;-0.1141948;-0.1560362;0;
30082.04;24603.26;1562.499;37539.88;-51.49404;7.068665;31616.69;20496.25;-0.11408;-0.0909121;0;
14724.41;12674.71;1369.993;18389.5;-71.93883;9.606791;15025.93;10926.8;0.145904;-0.02585341;0;
-16217;-12955.81;461.9788;-16654.33;-30.00282;7.721739;-17087.28;-9782.087;0.1457574;0.2990093;0;
-12607.49;-8649.104;-273.4909;-16179.03;-29.7716;7.780962;-13447.9;-6050.097;-0.1792258;0.2337415;0;
1028.702;4811.716;-1470.489;-3408.04;-18.62325;9.31363;113.8657;6986.323;-0.4389151;-0.09133009;0;
427.4546;3294.906;-2751.398;-4152.208;-7.217688;9.840135;-390.2922;5275.3;-0.04867;0.1036637;0;
19646.18;17226.92;-2612.796;18510.51;-11.76479;2.663318;20101.1;14383.21;-0.1135884;0.1035595;0;
34560.79;28905.12;-1726.521;40760.41;0.4371957;1.320983;36173.17;24589.38;-0.3733437;0.1684228;0;
31349.14;26110.03;-1024.107;39304.64;-13.22727;-2.900147;32919.04;22365.46;0.08180286;0.2981883;0;
28790.57;23599.18;284.7334;36471.2;-12.67812;-6.581234;30304.57;19738.42;-0.1131814;0.167954;0;
29974.94;24503.74;1528.353;37408.58;16.80613;4.410275;31518.83;20397.84;-0.178035;-0.1570515;0;
14452.45;12357.55;1326.387;18087.37;22.14788;5.544554;14776.05;10660.78;0.40685;-0.2868284;0;
-16402.82;-13161.24;403.7049;-16861.42;40.54508;3.261563;-17258.28;-9939.07;0.1465718;0.03829655;0;
-12507.66;-8522.767;-361.0353;-16110.59;51.08789;3.459234;-13339.48;-6018.706;-0.1784122;-0.4165133;0;
1451.566;5250.831;-1569.846;-3062.645;33.48776;2.116222;528.6785;7314.877;-0.2432002;-0.3511275;0;
870.04;3691.695;-2824.075;-3747.066;32.44875;1.712198;44.40609;5646.862;-0.5677926;0.1039967;0;
19685.16;17206.36;-2660.849;18616.6;30.87591;-3.848984;20151.22;14344.28;-0.6971567;-0.2209445;0;
34429.01;28779.79;-1776.088;40665.96;26.3569;-5.452707;36044.26;24474.58;-0.5015542;-0.02582044;0;
31284.07;26061.63;-1095.894;39210.76;22.04351;-9.66703;32846.05;22334.19;-0.2411809;0.03917285;0;
28694.28;23512.9;194.3405;36352.78;17.06487;-11.93468;30207.81;19655.67;0.08389816;-0.1557685;0;
29881.96;24422.96;1442.924;37332.77;15.17269;-7.635898;31414.21;20332.86;0.2137485;0.1692247;0;
14493.98;12423.33;1244.073;18169.5;12.94664;-7.427277;14785.41;10729.4;0.2785011;0.2989894;0;
-16225.82;-12951.06;314.446;-16668.09;9.919524;-3.333916;-17095.96;-9730.972;0.08331925;0.3636563;0;
-12472.83;-8471.242;-463.5104;-16041.8;8.905179;-1.187234;-13292.79;-5985.775;-0.1766338;0.1034215;0;
1644.099;5466.846;-1678.84;-2869.044;11.10606;0.2206004;715.653;7490.188;-0.04652167;0.03835022;0;
1436.816;4169.408;-2920.122;-3187.906;10.29159;2.229867;604.1458;6090.455;0.3433291;0.2981811;0;
19902.32;17279.08;-2748.71;18922.47;19.99317;1.088916;20382.85;14405.15;0.01814744;-0.02695527;0;
34226.79;28582.36;-1858.113;40509.47;22.71974;1.690669;35847.44;24286.1;-0.4366422;-0.4167322;0;
31179.63;25988;-1145.978;39073.82;21.49146;-0.7893987;32742.34;22272.02;-0.3062688;-0.3513462;0;
28677.03;23501.85;173.4172;36315.09;26.29166;-2.396074;30188.8;19658.26;-0.2409937;-0.1560911;0;
29823.46;24374.7;1410.59;37225.59;3.961029;1.22329;31362.46;20295.33;-0.1108169;-0.1559343;0;
14354.77;12209.99;1196.592;17959.1;-2.339591;1.690941;14681.47;10541.81;0.2790985;0.1690591;0;
-16235.42;-13010.69;277.8193;-16750.66;10.05497;-1.79387;-17091.01;-9767.872;0.2788181;0.493726;0;
-12340.35;-8321.702;-498.0699;-15975.73;3.949296;-1.122238;-13169.97;-5885.004;0.08363593;0.1034258;0;
1162.889;4986.631;-1738.133;-3337.115;19.88653;-5.005999;249.4465;6988.098;0.2784539;-0.09158013;0;
492.0414;3327.92;-2992.88;-4148.93;19.66548;-6.541515;-335.1511;5308.745;0.1482394;-0.09148811;0;
19492.21;17020.74;-2796.751;18364.49;10.2686;3.847107;19948.54;14178.78;-0.2417136;-0.1563635;0;
34248.38;28624.06;-1875.778;40434.46;12.06694;6.187644;35858.33;24343.21;0.08336602;-0.09123906;0;
31143.8;25949.43;-1168.466;39038.64;-27.79917;6.315393;32705.87;22241.06;0.3431516;-0.1561147;0;
28610.08;23452.14;137.7081;36228.41;-37.8853;8.050481;30120.54;19625.53;-0.04699723;0.2338462;0;
29755.52;24320.04;1385.286;37181.97;-40.52655;8.109375;31287.03;20253.86;0.2129194;0.03870919;0;
14211.26;12161.24;1170.158;17900.73;-51.13575;9.373902;14514.27;10486.78;0.7324441;-0.3511338;0;
-16414.96;-13146.35;242.5417;-16898.64;-16.32157;5.010715;-17271.63;-9858.484;0.2119695;0.2339251;0;
-12045.01;-8052.184;-501.7343;-15731.7;-8.669355;4.603783;-12860.7;-5830.364;-0.0481129;0.4285921;0;
2383.831;6234.98;-1698.784;-2227.762;-8.995438;2.924583;1456.223;7793.196;0.1468375;-0.09157727;0;
1714.693;4445.127;-2953.758;-2863.234;-0.07779052;1.314176;916.8272;6254.635;0.2116573;-0.02651791;0;
19770.88;17134.36;-2797.961;18901.11;-5.235276;8.144871;20307.74;14283.44;0.2764119;0.3633128;0;
34034.24;28414.78;-1918.746;40309.13;-2.416976;9.543328;35667.12;24119.29;0.2111669;0.2330131;0;
30996.54;25832.41;-1211.985;38845.92;-0.337467;8.261064;32548.27;22160.11;0.470824;0.1028442;0;
28591.5;23433.68;110.9121;36184.5;0.5999011;8.386728;30102.62;19603.19;0.3404163;-0.02719379;0;
29715.06;24303.12;1352.739;37149.95;-3.218119;13.13397;31249.71;20252.78;-0.04972983;0.03780087;0;
14330.4;12282.41;1139.798;18093.45;-4.621405;15.39819;14661.2;10617.05;0.2101895;0.2326649;0;
-16231.3;-12926.29;204.0917;-16687.63;-1.066788;7.612942;-17075.16;-9686.75;0.145011;0.1674638;0;
-12703.77;-8667.651;-590.2767;-16380.45;0.07238392;7.002446;-13535.25;-6121.038;-0.2449388;-0.09257384;0;
864.8825;4702.045;-1814.162;-3649.894;-1.535279;6.794461;-52.36965;6822.953;-0.1797253;-0.1574482;0;
380.0692;3241.225;-3051.185;-4274.036;-1.399039;6.318754;-443.636;5256.568;-0.1145774;-0.02735528;0;
19136.6;16694.11;-2875.456;17973.06;7.71107;8.120822;19588.12;13876.34;-0.244397;0.4274436;0;
33783.54;28183.13;-1978.828;39929.54;9.981474;7.84473;35383;23922.94;-0.179184;0.3620468;0;
30732.62;25563.29;-1261.044;38584.62;15.12901;15.80769;32284.99;21883.49;-0.179004;-0.02812107;0;
28269.51;23132.15;60.34119;35854;19.66816;18.20308;29775.59;19323.78;0.1460126;-0.1580275;0;
29454.81;24049.75;1303.781;36792.46;6.520228;16.17542;30970.21;20008.6;0.4057352;0.1020007;0;
13723.59;11709.84;1079.583;17267.59;3.164774;16.62805;13998.18;10098.98;0.4053275;0.1668655;0;
-17344.02;-14025.98;131.3801;-17872.22;9.457257;14.33392;-18206.65;-10697.42;0.2100182;-0.2880736;0;
-13199.41;-9158.579;-630.6815;-16909.27;6.433645;13.04684;-14020.77;-6677.579;0.07987253;-0.3527514;0;
1336.207;5203.581;-1831.194;-3300.7;10.71409;9.818671;400.3928;7146.514;0.2097269;0.2972764;0;
775.3016;3655.253;-3100.09;-3919.368;12.37826;8.268198;-59.29427;5577.79;0.07958154;0.3619451;0;
19093.39;16652.29;-2952.517;17930.76;-4.915528;1.360892;19556.84;13821.41;-0.3103025;0.1666794;0;
33653.96;28059.12;-2060.747;39786.48;-8.393213;-2.458503;35261.27;23805.83;-0.3099907;0.3614139;0;
30601.42;25447.75;-1357.185;38435.41;-5.840161;2.835497;32149.45;21785.87;-0.1147772;0.3610508;0;
28087.22;22961.34;-55.78717;35661.53;-7.441883;1.627077;29592.42;19158.33;-0.1796292;0.03585125;0;
29224.13;23836.35;1184.302;36520.76;-3.213871;4.036706;30731.7;19808.63;-0.1144814;-0.2890215;0;
13444.25;11509.76;981.5569;16911.64;-3.947576;4.970411;13696.07;9908.837;0.2754377;-0.09382904;0;
-17727.3;-14359.56;62.21974;-18261.4;6.50524;1.214494;-18598.34;-11023.74;0.2101936;0.426004;0;
-13740.38;-9705.888;-685.4982;-17406.8;9.379092;1.280257;-14551.05;-7135.115;-0.3097563;0.03577187;0;
1052.517;4946.911;-1869.12;-3586.468;6.891421;-1.333364;130.3404;6997.423;-0.4393798;-0.09419876;0;
1011.214;3774.106;-3117.957;-3734.366;10.2334;-1.399007;184.7289;5700.524;-0.2440362;0.3606673;0;
19199.91;16573.83;-2986.202;17985.08;-8.733175;-5.014557;19657.96;13730.41;-0.243791;0.1004355;0;
33392.04;27794.23;-2127.006;39499.62;-13.88196;-6.88498;34989.79;23560.47;-0.1136114;0.1003346;0;
30316.21;25189.69;-1436.309;38135.46;-5.696341;0.6238436;31859.9;21532.58;0.1463721;0.2951358;0;
27839.72;22712.16;-130.2091;35379.27;-7.16351;0.9581314;29339.33;18924.18;0.08125772;-0.2898668;0;
29169.58;23797.41;1127.696;36464.71;-3.271546;4.708091;30678.94;19777.6;-0.04875861;0.03526114;0;
13329.59;11366.67;915.2314;16866.4;-1.929088;6.043019;13594.53;9794.724;0.2761271;0.3600625;0;
-17984.36;-14620.74;-32.43112;-18519.72;4.503212;3.35763;-18854.23;-11264.66;0.145915;-0.1600381;0;
-13476.88;-9414.409;-769.4655;-17248.37;9.92467;4.158051;-14304.74;-7032.45;-0.3090031;0.03502473;0;
1340.146;5233.677;-1945.757;-3355.404;0.4702267;-6.697057;398.7062;7060.786;0.01614414;0.09995688;0;
627.2512;3504.644;-3213.882;-4100.89;-0.334529;-10.17338;-216.4479;5442.658;0.01612792;-0.2249803;0;
18778.37;16331.33;-3080.156;17613.44;9.579769;-7.751832;19228.86;13534.09;-0.4386597;-0.09481952;0;
33202.21;27635.84;-2210.497;39336.13;9.703865;-9.28459;34801.24;23385.23;-0.3732516;-0.4195609;0;
30078.87;24956.43;-1531.959;37874.43;16.19085;-6.662987;31617.15;21322.76;-0.1779745;-0.3541721;0;
27564.65;22456.05;-250.9692;35126.47;20.39511;-5.986524;29069.29;18660.66;-0.04786099;0.03598788;0;
28771.08;23423.12;989.3159;35961.02;2.892199;-3.368174;30260.89;19422.04;-0.1127802;-0.1589503;0;
12765.51;10912.98;798.8233;16024.15;-0.05844437;-1.95827;12964.04;9362.161;0.2121698;0.1010788;0;
-18701.75;-15278.87;-112.7403;-19315.76;0.4774778;2.464571;-19605.06;-11911.4;0.08202192;0.4258139;0;
-14622.75;-10571.61;-863.8744;-18326.32;-5.015358;5.543187;-15449.21;-7764.48;-0.4377992;0.4903534;0;
21.74432;3905.992;-2045.693;-4638.37;11.93624;1.049883;-911.5924;6264.852;0.08237941;0.6197954;0;
-129.3891;2746.632;-3287.95;-4941.195;14.73729;2.187538;-969.4907;4804.538;0.2122313;0.3593033;0;
18468.24;16057.09;-3172.234;17025.79;0.7910045;-1.23079;18893.86;13285.83;-0.372688;0.0341055;0;
32927.23;27387.69;-2322.003;38905.59;-1.286871;-3.238919;34514.68;23161.67;0.01749052;0.09903857;0;
29848.36;24733.57;-1640.668;37649.89;-5.170344;5.87377;31390.56;21102.31;0.6021789;0.09893906;0;
27363.57;22258.57;-373.0304;34892.84;-9.183637;7.207527;28858.87;18475.86;0.4066719;0.09883965;0;
28669.88;23336.17;871.1255;35847.29;-8.906965;5.324763;30167.29;19349.95;0.08142659;0.03377299;0;
12542.58;10665.67;706.6136;15831.25;-10.30453;5.520361;12774.81;9120.953;-0.04858992;0.09870639;0;
-19563.06;-16142.05;-189.5525;-20139.7;-17.46148;4.778002;-20452.79;-12781.25;-0.1135084;-0.03132747;0;
-15827.82;-11748.76;-938.954;-19555.43;-19.45269;4.30432;-16666.62;-8629.445;-0.04842704;0.03367135;0;
-1148.892;2694.774;-2134.878;-5839.073;-14.87879;3.630166;-2066.83;5426.024;-0.2432804;0.4884089;0;
-1495.438;1691.866;-3390.163;-6301.081;-13.12253;4.363331;-2349.828;3849.518;-0.3080033;0.2930161;0;
17478.32;15539.7;-3253.261;15976.76;-15.18545;-4.817471;17837.23;12856.86;-0.1127918;0.03285234;0;
32716.83;27216.59;-2384.833;38645.68;-16.24191;-8.094733;34282.64;23015.65;-0.04771111;0.162754;0;
29616.21;24474.11;-1712.867;37416.48;1.189479;1.826691;31157.34;20830.16;0.2122062;0.2925252;0;
27024.82;21954.74;-439.7541;34561.44;6.68064;2.427702;28525.36;18194.95;0.2769603;0.03236186;0;
28341.04;23017.87;805.8119;35424.46;-2.03361;5.305407;29796.67;19027.8;0.1467473;-0.1625727;0;
11786.99;10064.02;620.7198;14879.8;0.647751;7.44353;11898.65;8567.978;0.536404;0.09746004;0;
-20210.63;-16707.69;-278.5147;-20854.7;-12.95056;3.952938;-21138.12;-13320.9;0.7307669;0.1623295;0;
-16098.1;-12023.42;-1017.551;-19827.19;-18.69734;4.417847;-16918.08;-8890.969;0.01539194;0.2271337;0;
-1535.736;2363.701;-2200.277;-6213.939;-1.866695;3.073749;-2447.987;5144.336;-0.1795256;0.03200344;0;
-1565.802;1501.056;-3441.566;-6448.996;-0.1898804;3.271609;-2406.484;3630.676;0.01555687;-0.09796341;0;
17655.8;15503.74;-3315.326;15870.8;-5.146183;-2.692915;17988.07;12777.94;-0.5691648;0.09703705;0;
32539.99;27027.96;-2455.644;38329.18;-3.533421;-6.307288;34088.32;22842.05;-0.4386583;-0.4227992;0;
29486.98;24378.6;-1758.588;37297.9;-7.481986;4.75099;31036.49;20743.94;0.2114559;-0.2924397;0;
27111.86;22037.54;-457.443;34593.47;-8.747266;5.817943;28603.21;18286.26;0.3411781;0.2275929;0;
28382.65;23073.35;787.8597;35477.01;1.978793;1.324363;29853.08;19096.71;0.08096595;-0.1624398;0;
11898.77;10126.8;580.2345;15046.12;5.526778;1.122083;12046.44;8613.558;0.1458519;0.03262542;0;
-20133.35;-16649.52;-339.6364;-20774.07;-1.110208;-2.228191;-21052.36;-13265.29;0.1457054;0.2274947;0;
-16205.97;-12107.56;-1084.764;-19950.54;-0.7742996;-3.36454;-17035.23;-8929.463;-0.2442451;-0.09757064;0;
-1615.621;2273.006;-2273.92;-6345.051;2.843801;-6.576279;-2535.813;5096.432;-0.308967;-0.09747259;0;
-1825.86;1429.926;-3530.065;-6700.228;3.309458;-8.043296;-2677.349;3607.604;-0.4385912;0.09752737;0;
17214.22;15338.26;-3400.644;15526.74;4.646279;-8.972914;17538.31;12657.3;-0.3731832;0.09742937;0;
32350.85;26874.62;-2531.068;38165.29;4.775332;-10.57149;33893.13;22699.3;0.01699584;-0.2924726;0;
29379.6;24253.59;-1850.116;37163.32;7.784644;-5.671234;30922.28;20619.96;-0.1129559;-0.552048;0;
26834.33;21789.92;-570.9615;34308.42;10.1887;-5.464586;28323.75;18047.18;-0.1778098;-0.3565913;0;
28253.36;22948.7;682.1077;35360.52;2.073157;-2.846761;29714.54;18976.43;0.01727093;0.03357102;0;
11884.93;10127.29;486.2079;15067.74;1.736281;-1.169449;12008.53;8594.617;0.2771229;-0.2263321;0;
-20506.58;-17013.06;-446.7494;-21147.15;3.543198;-8.134316;-21443.57;-13627.85;0.2118771;-0.485974;0;
-16457.92;-12351.69;-1195.955;-20225.6;2.601633;-9.733672;-17281.38;-9250.993;0.01676222;0.03425302;0;
-1928.535;1978.21;-2390.434;-6643.671;9.565244;-9.924841;-2836.372;4686.738;0.08171272;0.4240227;0;
-2702.177;548.2214;-3658.018;-7584.676;9.019769;-11.58938;-3550.959;2802.599;-0.2432061;0.488564;0;
16827.68;14936.24;-3519.66;15026.16;18.38783;-14.25699;17140.6;12346.36;-0.1779944;0.4231057;0;
32443.07;26985.04;-2624.603;38174.36;21.85295;-16.4531;33975.02;22808.7;-0.2427829;0.3577132;0;
29496.78;24370.01;-1876.559;37289.18;8.233337;-15.36484;31048.82;20736.96;-0.3724736;0.2274191;0;
27175.18;22154.87;-511.5464;34563.01;8.023993;-16.48805;28637.58;18431.13;0.08267205;0.09725589;0;
28758.77;23418.34;767.5436;35991.55;-5.58075;-15.39982;30264.44;19441.17;0.08258899;0.09715816;0;
12997.97;11001.57;532.9212;16607.11;-11.40327;-14.58055;13294.92;9382.009;-0.112396;0.09706054;0;
-19286.09;-15922.04;-444.061;-19781.3;-2.616924;-18.91973;-20166.36;-12600.45;0.2125536;-0.03297167;0;
-15881.56;-11730.94;-1187.866;-19681.72;-5.15989;-18.76675;-16741.78;-8801.74;0.3422747;-0.3577752;0;
-1329.233;2576.057;-2364.33;-6056.241;8.710396;-19.55163;-2262.27;5083.972;-0.04787324;-0.03257905;0;
-2117.812;1134.036;-3649.37;-6959.417;13.52442;-19.79992;-2996.189;3403.721;-0.1127925;0.4871924;0;
16967.83;15115.4;-3505.648;15415.04;6.277157;-13.48381;17306.77;12547;0.08222288;-0.09800319;0;
32549.33;27119.06;-2597.674;38382.65;8.414304;-11.52776;34092.39;22934.65;-0.3076638;-0.2278394;0;
29575.07;24444.27;-1895.135;37320.46;5.123319;-9.439763;31115.52;20824.94;-0.4372893;0.616965;0;
27138.58;22145.08;-576.2986;34525.73;5.18552;-7.286886;28599.18;18436.76;-0.3069153;0.421443;0;
28750.94;23401.27;698.5462;35993.58;0.9607509;-7.413529;30261.39;19421.01;-0.1766722;-0.2936212;0;
13043.61;11013.55;472.8324;16707.98;-2.724886;-6.602285;13375.06;9451.018;0.2133094;-0.0334568;0;
-18674.64;-15340.75;-494.9377;-19215.71;9.803782;-6.662634;-19544.31;-11990.22;0.1481277;0.03154416;0;
-14821.54;-10673.84;-1244.157;-18671.32;11.93739;-6.65594;-15692.66;-8095.813;0.08301153;-0.09842222;0;
126.7074;4126.808;-2420.315;-4661.874;4.490651;-10.40024;-836.1763;6184.647;0.4727322;0.1615461;0;
253.2508;3002.818;-3669.942;-4611.557;4.083998;-12.66714;-583.4783;4908.728;0.2773551;0.4862204;0;
18627.92;15952.4;-3532.821;17371.08;4.95055;-10.91292;19108.6;13118.59;-0.1127276;0.4857319;0;
32556.98;27032.51;-2675.357;38589.4;5.347717;-12.30854;34141.93;22875.98;0.01732036;0.09543975;0;
29446.15;24415.34;-1966.086;37137.09;-0.2173615;-12.63108;30959.36;20827.07;0.2771723;-0.03459083;0;
27110.8;22071.49;-625.9396;34511.65;-2.762738;-12.21649;28579.54;18352.49;0.4068285;-0.09952341;0;
28365.44;23060.08;635.9929;35604.17;4.742126;-18.23256;29864.54;19110.16;0.1465503;-0.4892274;0;
13078.72;11045.77;429.2075;16630.13;5.206851;-18.81702;13376.74;9446.118;0.2113704;-0.6186705;0;
-18046.58;-14709.33;-506.7848;-18672.65;5.670134;-19.267;-18937.84;-11355.92;0.5359948;-0.2282449;0;
-14474.14;-10315.67;-1275.295;-18331.68;7.80789;-20.65428;-15342.08;-7761.282;-0.2441519;0.09682117;0;
604.9722;4595.829;-2472.474;-4265.645;-0.3716285;-11.2561;-356.6686;6545.095;-0.6337106;0.2916259;0;
872.1516;3697.613;-3714.583;-4033.239;-2.44736;-9.637259;13.62883;5535.866;-0.04836781;0.3563002;0;
18538.54;15989.37;-3553.929;17386.8;4.386626;-6.546422;19000.35;13138.98;0.1465828;0.4858769;0;
32461.88;26971.15;-2656.682;38509.67;5.051804;-3.257741;34043.14;22824.14;0.01650085;0.2904867;0;
29489.18;24451.21;-1949.648;37148.84;3.506486;-13.36871;31000.87;20879.57;0.01648427;0.1602601;0;
26906.9;21883.16;-638.1287;34302.84;3.971478;-15.16375;28373.46;18173.79;-0.04849964;0.6148705;0;
28304.08;23011.86;638.746;35533.09;6.915224;-15.34947;29793.96;19074.24;-0.1134182;0.2244486;0;
12962.96;11007.83;442.7024;16566.54;10.12346;-18.21425;13233.04;9422.897;0.2115324;-0.1006137;0;
-18402.15;-15007.53;-503.1423;-18990.05;2.342776;-14.51194;-19313.03;-11635.87;0.2762872;0.2892915;0;
-14716.48;-10554.96;-1248.543;-18590.47;1.537115;-14.89926;-15584.8;-8008.053;0.01614024;0.09409879;0;
637.4999;4649.599;-2409.517;-4267.625;14.99853;-16.5588;-351.9194;6592.486;0.08109136;-0.1008978;0;
1075.514;3776.02;-3641.569;-3826.306;19.0693;-15.4705;203.3115;5653.612;0.2759119;0.09410562;0;
18688.38;15956.43;-3492.014;17584.89;17.44254;-22.48798;19185.74;13133.84;0.1457;0.3538804;0;
32372.98;26883.77;-2612.633;38427.45;18.63144;-24.74274;33965.25;22743.57;-0.2442505;0.5484269;0;
29383.62;24373.82;-1906.456;37025.41;24.57359;-15.47448;30890.31;20810.96;-0.1140704;0.1580718;0;
26989.66;21973.72;-573.8964;34343.07;25.01742;-14.32022;28451.83;18275.1;0.01597894;-0.1019564;0;
28467.74;23180.9;706.3184;35729.21;25.32805;-11.55959;29972.58;19248.59;-0.04900445;0.2229827;0;
13246.36;11178.51;486.4375;17015.88;25.57004;-8.064986;13586.97;9546.759;0.1459468;0.02785664;0;
-18087.22;-14750.43;-480.8465;-18608.55;11.94767;-16.96537;-18962.8;-11417.47;0.3407022;-0.2970081;0;
-14693.71;-10508.24;-1239.201;-18570.58;6.91182;-18.221;-15575.59;-7927.717;0.2104252;0.09309442;0;
-4.478925;4004.768;-2415.957;-4824.367;3.354902;-11.90641;-967.1203;5987.18;0.0153117;0.02803354;0;
62.97605;2919.521;-3658.154;-4848.567;-1.940731;-11.82747;-790.2526;4841.471;-0.1796057;0.09297272;0;
18215.05;15678.33;-3501.711;16970.25;3.554551;-10.27504;18678.87;12899.82;-0.1144579;0.417716;0;
32312.53;26838.88;-2618.573;38307.48;4.756428;-9.393935;33889.44;22700.63;0.01559179;0.1574269;0;
29197.32;24186.92;-1931.129;36838.91;-5.296035;-12.19772;30707.92;20638.91;-0.1143586;0.02733405;0;
26725.1;21728.67;-619.4409;34069.44;-7.299469;-12.52038;28188.99;18031.28;-0.4390804;0.287176;0;
28166.41;22894.33;682.3712;35410.06;5.902405;-12.17288;29666.13;18975.35;-0.6985085;0.09198537;0;
13074.88;11076.38;516.7997;16782.71;8.509418;-11.69177;13389;9476.283;-0.5029047;-0.1679764;0;
-18396.58;-15007.5;-429.7128;-18922.93;10.50962;-15.431;-19276.38;-11671.41;-0.1775626;-0.1028403;0;
-15502.99;-11298.76;-1205.828;-19340.01;13.58052;-16.55415;-16368.43;-8444.58;-0.1124169;-0.3626063;0;
-482.7245;3546.539;-2387.178;-5320.862;7.87345;-11.179;-1435.656;5924.968;-0.04733656;-0.03740527;0;
141.6344;2964.407;-3632.621;-4817.329;6.861161;-10.23007;-725.3511;4980.751;-0.04728899;0.2225017;0;
18066.7;15477.87;-3508.063;16786.84;6.318403;-8.411251;18488.99;12707.74;0.2775952;0.02737608;0;
32009;26539.25;-2648;37986.87;4.302322;-6.393372;33567.12;22432.57;0.3422836;0.1572833;0;
28945.25;23951.82;-1963.557;36573.32;4.365348;-10.94167;30458.54;20394.7;-0.1128317;0.2870599;0;
26449.38;21465.84;-677.6982;33800.29;4.695755;-12.87318;27906.24;17794.02;-0.242653;0.2218041;0;
27868.87;22603.53;570.8867;35016.26;-2.275188;-3.750746;29364.78;18689.03;0.2123622;-0.1682228;0;
12674.88;10679.21;367.6337;16130.92;-2.942488;-1.938438;12985.6;9128.091;0.1471815;-0.1680538;0;
-18603.47;-15225.68;-583.6952;-19285.71;0.7441642;-12.31866;-19496.05;-11822.06;-0.5026398;0.3518538;0;
-15202.09;-11014.52;-1339.978;-19075.35;1.011836;-14.11476;-16083.18;-8408.34;-0.3722001;0.286533;0;
406.1173;4429.258;-2484.4;-4554.128;10.92381;-14.50248;-591.3941;6381.351;0.3428147;0.4161797;0;
1278.599;3972.535;-3700.447;-3699.651;12.78786;-15.55963;406.5582;5735.948;0.2775029;0.1558922;0;
18598.89;15863.86;-3575.321;17515.28;22.55428;-15.6779;19100.24;12985.99;0.3421914;-0.2340685;0;
31999.05;26539.61;-2739.772;38050.63;28.22504;-15.52824;33584.38;22435.94;0.4717822;-0.4287353;0;
28960.3;23986.98;-2084.597;36544.46;14.53265;-13.10126;30454.55;20453.19;0.1464715;-0.5582392;0;
26375;21390.09;-801.646;33699.39;15.58978;-12.48531;27832.44;17715.13;-0.1135451;0.0919951;0;
27850.07;22597.84;477.6106;35056.66;5.593777;-3.698179;29341.83;18703.2;-0.1783983;0.2868047;0;
12928.73;10931.75;292.3486;16597.88;2.306602;0.2574075;13252.17;9305.807;0.406487;0.1565818;0;
-18545.4;-15130.23;-668.0563;-19130.99;12.0162;-3.091876;-19420.31;-11793.61;0.6009805;0.4162939;0;
-15586.21;-11354.94;-1429.346;-19492.78;12.13785;-1.146386;-16463.2;-8557.822;0.2105727;-0.1688305;0;
-451.5891;3596.09;-2588.514;-5390.44;23.24506;-5.231071;-1435.934;5843.995;0.08042641;-0.2985955;0;
201.4585;2973.771;-3830.756;-4766.195;25.76632;-7.034293;-651.3384;4947.336;-0.2444911;0.2214432;0;
18144.69;15472.76;-3706.717;17018.8;34.51532;-2.003566;18646.16;12707.71;-0.3092128;0.2212207;0;
31954.27;26498.01;-2856.106;37968.74;38.56647;-2.805348;33530.44;22396.64;0.275804;-0.03887096;0;
28762.33;23799.48;-2193.973;36330.82;29.95391;-3.874256;30255.78;20273.8;0.4704289;0.1560701;0;
26329;21354.41;-903.2916;33612.11;31.06289;-4.94209;27773.53;17690.47;0.3400215;0.3508154;0;
27879.75;22640.29;382.9387;35071.3;8.525411;-7.817329;29380.91;18747.14;0.2097452;0.02562612;0;
13044.57;11016.86;203.6751;16750.3;-0.5918589;-9.216055;13415.93;9401.352;0.07959974;-0.1693016;0;
-18227.92;-14844.95;-751.6744;-18811.83;6.977197;-12.95772;-19105.74;-11522.47;0.2094544;-0.1691315;0;
-15995;-11756.16;-1539.46;-19883.54;0.8082446;-14.01642;-16913.05;-8758.169;0.3391787;-0.2339289;0;
-1888.054;2133.102;-2726.972;-6737.515;10.05083;-18.49007;-2876.467;4679.256;-0.0509662;0.02617549;0;
-1037.443;1873.869;-3959.642;-6107.948;10.50925;-20.414;-1922.321;3922.354;-0.5056864;0.02614919;0;
17605.24;15170.74;-3829.321;16165.75;2.862879;-15.23592;18040.59;12426.31;-0.1803416;-0.2987138;0;
31711.03;26284.82;-2984.177;37589.77;1.921997;-15.35458;33269.82;22208.16;-0.115193;-0.03854428;0;
28560.11;23585.77;-2325.477;36145.49;-4.174527;-8.37305;30053.18;20050.89;-0.439914;0.09142913;0;
26030.06;21081.96;-1045.782;33307.05;-6.247414;-5.551414;27470.85;17440.84;0.01529945;-0.2334995;0;
27554.07;22314.93;236.6555;34720.11;-11.19763;-10.36849;29034.45;18417.38;0.1452188;-0.0383628;0;
12581.44;10629.98;65.97213;16172.15;-12.72662;-10.49203;12886.36;9052.434;0.01513816;-0.2981936;0;
-18587.57;-15165.85;-870.03;-19294.05;-17.8714;-12.55796;-19489.61;-11814.24;-0.04984439;-0.2329267;0;
-15665.92;-11425.05;-1636.364;-19608.04;-21.80555;-14.28684;-16560.77;-8601.526;-0.1147617;0.3520135;0;
-765.9864;3297.536;-2815.657;-5740.94;-4.434941;-16.68381;-1769.388;5620.551;-0.1146463;0.2217251;0;
393.4821;3078.143;-4038.93;-4679.905;-0.9478603;-18.74345;-480.6948;4953.86;0.2103056;0.156535;0;
18320.64;15577.38;-3903.313;17169.72;-3.626225;-20.80103;18813.36;12719.32;0.3400289;0.02644298;0;
31702.18;26278.91;-3056.846;37727.97;-1.144335;-22.18677;33277.16;22218.09;0.01485057;-0.2984203;0;
28674.19;23731.17;-2371.524;36202.25;-3.621432;-23.63804;30163.05;20222.3;-0.0501317;0.02671626;0;
26119.18;21165.37;-1077.04;33397.55;-1.541688;-25.02093;27559.38;17521.19;-0.1150487;-0.03827792;0;
27483.6;22259.93;190.8427;34648.11;-12.12271;-20.57498;28979.96;18387.53;-0.2448677;-0.03823946;0;
12939.18;10876.9;23.70363;16522.65;-14.65613;-20.0185;13282.11;9274.734;-0.114687;0.2866357;0;
-18106.2;-14735.9;-919.6585;-18776.14;-7.876244;-17.58706;-19001.71;-11408.38;0.2102649;-0.2983584;0;
-16011.65;-11737.15;-1717.708;-19864.67;-9.073779;-14.95712;-16907.27;-8701.726;0.275021;-0.4279933;0;
-1881.59;2195.861;-2909.445;-6754.6;1.852703;-23.18074;-2876.853;4773.359;-0.05009206;0.09217548;0;
-603.9036;2188.501;-4124.94;-5688.392;4.463786;-24.22918;-1479.881;4102.834;-0.1150091;0.2869849;0;
17953.08;15297.42;-3966.279;16683.66;4.4593;-21.59256;18439.45;12453.62;-0.04992617;0.2866965;0;
31577.79;26146.05;-3106.911;37538.7;6.799344;-22.77649;33139.53;22114.82;0.08005869;0.3513758;0;
28376.9;23442.73;-2433.407;35920.42;-0.8432981;-15.2517;29863.67;19925.61;0.07997824;0.3510227;0;
25813.15;20881.3;-1128.555;33064.13;-1.043522;-12.22227;27247.57;17255.41;0.2098326;-0.03913404;0;
27413.05;22186.34;178.2981;34578.76;-12.56403;-21.85529;28905.44;18315.81;0.7293604;-0.1690294;0;
12923.64;10820.11;20.41693;16597.64;-18.64599;-23.77577;13292.39;9203.087;0.6636602;-0.1038922;0;
-18351.68;-15026.9;-933.1868;-18997.39;-6.437097;-15.71411;-19247.11;-11703.61;0.2731893;-0.4935918;0;
-16003.57;-11728.35;-1711.357;-19944.17;-7.233936;-14.89459;-16934.39;-8830.803;0.1429802;-0.2981939;0;
-1183.868;2889.941;-2882.673;-6182.18;-4.346279;-18.42959;-2202.705;5281.528;0.07786915;0.2218445;0;
80.0463;2794.287;-4098.727;-4997.107;-1.4625;-18.61203;-805.6774;4686.174;-0.05214377;0.2216216;0;
18113.95;15408.76;-3940.748;17025.88;-10.56973;-21.67448;18612.01;12577.56;-0.6367974;-0.1684052;0;
31584.59;26178.45;-3082.28;37611.84;-11.09498;-23.19324;33156.73;22135.28;-0.5711902;-0.2981707;0;
28428.3;23509.37;-2408.208;35903.95;-9.342515;-23.90675;29901.08;20007.62;0.4038938;0.1569004;0;
25846.96;20921.77;-1102.662;33101.76;-9.400477;-26.16009;27284.68;17294.74;0.403488;0.09177536;0;
27225.78;22021.79;181.8946;34316.07;-10.39541;-22.38288;28700.05;18157.56;-0.1816235;-0.03825155;0;
12735.82;10714.49;12.42195;16168.15;-11.99255;-22.29341;13025.03;9129.188;0.1433957;0.2866236;0;
-17968.71;-14567.84;-920.4654;-18758.56;-2.268589;-26.89271;-18905.45;-11239.5;0.01331691;0.02646623;0;
-15793.32;-11497.73;-1714.11;-19722.92;0.4803567;-27.66942;-16720.83;-8568.046;-0.6363699;-0.2983971;0;
-1804.002;2307.963;-2910.535;-6798.482;-6.218907;-29.65111;-2833.996;4788.479;-0.6357304;0.02673947;0;
-373.8758;2294.868;-4110.756;-5516.495;-5.609446;-29.82226;-1263.577;4216.796;-0.4401897;0.0267126;0;
18172.76;15361.93;-3924.155;16976.23;-8.014708;-32.94037;18658.74;12522.46;-0.1149106;-0.1032489;0;
31584.93;26175.16;-3013.074;37551.27;-8.141352;-33.84504;33137.63;22145.02;0.2100415;-0.1681125;0;
28382.09;23483.18;-2304.089;35849.86;-8.802756;-27.11292;29847.76;19974.13;-0.05003889;-0.1029763;0;
25713.71;20789.82;-1009.142;32927.07;-9.932012;-25.14317;27131.69;17168.24;-0.3748253;0.2219639;0;
27137.28;21944.12;297.4657;34255.74;-0.4785363;-22.2377;28609.7;18079.09;-0.5043834;0.4816103;0;
12846.14;10792.95;182.7243;16423.44;2.06754;-19.33521;13155.22;9179.196;-0.1790399;0.1562896;0;
-17975.91;-14597.47;-712.322;-18757.75;2.601326;-17.97612;-18954.05;-11301.74;0.3408788;-0.2336715;0;
-15505.45;-11208.61;-1491.777;-19555.62;5.680171;-15.41277;-16510.54;-8524.521;0.4055036;0.02643269;0;
-1483.149;2627.566;-2714.912;-6531.502;0.9854143;-16.1341;-2570.337;4819.029;0.2101941;0.4162102;0;
-846.2755;1949.344;-3935.694;-5963.924;0.8507023;-14.84521;-1801.296;3919.778;0.0150809;0.3508247;0;
17775.32;15131.65;-3719.471;16650.64;2.457438;-13.89259;18209.24;12380.15;-0.1798363;0.2855048;0;
31649.46;26261.36;-2811.22;37635.87;1.315893;-13.34277;33183.78;22198.55;-0.1146882;-0.1045861;0;
28355.8;23449.25;-2122.458;35786.29;5.869898;-10.58312;29800.78;19942.41;0.08032902;-0.2344157;0;
25751.54;20846.53;-805.6118;32939.65;6.265165;-9.90266;27148.17;17209.97;-0.04968638;0.2855586;0;
27135.62;21948.38;494.4509;34241.46;3.24476;-6.811556;28588.18;18074.02;0.1452656;0.1553369;0;
12919.97;10889.87;326.382;16451.54;3.107778;-5.264166;13162.93;9244.395;0.5349237;-0.1696559;0;
-17515.8;-14133.67;-616.5034;-18406.74;-0.2442473;-8.206064;-18604.01;-10929.76;0.07961477;0.2203187;0;
-15276.76;-10985.37;-1407.111;-19420.08;-0.6461435;-8.733683;-16387.86;-8328.266;-0.1153672;0.09016259;0;
-1542.427;2583.786;-2613.746;-6658.492;-3.793326;-9.260709;-2732.714;4746.144;0.4044874;-0.2347647;0;
-701.674;2040.243;-3826.572;-5934.396;-5.129661;-11.12693;-1747.962;3895.472;0.01427693;0.09030789;0;
17785.74;15050.54;-3633.291;16524.63;0.6362693;-7.900626;18170.24;12234.68;-0.4405088;-0.2346196;0;
31366.89;25981.53;-2752.831;37291.9;1.439913;-7.222858;32879.42;21913.79;-0.1801968;-0.2993512;0;
28144.65;23261.1;-2059.099;35552.21;8.337342;-16.59303;29565.98;19742.87;-0.5048525;0.155721;0;
25512.68;20607.44;-735.1635;32657.42;12.54852;-18.71975;26881.47;16955.71;-0.3744105;-0.03933747;0;
26992.04;21820.15;580.3518;34086.32;7.512073;-17.62921;28424.64;17943.12;0.2106718;-0.2342;0;
12996.5;10888.44;442.369;16554.45;9.112115;-19.01814;13209.06;9177.124;0.3403948;0.09087206;0;
-17877.41;-14518.33;-506.1302;-18756.94;8.768167;-15.71693;-19035.3;-11406.41;0.5349548;0.2207154;0;
-15956.37;-11616.16;-1300.254;-20156.4;8.156144;-15.56717;-17153.15;-8838.345;0.2095805;0.02559164;0;
-2683.125;1416.623;-2491.129;-7799.972;12.97072;-12.67132;-3939.254;3731.878;-0.1804341;-0.1693361;0;
-2580.417;492.773;-3711.73;-7922.085;12.55652;-10.71615;-3712.112;2376.839;-0.1802528;-0.1041986;0;
16679.84;14400.04;-3518.814;15016.71;15.89281;-16.06389;16969.29;11631.2;-0.245039;0.4156448;0;
31253.62;25898.53;-2615.199;36980.09;17.28336;-16.98545;32740.74;21839.74;-0.1798255;0.4152272;0;
27996.87;23091.19;-1918.233;35422.4;7.620449;-15.42784;29413.9;19563.27;0.1451919;-0.03996143;0;
25461.83;20595.29;-595.1262;32549.68;5.804131;-16.01518;26822.24;16952.1;0.01511137;-0.169856;0;
27078.03;21904.83;727.0887;34143.97;4.391779;-17.74058;28501.84;18028.27;-0.1148385;-0.29962;0;
12964.57;10849.12;570.2178;16450.84;2.847125;-18.66052;13113.45;9128.433;0.2101136;-0.2343516;0;
-18112.98;-14783.53;-390.1227;-19078.67;1.504117;-17.83797;-19339.38;-11680.99;0.01500045;-0.1041814;0;
-16417.31;-12058.16;-1172.056;-20638.46;-1.042014;-17.41815;-17631.49;-9271.986;-0.3748187;0.0908253;0;
-3416.281;711.6367;-2360.125;-8462.297;7.331778;-19.74499;-4636.078;3088.622;-0.04960534;0.5455055;0;
-3545.797;-314.5785;-3593.632;-8858.294;6.988642;-19.65817;-4670.868;1776.426;-0.0495555;0.4150226;0;
16067.21;14019.02;-3401.241;14205.63;10.26415;-19.43747;16292.09;11412.92;-0.114473;0.08976889;0;
31204.79;25882.46;-2488.811;36786.73;12.66473;-20.08777;32669.73;21817.8;0.2104787;0.1546461;0;
27987.6;23075.54;-1800.687;35426.96;-3.691339;-11.89585;29419.92;19555.34;0.2752345;0.0895233;0;
25410.65;20566.74;-492.8149;32510.02;-7.036533;-9.204638;26771.46;16952.02;0.08005595;0.02446601;0;
26822.86;21655.14;804.7783;33823.99;-10.78051;-15.82658;28245.41;17782.64;0.07997551;0.08940876;0;
12227.34;10277.22;638.5528;15583.45;-15.05658;-16.74837;12400.86;8637.55;0.1448625;0.08931892;0;
-18691;-15225.97;-297.1188;-19693.38;-12.02734;-14.18626;-19839.87;-12035.54;-0.2450871;-0.04070551;0;
-16179.85;-11822.43;-1064.466;-20417.09;-14.62723;-14.77485;-17331.25;-9118.125;-0.1798735;-0.2355666;0;
-2145.202;1996.304;-2251.237;-7337.919;-6.373506;-17.57322;-3359.412;4249.869;0.1451439;-0.0404279;0;
-1931.247;1093.267;-3484.51;-7242.153;-4.492068;-18.69427;-3025.343;3087.478;-0.1148713;0.02458006;0;
16709.65;14391.73;-3305.971;15163.63;-7.501664;-22.0915;17011.21;11699.86;-0.2446905;0.0895227;0;
31092.11;25767.78;-2413.378;36866.71;-5.618116;-24.41364;32592.99;21725.59;-0.04954264;0.1544001;0;
27805.36;22930.32;-1742.32;35216.18;-12.17655;-22.98253;29244.47;19455.53;-0.1144602;-0.2355591;0;
25059.32;20209.15;-461.7435;32200.4;-11.89688;-24.16507;26447.35;16605.28;-0.5041493;-0.4951918;0;
26404.92;21270.81;819.358;33378.89;-18.71742;-22.13136;27837.83;17439.66;-0.2437733;-0.8195309;0;
11929.84;10045.43;673.3889;15157.76;-22.71711;-20.83651;12120.56;8497.205;0.08130835;-0.6238054;0;
-18838.56;-15318.06;-257.1328;-19840.6;-7.690103;-27.51368;-19900.53;-11985.71;0.08122665;0.1564295;0;
-16542.81;-12170.58;-1055.723;-20682.34;-6.275856;-28.4238;-17579.85;-9217.118;0.1461124;0.09130496;0;
-2945.575;1215.611;-2257.558;-8023.742;-3.925025;-25.649;-4051.382;3767.965;-0.1788711;0.2211479;0;
-2590.167;468.4828;-3490.512;-7870.534;-1.309113;-25.89116;-3579.593;2664.013;-0.3735934;0.2858931;0;
16438.36;14144.64;-3317.902;14786.75;-6.264291;-21.44433;16794.51;11549.49;-0.1133487;-0.1041983;0;
30882.84;25566.83;-2431.012;36596.93;-4.784128;-19.68129;32396.94;21554.13;-0.04826745;-0.2340283;0;
27609.84;22748.59;-1769.713;35023.82;-16.0998;-22.2068;29066.36;19295.63;0.01674839;0.09104359;0;
24874.91;20028.73;-504.1954;32027.52;-19.43253;-22.25147;26280.13;16455.87;0.0816989;0.4807562;0;
26151.44;21035.64;767.5159;33069.55;-12.64785;-20.82253;27594.29;17231.65;-0.04831787;0.0255017;0;
11526.84;9684.493;628.2206;14639.07;-13.171;-21.13646;11762.87;8175.817;0.2765674;0.02547608;0;
-19390.07;-15824.66;-287.1696;-20361.79;-7.196897;-19.97658;-20372.81;-12409.93;0.2113221;0.4802219;0;
-16859.92;-12475.38;-1070.206;-20921.43;-5.179934;-18.54986;-17840.19;-9435.621;-0.3086289;0.02496795;0;
-3559.91;581.361;-2264.905;-8527.971;-1.758477;-27.7077;-4603.911;3188.785;-0.04844944;0.1548776;0;
-4002.89;-713.3227;-3515.249;-9154.973;1.056329;-29.82326;-4951.404;1618.025;0.01656658;0.1547219;0;
15560.75;13595.59;-3351.173;13811.89;-0.6860449;-22.69328;15891.66;11118.29;0.01654993;0.2195338;0;
30897.49;25619.04;-2446.384;36507.82;1.123306;-21.53177;32400.59;21610.27;0.34137;0.6091173;0;
27609.82;22724;-1783.258;35044.8;-3.365802;-19.56769;29077.98;19284.46;0.01619029;0.2187012;0;
24854.79;20038.23;-514.6025;31969.45;-3.36242;-17.87351;26258.65;16486.23;-0.5035647;0.2834488;0;
26344.74;21218.24;778.14;33316.61;-6.4405;-13.83664;27795.42;17422.54;-0.3081567;0.3481313;0;
11728.87;9863.491;622.3111;15036.98;-9.247067;-11.54538;11978.04;8346.357;0.1469243;-0.3018919;0;
-19589.32;-16043.45;-327.3997;-20458.51;1.948008;-12.94042;-20557.86;-12623.1;-0.1130927;-0.3015886;0;
-17293.42;-12902.34;-1114.206;-21372.58;2.280843;-12.72647;-18255.74;-9817.026;-0.4378157;0.1534858;0;
-3860.005;294.0942;-2301.396;-8822.622;7.770907;-12.91463;-4884.604;2948.427;-0.3074411;0.413201;0;
-4246.102;-941.877;-3538.71;-9408.583;11.78256;-13.57142;-5152.981;1459.945;0.01770449;0.02298175;0;
15387.52;13425.94;-3363.241;13548.9;-4.104109;-17.30877;15772.15;11006.19;-0.04728064;-0.106976;0;
30742.47;25453.91;-2458.346;36294.81;-6.711954;-19.43477;32264.32;21454.35;-0.1122005;0.3479029;0;
27357.34;22491.78;-1791.397;34794.02;-8.045356;-20.7549;28820.6;19056.42;0.212749;0.02271657;0;
24595.15;19782.16;-535.8524;31736.98;-12.25683;-22.87744;26011.85;16249.03;0.1475679;-0.2371756;0;
25895.46;20790.45;727.9886;32758.55;-4.608705;-23.39025;27325.41;16992.54;0.08245225;0.1528668;0;
11080.83;9378.912;595.3547;14083.41;-4.000861;-24.77339;11264.23;7867.36;0.4072061;0.0877458;0;
-19759.59;-16114.8;-294.609;-20803.07;-6.877229;-23.20795;-20743.41;-12697.85;0.2118949;-0.1722117;0;
-16998.07;-12621.84;-1057.18;-21074.59;-5.597521;-22.11291;-17941.56;-9659.755;0.1467147;-0.237006;0;
-3173.524;1017.294;-2240.99;-8222.142;-8.070144;-27.78411;-4197.85;3521.503;0.471404;-0.2367679;0;
-3097.387;52.41296;-3478.365;-8303.616;-7.860964;-28.09111;-4014.597;2312.43;0.1460936;0.02333938;0;
15899.88;13713.54;-3316.419;14243.04;-3.499784;-25.31665;16265.09;11180.57;-0.2438573;-0.1066188;0;
30562.87;25281.38;-2420.067;36238.59;-2.357192;-25.42517;32079.45;21293.84;-0.1136776;-0.366381;0;
27275.45;22433.03;-1756.78;34676.82;0.9940792;-17.69677;28743.03;19021.26;-0.243498;-0.04117614;0;
24475.77;19655.81;-494.5855;31593.25;3.069185;-14.79879;25882.77;16112.92;-0.4381554;0.02383257;0;
25850.41;20761.65;789.1727;32759.19;-0.2154524;-18.60182;27287.69;16989.32;-0.3077804;-0.1061261;0;
11106.69;9358.328;641.7034;14253.6;-1.22059;-18.58313;11321.13;7911.54;-0.4374059;-0.1709868;0;
-20037.12;-16410.39;-278.1668;-20994.99;3.134893;-16.95693;-21015.64;-12919.22;-0.3070317;-0.1708149;0;
-17186.42;-12795.81;-1040.067;-21315.97;3.600258;-17.34179;-18142.32;-9773.521;0.08308089;0.4140628;0;
-3226.255;949.7575;-2237.357;-8311.973;-2.364231;-18.79792;-4269.132;3514.142;0.08299741;0.4786141;0;
-3636.555;-370.5961;-3497.818;-8859.294;-3.702002;-18.64507;-4594.458;1980.755;0.1478814;-0.0416056;0;
15409.5;13393.94;-3327.887;13662.95;-7.583048;-24.52071;15740.92;10929.2;0.08276542;0.02340355;0;
30573.65;25315.21;-2412.876;36170.65;-10.52219;-25.36685;32076.53;21325.93;-0.1771871;-0.1065546;0;
27381.02;22523.12;-1735.197;34767.88;-6.224709;-24.60455;28840.11;19111.66;-0.04707438;-0.3013496;0;
24526.61;19733.63;-484.3941;31634.32;-6.353153;-25.24966;25922.96;16200.66;0.4727117;-0.4959488;0;
25807.64;20705.44;774.6475;32693.73;-7.753288;-15.84686;27247.65;16931.84;0.537204;-0.5604178;0;
11214;9369.279;628.942;14279.09;-7.410705;-13.28565;11428.5;7892.172;0.2118275;-0.235018;0;
-19918.94;-16367.53;-296.6938;-20967.6;-6.465254;-8.114732;-20937.12;-12923.99;-0.0482547;-0.2997492;0;
-17340.51;-12945.64;-1073.693;-21515.65;-4.717445;-3.283929;-18353.16;-9926.641;-0.1131736;-0.104546;0;
-3235.897;939.3941;-2256.644;-8385.914;-10.20506;-10.31365;-4341.115;3490.251;-0.1780272;0.4152978;0;
-3463.67;-260.3535;-3508.496;-8745.193;-12.27091;-9.365591;-4485.663;2036.863;-0.5676523;0.3499132;0;
15412.95;13325.06;-3367.477;13658.82;-3.349975;-9.691095;15707.29;10832.82;-0.6320493;0.2845942;0;
30444.35;25181.69;-2478.788;36032.58;-3.615028;-10.82001;31930.74;21191.25;0.01825919;0.2193409;0;
27246.28;22412.29;-1803.042;34593.73;3.354829;-4.178007;28688.23;18990.12;0.2131429;-0.1057162;0;
24468.37;19671.55;-538.7401;31535.9;8.843815;-3.236048;25853.15;16130.76;-0.30681;-0.4304467;0;
25759.38;20682.3;723.5108;32611;-15.3453;-2.295096;27173.98;16902.37;-0.2415344;-0.3650468;0;
10899.93;9151.71;547.4033;13927.17;-20.15265;-0.7521828;11043.61;7678.548;0.1485123;-0.2997127;0;
-20060.48;-16442.56;-392.1123;-21188.34;-11.29017;-4.03353;-21164.8;-13036.65;-0.3064083;-0.1694769;0;
-16969.57;-12575.66;-1179.322;-21265.08;-14.96349;-4.163443;-18057.1;-9786.208;-0.1761657;-0.1043392;0;
-3150;1041.665;-2407.332;-8384.532;1.998101;-3.288481;-4329.147;3337.565;0.08388067;-0.4290711;0;
-3811.423;-559.1555;-3674.837;-9158.417;7.890591;-3.151211;-4900.836;1698.393;-0.2410403;-0.2337379;0;
15253.54;13211.73;-3506.884;13427.56;-7.7911;-3.817874;15507.19;10741.17;-0.3057655;0.351203;0;
30453.83;25203.44;-2592.943;36006.84;-6.912615;-4.014987;31921.6;21196.09;-0.3704256;0.2858828;0;
27269.02;22429.79;-1896.217;34592.18;-4.762216;-2.001525;28689.09;19003.58;0.01975068;0.2206282;0;
24479.71;19701.1;-622.0452;31535.08;-2.480255;-1.932531;25842.29;16147.96;0.4095349;-0.1693976;0;
25652.47;20569.08;635.6667;32473.14;-4.88866;0.3468304;27050.72;16779.71;0.08428667;-0.299162;0;
11052.83;9239.751;479.9184;13962.89;-5.821753;1.150277;11166.38;7707.913;0.279104;-0.1689268;0;
-19634.53;-16055.15;-439.3207;-20866.71;11.3981;0.2783431;-20798.21;-12741.73;0.1488889;-0.4935937;0;
-17026.1;-12614.57;-1238.79;-21355.77;13.86489;1.148842;-18184.54;-9757.7;-0.3709995;-0.1682611;0;
-3337.692;858.4658;-2463.241;-8614.316;22.15733;-4.880716;-4580.38;3241.325;-0.435594;0.1567447;0;
-3542.452;-344.0116;-3722.164;-9027.449;27.15794;-7.019204;-4714.692;1803.461;-0.2402543;-0.1682495;0;
15309.18;13206.62;-3577.807;13253.74;9.581852;-1.787605;15481.04;10648.08;-0.1100782;0.2217236;0;
30190.71;24942.52;-2685.377;35633.24;6.089599;-1.383911;31634.9;20951.9;0.2148691;0.4813702;0;
27120.91;22306.25;-2000.272;34462.07;-0.9500936;-4.865572;28540.26;18869.96;0.4095552;0.2859845;0;
24232.81;19442.85;-752.0759;31231.64;-7.17843;-6.401229;25577.4;15892.91;-0.04562769;0.2207298;0;
25504.75;20448.59;497.8643;32406.44;-9.984256;-0.3664555;26895.01;16657.67;-0.04558184;-0.2992307;0;
10964.93;9240.574;339.3185;14172.09;-15.39923;0.6386567;11069.51;7657.807;0.08439864;-0.6887341;0;
-20332.65;-16691.04;-608.0151;-21445.33;-10.62834;-4.050729;-21524.96;-13419;-0.04562084;-0.103336;0;
-17485.75;-13064.74;-1404.441;-21908.67;-10.95245;-4.247608;-18653.54;-10312.52;-0.1755097;-0.03826481;0;
-3153.13;1053.689;-2620.449;-8488.997;-12.7501;-7.391477;-4379.635;3327.939;-0.3702354;-0.4929977;0;
-3946.374;-541.8498;-3901.733;-9357.667;-11.93399;-8.32175;-5080.146;1656.293;-0.109994;-0.232633;0;
14750.01;12915.1;-3743.297;12832.49;-11.65357;-9.920979;14973.76;10415.51;-0.1748508;0.1574048;0;
30196.15;24975.98;-2822.871;35655.36;-10.57014;-11.6525;31653.6;20978.59;-0.4345445;0.3521487;0;
27145.36;22302.81;-2132.068;34426.68;-9.957282;-4.607771;28554.12;18880.96;-0.2392058;0.4817295;0;
24284.77;19527.8;-870.4026;31315.13;-8.539781;-3.062534;25636.58;15984.32;-0.1090308;0.3513108;0;
25449.62;20375;369.0056;32210.99;-10.27349;-5.336816;26834.44;16595.15;-0.1738886;0.02612105;0;
10626.94;8854.625;188.8502;13466.27;-10.59796;-4.795651;10712.27;7359.623;0.08615553;-0.2987419;0;
-20336.21;-16739.62;-746.5569;-21597.25;-6.233053;-4.5229;-21509.82;-13381.77;0.280971;0.09136232;0;
-17259.29;-12851.55;-1527.133;-21657.18;-5.891997;-4.652321;-18398.49;-10127.83;0.2157213;0.2212052;0;
-3068.958;1135.367;-2735.927;-8407.806;-3.876345;-4.178766;-4284.527;3371.973;0.02060253;-0.4936578;0;
-3594.968;-380.4185;-4013.878;-9068.989;-2.46593;-3.303789;-4718.814;1832.638;0.08554918;-0.2982598;0;
15034.55;12946.89;-3866.979;12974.61;-7.219851;-9.52976;15254.28;10450.76;0.1504306;0.2217787;0;
29987.62;24749.77;-2957.237;35409.48;-6.877803;-11.32866;31444.6;20764.37;-0.04462262;0.3514905;0;
26984.59;22183.02;-2253.274;34277.87;-11.49259;-6.293682;28403.01;18779.27;-0.1095451;0.2212026;0;
24223.49;19448;-973.5582;31230.85;-13.4898;-6.354341;25588.59;15916.91;-0.04446771;-0.4936604;0;
25310.98;20267.6;271.9194;32100.7;-4.768709;-3.735683;26700.76;16510.92;0.02054431;-0.1683276;0;
10463.99;8700.619;102.9498;13339.24;-2.755162;-2.928134;10555.12;7224.038;0.1504584;0.3515802;0;
-20611.26;-16997.73;-814.1615;-21848.83;-3.087186;-2.858209;-21746.1;-13587.89;0.2152745;-0.0385771;0;
-17397.15;-12980.58;-1585.768;-21779.76;-1.476494;-2.051603;-18496.76;-10243.05;-0.1747458;0.1563637;0;
-3631.207;538.3936;-2793.098;-8871.868;1.405378;-5.063651;-4794.817;2792.367;-0.04463558;0.3511086;0;
-5269.545;-1682.844;-4077.426;-10610.14;2.676764;-4.924597;-6351.745;774.2304;0.475148;-0.2339503;0;
13735.87;12194.97;-3935.523;11580.69;3.678452;-10.27816;13924.4;9914.92;0.08486652;-0.1037805;0;
29810.98;24647.29;-3008.47;35115.18;4.41169;-12.54519;31250.19;20667.59;-0.3050228;0.2211605;0;
26961.85;22105.6;-2288.651;34296.98;-0.6165847;-6.504306;28411.06;18712.13;-0.1098143;0.02603623;0;
24303.8;19585.4;-997.4055;31258.64;-3.094212;-6.296822;25664.41;16086.56;-0.04473661;0.02601006;0;
25672.4;20592.34;271.8029;32549.5;-0.4117852;-3.142358;27103.38;16838.4;0.02027569;0.09095127;0;
11077.02;9184.702;102.2399;14325.32;-0.812537;-1.129774;11324.54;7679.997;-0.04471203;-0.1040421;0;
-20059.46;-16542.9;-837.3906;-21084.76;-6.505148;-5.616373;-21097.09;-13128.37;-0.1746018;-0.1689049;0;
-17333.06;-12905.3;-1613.908;-21660.33;-7.101824;-6.950388;-18414.12;-10131.76;0.02047568;0.09113414;0;
-3582.062;622.2993;-2818.056;-8732.883;-13.32398;-1.98679;-4695.849;2862.081;0.1503898;0.2209773;0;
-4900.143;-1418.269;-4101.484;-10242.5;-17.99964;-1.582896;-5949.717;975.9644;0.4101081;0.4156573;0;
13994.25;12287.83;-3963.867;11753.1;0.7063184;-7.810535;14184.29;9954.626;0.3447286;0.2203376;0;
29773.46;24592.98;-3048.405;35024.49;4.858795;-8.941397;31214.64;20632.24;-0.1753565;-0.2996226;0;
26934.34;22103.66;-2327.859;34264.46;-4.188417;-11.94658;28389.22;18725.7;-0.500017;-0.2343542;0;
24341.63;19619.27;-1035.043;31279.97;-1.438519;-13.34116;25709.7;16136.55;-0.4345472;-0.1691514;0;
25630.47;20563.35;235.3273;32522.49;-11.68485;-12.65793;27067.5;16824.25;-0.2392086;-0.2989161;0;
11027.43;9175.075;77.82619;14347.71;-14.75457;-13.24805;11284.63;7689.836;-0.1740009;-0.3635831;0;
-20013.75;-16458.29;-860.8115;-21011.39;-1.677951;-10.35454;-21014.93;-12993.42;-0.04389136;-0.4931524;0;
-16935.34;-12537.19;-1623.656;-21268.65;-0.002301292;-10.81301;-17953.73;-9960.632;0.08608743;-0.2327875;0;
-2542.516;1640.944;-2800.308;-7785.785;1.069428;-2.027627;-3633.166;3590.179;0.02103358;0.3521525;0;
-3741.342;-383.1253;-4085.628;-9041.873;2.944364;1.591488;-4735.912;1933.746;0.1509471;0.4817333;0;
14500.83;12607.14;-3955.586;12659.09;2.338193;-7.720555;14819.69;10239.3;0.1507955;0.3513146;0;
29869.06;24674.88;-3046.972;35331.61;1.934678;-7.176934;31360.43;20716.6;0.2805786;0.2210269;0;
26921.2;22118.09;-2360.473;34191.25;5.8175;-13.73393;28367.75;18773.03;0.345264;0.09087011;0;
24190.18;19463.93;-1102.951;31171.35;7.351896;-17.06921;25572.31;15988.64;-0.04488694;0.2207135;0;
25271.74;20217.71;149.0913;32095.8;-5.91738;-7.875584;26699.97;16503.54;0.3449622;0.02558969;0;
10639.59;8920.194;5.607328;13722.71;-10.13197;-7.39879;10868.76;7489.352;0.6694523;-0.2992727;0;
-19575.12;-15924.11;-885.5441;-20690.23;-4.361012;-4.578134;-20565.79;-12382.44;0.3439429;-0.10407;0;
-16111.48;-11780.25;-1636.839;-20433.37;-5.227286;-1.827355;-17075.68;-9282.892;0.08372796;0.2208713;0;
-1459.458;2696.91;-2820.442;-6803.786;-7.901351;-5.77739;-2534.367;4398.063;-0.1112582;0.4155514;0;
-1735.164;1194.063;-4082.722;-7076.06;-8.295553;-5.101756;-2727.472;3285.108;-0.5009505;0.2851992;0;
15669.47;13183.74;-3965.458;14065.26;-5.474179;-4.89568;16037.88;10709.84;-0.4354798;0.09001055;0;
29692.67;24470.78;-3088.631;35284.21;-4.062159;-5.828522;31203.09;20528.71;0.08469656;0.2198548;0;
26882.51;22141.2;-2384.224;34104.62;-2.717931;-1.067;28321.2;18814.67;0.08461145;0.5444706;0;
24243.36;19491.08;-1108.156;31229.36;-0.6390947;-0.6640298;25630.58;16020.87;-0.2403103;0.6088908;0;
25188.77;20166.76;134.9897;32009.07;0.768067;-3.275636;26616.91;16470.61;-0.3050362;0.5433117;0;
10540.02;8760.469;-11.22874;13609.23;2.643305;-3.607259;10790.28;7318.686;-0.1098276;0.4777984;0;
-19854.17;-16218.91;-901.926;-20979.39;3.778749;-5.010215;-20828.19;-12673.62;0.2151194;0.217449;0;
-16291.92;-11953.09;-1635.963;-20651.56;4.445514;-4.201447;-17270.04;-9526.089;0.02000126;0.2172305;0;
-1159.337;2972.314;-2783.085;-6551.136;7.053015;-12.83778;-2237.153;4475.606;-0.3698229;0.08707751;0;
-1505.935;1536.642;-4039.562;-6864.08;7.17965;-15.83905;-2499.475;3487.494;-0.499386;-0.1728794;0;
15511.71;13171.86;-3930.181;13941.89;11.66041;-3.297632;15868.65;10670.49;-0.2390148;0.02219638;0;
29578.55;24374.06;-3062.01;35193.3;15.46611;-1.217909;31087;20445.8;-0.10884;0.2170761;0;
26741.3;21994.05;-2388.895;33957.92;-1.428636;0.8597857;28174.96;18679.32;-0.3036326;0.1518907;0;
24068.95;19337.18;-1113.291;31058.12;-5.311967;3.940015;25457.69;15875.53;0.4113132;-0.1081313;0;
25193.42;20175.03;153.4726;31992.78;6.74981;1.725741;26614.06;16487.61;0.6058019;-0.2379574;0;
10514.21;8726.982;-0.3856025;13550.33;6.810377;2.862595;10705.18;7271.756;0.1504218;-0.1727509;0;
-19922.56;-16292.51;-894.8419;-21038.63;9.683922;1.25225;-20927;-12744.68;0.08530337;0.08729202;0;
-16115.15;-11801.51;-1623.264;-20461.96;10.00898;-0.1556498;-17064.52;-9410.341;-0.1746517;0.3470737;0;
-1112.025;3003.611;-2789.327;-6460.766;14.55328;3.86336;-2172.495;4459.897;-0.2394436;0.1518229;0;
-1855.408;1158.659;-4060.759;-7147.582;17.41904;4.194393;-2825.264;3200.453;0.08563373;-0.04323168;0;
15331.4;12909.21;-3933.553;13733.54;3.402718;-2.306983;15711.51;10498;-0.1093543;0.1517138;0;
29595.39;24372.93;-3038.455;35162.63;0.9210525;-4.381135;31099.82;20440.94;-0.1742118;0.086594;0;
26692.22;21970.9;-2345.03;33907.55;-2.964639;-1.831443;28131.72;18670.31;0.2807346;-0.04342769;0;
24086.96;19354.47;-1059.162;31031.28;-7.985502;-2.097473;25474.76;15909.07;0.1505179;0.2164853;0;
25188.32;20179.44;202.0185;31998.35;2.53872;-4.774622;26622.42;16500.14;-0.04453539;0.5411045;0;
10411.77;8604.19;47.58056;13540.11;3.741618;-5.104739;10679.82;7185.216;0.1504114;0.4106261;0;
-20031.72;-16422.02;-842.2075;-21159.18;-2.223989;-6.439269;-20991.51;-12845.34;0.08529291;-0.04455788;0;
-16329.63;-11992.18;-1576.835;-20731.28;-2.690269;-8.30826;-17292.2;-9534.268;-0.3045968;-0.1094804;0;
-1146.567;2982.103;-2740.54;-6568.544;-1.74956;-0.3291254;-2204.497;4505.213;-0.3692581;0.08553158;0;
-1515.432;1548.638;-4002.213;-6848.487;-3.288044;1.14483;-2473.615;3508.56;0.02091696;0.0204783;0;
15402.17;13067.2;-3885.905;13905.95;0.7337481;-4.080928;15793.67;10581.68;-0.0440714;0.2153598;0;
29373.07;24173.56;-3001.724;34985.89;1.804738;-4.076828;30883.56;20271.48;-0.04402712;0.02024132;0;
26654.57;21926.04;-2294.218;33844.75;-9.717652;-9.09633;28093.97;18638.07;0.1509191;-0.174681;0;
24215.27;19498.97;-975.4807;31116.08;-12.58828;-11.23058;25600.42;16066.89;0.08580016;0.3452332;0;
25552.39;20544.15;308.7607;32442.41;-10.09738;-10.54947;27000;16871.54;0.02074661;0.3448863;0;
10875.23;8982.64;123.231;14337.38;-9.685093;-11.87853;11190.33;7524.756;0.02072576;0.01970307;0;
-19794.06;-16237.53;-807.6437;-20738.45;-14.49813;-8.383539;-20726.67;-12716.34;0.1506396;-0.1752187;0;
-16552.04;-12136.5;-1564.857;-20925.52;-15.08678;-6.365689;-17515.92;-9556.845;0.08552092;-0.3049774;0;
-2235.094;1961.522;-2764.837;-7488.709;-7.302086;-8.636651;-3270.892;3858.941;0.02046764;-0.1097689;0;
-2861.736;309.8024;-4040.823;-8197.855;-6.691536;-6.149665;-3791.529;2559.918;-0.04452027;0.1502108;0;
14849.4;12657.36;-3919.447;13094.06;8.184667;-4.535896;15233.24;10233.07;-0.3043449;0.3449619;0;
29253.27;24074.82;-3034.232;34744.61;15.27737;-2.387945;30750.03;20178.95;-0.2390718;0.2796479;0;
26515.96;21779.49;-2308.422;33718.86;0.3915595;3.910666;27958.1;18496.4;-0.04392951;0.1494322;0;
24142.17;19446.05;-977.7388;31033.63;-0.0109755;5.313379;25522.9;16015.79;-0.04388537;-0.04561996;0;
25399.25;20388.78;291.6998;32246.02;1.530253;17.16377;26842.97;16736.96;-0.2387433;-0.5003455;0;
10609.92;8762.249;97.09811;13971.68;0.5233614;21.5003;10934;7337.067;-0.1085687;-0.3699081;0;
-20216.18;-16628.55;-835.6869;-21180.8;-1.28485;14.04371;-21131.99;-13013.88;-0.04349229;0.02026765;0;
-16661.39;-12329.65;-1591.061;-21053.53;-3.494361;14.69943;-17606.75;-9804.25;-0.303318;-0.3695568;0;
-1254.292;2854.552;-2771.087;-6682.085;0.6623356;6.044104;-2292.2;4404.37;0.2167256;-0.4991201;0;
-1632.403;1390.825;-4043.443;-6921.763;-0.5447547;3.29173;-2577.986;3428.98;0.6063118;-0.0438472;0;
15190.25;12823.1;-3936.151;13775.73;1.800317;-0.1945675;15585.38;10415.91;0.2808659;0.4109683;0;
29188.55;24005.18;-3047.89;34819.66;1.531065;-4.548141;30700.41;20109.83;-0.04425302;0.2156533;0;
26427.19;21726.24;-2332.436;33586.34;-1.418211;5.905523;27861.96;18459.23;-0.1091759;-0.3692695;0;
23852.73;19143.93;-1026.685;30764.79;-0.27771;6.770367;25239.58;15729.75;0.02086849;-0.4988331;0;
25160.56;20176.48;257.2022;31998.6;-18.76423;7.232323;26593.96;16529.17;-0.4988912;-0.1085278;0;
10464.09;8655.037;80.34502;13794.3;-25.51053;8.899629;10735.34;7249.78;-0.3034879;0.2813853;0;
-20462.93;-16852.61;-869.5396;-21424.8;-11.41873;6.680372;-21400.83;-13239.85;0.4764251;0.2811025;0;
-17159.75;-12720.2;-1641.902;-21514.61;-11.4746;7.410349;-18091.74;-10063.76;0.2160771;0.1508854;0;
-2303.671;1945.407;-2838.9;-7605.172;-13.87397;2.446289;-3331.521;3786.442;-0.1089768;0.08576643;0;
-2727.752;369.1655;-4107.877;-8089.034;-14.19482;0.7693793;-3665.348;2575.088;0.08603477;-0.3041238;0;
14774.33;12464.14;-3976.875;13018.36;-11.10008;-0.1021719;15159.62;10082.52;0.08594832;-0.2388509;0;
28968.36;23794.4;-3094.946;34462.01;-10.41836;-2.714343;30468.31;19909.87;-0.1740074;0.2811279;0;
26085.11;21381.91;-2375.227;33274.34;-12.81977;1.508248;27522.05;18128.86;-0.2387999;0.2158781;0;
23738.68;19048.4;-1045.133;30644.9;-12.06995;0.9038866;25123.94;15639.63;-0.1086253;0.3455958;0;
24949.69;19972.72;219.4382;31711.52;-21.76974;0.4340979;26382.59;16341.96;-0.1734835;0.4102159;0;
9928.171;8163.452;24.75293;13047.4;-24.29346;0.8355592;10202.39;6845.34;-0.3682112;-0.04496769;0;
-20797.97;-17157.26;-896.3715;-21847.07;-22.32667;-5.997417;-21741.01;-13470.08;-0.2379065;-0.0449225;0;
-17307.71;-12902.75;-1643.064;-21630.24;-23.84447;-7.397972;-18251.74;-10146.6;0.1521366;0.214992;0;
-2090.179;2114.474;-2820.008;-7488.42;-13.17059;-9.667897;-3134.394;4016.216;0.2169511;-0.1100607;0;
-1977.026;1052.663;-4072.137;-7373.169;-7.999797;-11.80164;-2942.761;3115.834;0.2167331;-0.4997542;0;
15103.39;12732.92;-3946.607;13474.54;-13.95361;-7.034051;15470.29;10259.61;0.2165153;-0.04448064;0;
28930.51;23764.2;-3066.425;34474.15;-11.59506;-6.625146;30431.7;19908.95;0.02139571;0.1504661;0;
26112.14;21428.3;-2357.574;33274.22;-5.085699;-6.216592;27545.51;18170.21;-0.1735278;-0.04458714;0;
23532.71;18844.07;-1039.366;30418.13;-3.339277;-5.674482;24916.34;15443.49;-0.3032881;0.08539234;0;
24864.17;19900.89;253.7161;31670.81;5.973852;-4.597053;26282.43;16270.59;-0.2380161;0.0203392;0;
9992.772;8258.861;79.98587;13250.57;9.517823;-3.922666;10231.75;6907.74;0.08705982;-0.04464858;0;
-20939.74;-17270.61;-854.6248;-21980.56;5.35605;-5.258322;-21902.98;-13630.12;0.08697234;-0.1745384;0;
-17511.43;-13054.38;-1612.884;-21920.72;6.221324;-4.382321;-18467.14;-10377.34;-0.1729844;-0.3042977;0;
-2286.992;1987.478;-2786.985;-7671.413;0.5889944;-11.54491;-3345.157;3831.992;-0.1728106;0.1507795;0;
-2240.95;831.046;-4038.523;-7676.683;-1.220259;-13.81067;-3216.749;2891.675;-0.562441;0.2805626;0;
14881.18;12542.9;-3918.898;13081.12;-2.559179;-7.567499;15233.88;10075;-0.9516799;-0.04455599;0;
28778.59;23626.58;-3031.592;34218.17;-4.498991;-7.760844;30268.07;19770;-0.625887;-0.1094786;0;
25976.24;21287.6;-2306.596;33131.11;-2.283667;-2.796431;27407.43;18047.27;-0.3004214;0.08553346;0;
23499.44;18823.42;-980.0069;30366.51;-3.085656;0.01960098;24870.71;15421.68;-0.2351521;0.4102843;0;
24860.05;19898.19;297.0864;31611.42;3.88367;-4.669102;26295.73;16281.96;-0.2349159;0.02006792;0;
9927.642;8129.165;102.2607;13106.19;7.162297;-3.72671;10241.08;6810.92;0.1551242;-0.1098869;0;
-21225.1;-17595.23;-836.9638;-22282.18;-0.07954447;-4.392734;-22157.1;-13934.34;0.1549684;0.1500929;0;
-18256.93;-13763.39;-1609.609;-22627.83;-1.083843;-4.656252;-19229.93;-10771.35;-0.1700241;-0.239862;0;
-3178.637;1105.798;-2793.271;-8584.981;6.285613;-1.57048;-4229.352;3418.615;0.02504881;-0.1746536;0;
-2794.057;312.601;-4037.462;-8291.155;7.819539;-1.769851;-3784.698;2533.982;0.08999097;0.02042387;0;
14690.48;12416.92;-3918.026;12894;0.1758713;1.447108;15002.74;9970.915;-0.2999035;0.02040335;0;
28676.63;23531.57;-3039.216;34154.35;-2.16883;2.0485;30156.26;19698.71;-0.3645695;0.02038284;0;
25807.26;21132.06;-2330.392;32944.52;1.718115;-0.5658925;27231.76;17879.39;-0.03936647;-0.3044744;0;
23277.98;18599.32;-1012.431;30132.51;0.9794546;-1.302136;24651.01;15213.18;-0.2342289;-0.2392011;0;
24632.2;19689.37;280.6245;31374.58;-0.5617709;-4.515886;26040.42;16078.17;-0.4288956;0.085876;0;
9599.801;7908.64;93.37403;12746.59;0.5778694;-6.118939;9804.29;6590.121;0.2212088;0.4106264;0;
-21807.2;-18105.69;-854.712;-22841.82;-7.729083;-8.992996;-22790.23;-14418.3;0.3509212;0.2802791;0;
-18553.1;-14030.89;-1616.126;-22925.8;-8.994114;-10.65847;-19494.83;-11139.94;0.02573187;-0.4996106;0;
-3224.611;1122.704;-2786.007;-8596.315;6.622312;-12.72417;-4260.097;3330.703;-0.1042287;-0.7589779;0;
-3483.801;-201.2276;-4041.138;-8933.113;15.99278;-14.58685;-4450.999;2172.266;-0.493928;-0.4333786;0;
13983.87;11905.61;-3927.695;12016.74;1.173605;-9.816525;14317.03;9589.338;-0.8182684;-0.1081064;0;
28556.68;23441.46;-3040.255;33896.35;1.976709;-9.203876;30033.34;19590.73;-0.4926095;0.4117409;0;
25663.19;20967.03;-2329.275;32832.65;26.89189;-7.051174;27091.55;17725.65;-0.03734313;0.5412619;0;
23100.23;18461.29;-1025.807;29947.02;29.14204;-4.498798;24468.26;15085.78;-0.0373056;0.08594662;0;
24500.1;19540.38;250.0516;31203.66;58.58427;-9.919774;25920.55;15928.92;0.1576339;-0.04407442;0;
9512.125;7767.09;79.94823;12591.17;71.5872;-9.708858;9777.596;6470.228;0.4823122;0.1508719;0;
-21504.04;-17849.47;-828.9877;-22610.51;39.56453;-9.096316;-22464.06;-14154.13;0.0270562;0.1507203;0;
-18102.35;-13690.02;-1561.942;-22476.25;39.85957;-10.29281;-19078.29;-10893.46;-0.03793833;-0.04433318;0;
-2509.531;1715.172;-2711.2;-7994.981;10.75015;-3.852288;-3585.488;3676.683;0.2869365;-0.304158;0;
-1989.098;910.6485;-3962.846;-7501.333;-7.346291;-3.513502;-2960.901;2963.658;0.09174617;-0.1089504;0;
15069.95;12506.81;-3873.938;13335.8;20.1912;-2.170313;15443.06;10028.55;-0.03828071;0.4108979;0;
28594.49;23443.37;-3016.474;34067.61;9.989504;-0.4266371;30084.32;19632.3;0.09169244;0.410485;0;
25791.73;21154.7;-2328.663;32935.41;30.54237;-10.60737;27221.92;17918.89;0.2865023;-0.04469887;0;
23346.11;18678.82;-1031.692;30129.78;39.75508;-12.53916;24709.63;15316.54;0.2212471;-0.1096213;0;
24977.16;20039.53;283.2465;31834.77;-21.43869;-11.92371;26418.47;16435.35;0.1560575;-0.04454381;0;
10675.66;8789.206;122.0115;14331.19;-30.928;-12.71552;11043.5;7347.285;-0.2339034;-0.4343031;0;
-20739.87;-17156.34;-845.3749;-21554.6;-37.12621;-10.35841;-21653.21;-13566.65;-0.4285704;-0.3688994;0;
-17977.02;-13493.09;-1605.424;-22398.1;-51.02135;-9.0084;-18964.2;-10753.86;-0.03833571;-0.04369199;0;
-2979.644;1274.32;-2773.254;-8344.836;-9.173715;-5.248365;-4026.396;3263.198;0.02667015;-0.1086154;0;
-3483.629;-201.4541;-4056.415;-8896.013;-0.1885401;-2.89875;-4427.912;2093.037;-0.03832399;-0.3034083;0;
14094.02;12022.29;-3949.079;12302.26;-13.98708;4.606068;14470.96;9682.742;0.3515186;-0.04323408;0;
28657.14;23548.33;-3077.078;34060.27;-9.283975;9.022191;30140.57;19709.22;0.4811001;0.08674404;0;
25703.07;21028.15;-2407.009;32831.72;-2.308422;8.075365;27130.95;17806.24;0.2857146;-0.3031472;0;
23168.74;18541.62;-1120.798;29955.52;2.047179;10.07674;24523.3;15182.17;0.1554928;-0.1729079;0;
24791.52;19830.27;185.1094;31588.63;0.5048801;9.195835;26228.32;16223.74;0.2203039;0.2170699;0;
10454.91;8565.913;42.52622;13963.52;1.5761;8.3828;10846.16;7147.214;0.3500172;0.3467865;0;
-20770.43;-17193.84;-903.7596;-21678.79;-1.574292;11.38861;-21662.33;-13631.95;0.4146329;0.3464381;0;
-18338.04;-13812.62;-1687.395;-22764.28;-3.581466;11.51113;-19321.01;-10987.82;0.08937956;0.1511879;0;
-3345.408;966.7616;-2849.989;-8777.974;-2.50614;6.475967;-4407.287;3096.128;0.1542571;-0.04386604;0;
-2933.923;116.2172;-4091.562;-8442.599;-4.312284;5.598682;-3895.613;2291.655;0.4789388;-0.1737566;0;
14607.76;12214.85;-3994.154;12859.07;-3.437294;1.373254;14989.26;9748.853;0.3485229;0.08628731;0;
28462.23;23322.47;-3150.282;33939.33;-3.031699;-1.508392;29947.29;19517.47;0.08830332;0.2811027;0;
25492.75;20868.63;-2463.179;32599.21;-9.257943;6.932851;26905.85;17650.65;-0.1066874;-0.3688532;0;
22948.17;18306.78;-1160.576;29777.12;-11.12465;8.466371;24312.82;14940.26;-0.04161289;-0.7582867;0;
24343.77;19419.21;131.3475;31067.93;-2.539658;5.37677;25754.41;15838.4;0.348233;-0.432688;0;
9742.763;7949.703;-34.20132;12925.19;0.7454241;6.242146;10012.83;6573.434;0.3478831;-0.3023186;0;
-21659.03;-18029;-990.124;-22731.19;-10.37474;6.302856;-22628.92;-14376.63;0.1526315;-0.4319495;0;
-18757.95;-14206.07;-1753.339;-23192.97;-13.98066;6.698421;-19744.67;-11345.2;0.1524781;-0.3665481;0;
-3034.447;1337.8;-2898.032;-8526.21;5.926711;6.423759;-4104.319;3350.382;0.02239023;-0.0413431;0;
-2807.948;354.9962;-4154.081;-8259.882;10.14032;5.747475;-3777.811;2506.391;-0.107567;0.4134699;0;
14304.91;12062.13;-4057.578;12649.88;-2.730597;7.952014;14675.32;9674.769;0.02247581;0.2181524;0;
28388.58;23288.49;-3200.399;33851.85;-3.59851;7.743075;29866.34;19469.57;0.08742058;-0.1069036;0;
25408.04;20761.88;-2541.575;32486.94;-7.613382;5.0561;26818.55;17546.79;0.2822348;-0.0418288;0;
22776.41;18154.36;-1261.476;29575.03;-11.15571;3.510412;24134.13;14800.96;0.3469185;-0.1067541;0;
24368.78;19446.8;41.73099;31073.13;-8.064013;1.899416;25786.02;15855.76;0.02173321;-0.3015489;0;
9834.989;8055.963;-115.6381;13060.15;-8.457076;0.4238832;10119.03;6687.309;0.6064174;0.02359084;0;
-21480.09;-17816.3;-1052.895;-22510.58;-15.01266;-5.26997;-22448.29;-14215.03;0.8007101;0.2184692;0;
-18759.9;-14222.06;-1813.391;-23175.4;-17.14103;-8.814709;-19756.26;-11332.14;0.02029749;0.02334761;0;
-3389.125;959.8275;-2979.263;-8883.594;-13.50746;-5.456766;-4478.938;3080.488;-0.04469025;0.2831935;0;
-2864.341;242.8636;-4225.267;-8401.375;-14.56562;-6.389044;-3838.039;2307.779;-0.1096127;0.08800694;0;
14564.75;12208.4;-4105.517;12812.66;-9.527138;-11.20527;14953.41;9717.484;-0.1744699;-0.2369182;0;
28415.03;23295.62;-3238.513;33858.56;-8.378489;-13.20344;29893.44;19510.43;0.02060745;-0.04177811;0;
25388.41;20763.05;-2569.375;32464.74;-11.78632;-11.9175;26790.43;17544.62;-0.1743153;0.08819855;0;
22781.23;18162.83;-1284.688;29559.59;-10.83647;-12.10647;24135.3;14814.65;0.1506966;0.08810993;0;
24367.29;19448.84;24.35212;31098.29;-18.72981;-15.17546;25784.71;15869.46;0.4104145;-0.04191329;0;
10091.33;8218.265;-129.9073;13340.62;-20.25124;-15.09323;10379.95;6801.661;0.02019808;-0.1068385;0;
-21191.05;-17598.89;-1079.643;-22269.95;-19.22651;-16.28376;-22169.26;-14001.41;-0.1097569;0.08817086;0;
-18521.11;-13984.46;-1844.298;-22971.8;-19.87678;-16.20041;-19534.19;-11207;-0.174614;0.02311492;0;
-2956.876;1359.529;-3010.67;-8483.415;-14.16338;-12.09824;-4058.408;3199.538;-0.3043732;0.1530264;0;
-2601.848;493.7385;-4267.075;-8133.219;-12.74263;-10.6795;-3586.737;2442.515;-0.2391;0.21784;0;
14513.76;12186.33;-4144.628;12849.96;-6.434159;-6.315001;14896.2;9725.164;0.02100961;0.1526537;0;
28376.84;23271.9;-3269.745;33853.54;-3.412608;-3.964314;29857.54;19490.78;0.2158905;0.282435;0;
25384.86;20765.92;-2590.33;32452.09;-4.950397;-1.549006;26792.08;17565.84;0.2806409;0.4120859;0;
22876.96;18270.16;-1284.851;29632.01;-4.34221;1.533766;24229.91;14935.11;-0.1744124;0.3467045;0;
24396.36;19485.34;19.34735;31152.35;-5.945437;-3.223503;25815.79;15912.57;-0.4341066;0.08648677;0;
10210.51;8381.002;-143.8088;13548.55;-6.609048;-2.6844;10502.71;7004.068;-0.3037357;-0.1085021;0;
-20492.99;-16883.6;-1084.566;-21574.61;-12.36318;-3.619464;-21473.22;-13248.28;-0.3034305;-0.04342579;0;
-18129.21;-13570.87;-1867.27;-22555.88;-14.36049;-5.625254;-19130.67;-10759.07;0.02171111;0.08655253;0;
-3170.124;1215.357;-3044.645;-8664.667;-17.56124;4.628543;-4255.927;3180.318;-0.1082454;-0.04346912;0;
-2372.541;561.5576;-4275.59;-7896.858;-19.88715;6.499414;-3328.849;2632.365;-0.6928427;-0.3682621;0;
14856.11;12295.66;-4146.638;13318.68;-14.50951;4.416412;15284.92;9847.686;-0.2373751;-0.3029248;0;
28336.97;23240.98;-3277.594;33863.75;-13.69064;6.756378;29828.7;19464.75;0.2176348;0.2171184;0;
25372.91;20780.4;-2592.737;32406.75;-11.46706;-2.359907;26773.78;17588.2;0.1524487;0.1519329;0;
22814.11;18200.98;-1288.942;29558.87;-10.24911;-4.099092;24164.35;14876.6;0.02236089;-0.04312186;0;
24335.44;19432.48;19.6961;31118.1;-3.742081;-0.477956;25749.7;15864.63;-0.1075963;-0.3679152;0;
10317.38;8419.141;-147.3022;13802.8;0.8170066;-2.285954;10637.14;7006.888;0.02244653;-0.6274149;0;
-20541.97;-16939.17;-1109.795;-21542.96;-10.03481;5.821095;-21493.23;-13358.31;0.08739132;-0.3019478;0;
-18189.57;-13599.82;-1887.258;-22649.39;-10.69528;6.619041;-19188.38;-10896.12;-0.3025005;-0.1717097;0;
-3046.317;1315.043;-3058.272;-8548.099;-8.406385;4.33497;-4137.824;3145.73;-0.1072946;-0.04160248;0;
-2510.477;571.4228;-4306.195;-8050.162;-10.47502;4.397597;-3475.966;2531.174;0.08771527;0.02340666;0;
14631.82;12279.67;-4171.84;13041.14;-2.091749;-2.840795;15056.31;9773.801;-0.3021769;-0.0415842;0;
28411.86;23336.56;-3293.681;33893.02;-1.285365;-5.115299;29898.1;19575.61;-0.2369059;-0.1065098;0;
25469.49;20859.69;-2619.583;32502.04;-2.690593;-10.93755;26869.24;17673.03;-0.04176588;-0.4312394;0;
22863.78;18279.13;-1316.824;29579.92;-1.75086;-14.14168;24203.58;14957.66;0.08821078;-0.2359041;0;
24415.07;19499.78;-0.8800133;31225.06;-9.987147;-15.46707;25844.29;15943.19;0.2180568;-0.04076504;0;
