Fp1;Fp2;O1;O2;POLY3;POLY4;A1;A2;Video;Audio;event;
-25601.52;-17647.42;-2655.233;-27491.95;0.2404026;-12.60294;-25524;-12183.98;-0.08146904;-0.1672259;0;13:08:37 Глаза открыты;
-3337.599;-1790.647;-2969.14;-4686.669;-10.8119;-11.98743;-3329.215;-1980.512;-0.1463545;-0.1020906;0;
21831.25;15291.96;-2284.281;22976.11;-22.18789;-14.05179;21867.09;11105.87;-0.2761422;0.2228487;0;
20868.22;13371.27;-1102.453;23046.1;-14.26137;-16.38207;20947.03;9945.991;-0.14593;0.2875921;0;
19310.02;12621.62;1133.531;21127.21;-11.23293;-17.57125;19350.58;9182.923;-0.1457834;0.09240114;0;
22584.17;15003;3115.927;24601.08;-18.99215;-20.29983;22644.3;11225.2;0.5040365;0.222243;0;
10791.91;7383.767;3448.564;11764.22;-26.87632;-23.2936;10679.11;4881.038;0.7633994;-0.1677844;0;
-20008.83;-14273.71;2711.249;-20982;-14.72552;-19.85413;-20141.22;-10360.32;-0.2118777;-0.4274851;0;
-23375.57;-15025.09;1359.016;-25454.83;-6.941196;-18.89648;-23403.66;-11042.83;-0.6014689;0.09268311;0;
-16762.54;-9296.614;-769.9677;-18678.26;-12.29286;-16.39912;-16770.3;-6548.732;0.04880887;0.2225247;0;
-24982.85;-16991.62;-2687.87;-26888.46;-10.00333;-12.56474;-24914.05;-11569.03;0.3735965;0.09236639;0;
-3256.142;-1626.339;-3009.85;-4624.405;-16.08787;-14.69551;-3251.908;-1829.188;0.1133518;-0.2325631;0;
21750.33;15249.72;-2313.315;22880.53;-20.29224;-12.67132;21784.5;11048.74;-0.1466315;-0.1023948;0;
20985.64;13477.86;-1133.863;23167.49;-20.33822;-16.8114;21062.91;10067.22;-0.2114515;0.1575775;0;
19207.17;12519.38;1069.638;21022.56;-24.33725;-21.81811;19243.84;9066.446;0.1135977;-0.2323849;0;
22611.5;15033.36;3065.059;24623.82;-19.02053;-13.62451;22670.69;11263.77;0.2434182;-0.1022167;0;
11003.55;7536.877;3397.03;12008.36;-14.51442;-8.319292;10895.43;5041.953;0.1782063;0.09278803;0;
-20647.08;-14978.96;2617.788;-21572.02;-18.65205;-10.85622;-20776.65;-11046.61;0.2429946;-0.1022072;0;
-24618.75;-16151.2;1268.334;-26646.57;-20.77676;-10.44342;-24642.02;-11914.64;-0.01711896;0.02783015;0;
-17982.49;-10380.84;-845.7531;-19849.52;-14.86138;-7.284787;-17977.21;-7347.945;-0.2769711;0.1577369;0;
-26187.92;-18238.62;-2767.999;-28068.73;-12.23448;-7.478416;-26096.51;-12640.85;-0.2117255;0.09261103;0;
-3700.284;-2120.154;-3080.872;-5040.169;-9.208079;-0.4378768;-3677.091;-2134.924;-0.4064147;0.09251797;0;
21844.96;15342.45;-2383.781;22999.51;-2.634744;5.724871;21881.2;11163.01;-0.4060064;-0.03750967;0;
20967.19;13465.63;-1191.265;23146.56;-10.33526;1.36535;21046.12;10035.55;-0.08076173;-0.1024393;0;
19410.5;12722.31;1039.717;21225.63;-14.54443;1.564927;19449.9;9285.062;0.0492541;-0.2322711;0;
22660.96;15085.39;3007.62;24679.87;-10.97984;-1.651765;22720.08;11303.73;-0.01576273;-0.297005;0;
10743.9;7281.57;3313.662;11720.14;-13.11226;-4.530311;10633.58;4840.988;-0.1456816;0.09309745;0;
-20600.49;-14938.04;2557.523;-21555.7;-6.132863;-4.659725;-20733.95;-10960.69;-0.2105025;0.1579713;0;
-24775.02;-16268.65;1201.789;-26779.2;0.7721756;-6.597486;-24786.99;-11852.52;0.1145457;0.09284518;0;
-19079.17;-11505.58;-941.4351;-20898.19;-4.922028;-5.787123;-19056.88;-8195.017;0.1144306;0.2226866;0;
-27841.77;-19783.35;-2871.081;-29697.98;-6.859465;-8.125649;-27732.43;-13923.59;-0.3404558;0.09252813;0;
-4950.862;-2978.235;-3176.744;-6341.689;-3.101528;-1.084399;-4909.495;-2710.928;-0.3401137;-0.03749953;0;
21600.83;15258.53;-2460.754;22690.19;-3.098412;5.413852;21639.41;11139.65;-0.1448699;-0.2973312;0;
21087.75;13529.53;-1262.773;23266.15;-0.3486323;0.7867116;21164.33;10049.45;-0.01478966;-0.3619998;0;
19351.23;12681.35;972.5912;21166.77;0.9908886;1.388768;19390.04;9271.348;-0.07974215;0.3530047;0;
22698.07;15118.69;2974.139;24710.27;1.057242;-0.8900476;22755.99;11324.46;-0.2095967;0.2876827;0;
10901.75;7454.955;3292.27;11879.99;4.807224;-4.372144;10784.93;5013.814;0.180418;-0.3622798;0;
-20599.74;-14918.53;2512.602;-21571.13;-4.106215;-1.286597;-20748.53;-10920.25;0.440106;-0.4918505;0;
-24726.93;-16250.83;1139.829;-26764.64;-9.528072;-1.218321;-24756.54;-11883.19;0.5046312;-0.1015522;0;
-18042.99;-10459.95;-1007.831;-19910.01;-7.709837;-2.087875;-18039.43;-7235.941;0.3092221;0.1584192;0;
-26192.77;-18174.07;-2933.085;-28071.47;-10.64885;-2.219743;-26098.5;-12482.48;-0.01592534;0.15826;0;
-4202.605;-2382.552;-3221.632;-5559.689;-5.950078;-4.762803;-4170.196;-2308.002;-0.08087669;0.09313364;0;
21458.55;15036.9;-2490.136;22573.71;-5.139816;-6.499513;21493.41;10881.47;-0.4705995;0.4178768;0;
20796.71;13265.31;-1297.451;22964.1;0.4914267;-8.636374;20873.6;9813.833;-0.2102572;0.4174569;0;
19046.16;12366.13;920.1766;20860.4;8.395163;-10.70417;19087.46;8943.998;0.1147907;0.1571681;0;
22391.22;14814.36;2904.379;24404.28;1.687946;-12.56887;22448.9;11013.98;-0.2101613;0.02707545;0;
10378.2;7031.224;3237.073;11350.27;1.351457;-13.89584;10267.89;4663.805;-0.08001546;-0.0379191;0;
-21205.62;-15447.42;2492.225;-22168.7;-1.195496;-15.7574;-21334.38;-11358.66;0.2449016;0.2869557;0;
-25043.11;-16556.71;1119.347;-27043.69;-6.686651;-17.3491;-25051.96;-12081.3;0.1796882;0.3516347;0;
-18850.78;-11279.78;-1039.35;-20651.23;-0.4506416;-16.19296;-18827.14;-7865.538;0.1795077;0.2213467;0;
-27486.16;-19442.01;-2949.844;-29345.54;0.8899578;-15.9758;-27391.15;-13636.85;-0.2104767;0.156157;0;
-4765.731;-2814.102;-3219.962;-6158.102;1.424927;-12.94557;-4748.179;-2688.32;-0.4701346;0.3509021;0;
21439;15090.73;-2491.216;22552.72;4.705049;-9.717445;21473.82;10957.48;-0.1448255;0.4804842;0;
20663.79;13112.18;-1298.624;22848.45;0.01224809;-9.238801;20744.12;9648.494;0.3750587;0.3500667;0;
18911.16;12236.98;941.5871;20732.68;-0.9931182;-7.086125;18950.96;8820.757;0.5046166;0.2197803;0;
22366.94;14792.07;2942.385;24376.66;-3.335669;-6.74409;22426.19;10983.83;0.1143055;0.2845268;0;
10260.78;6914.937;3256.456;11201.23;-8.892023;-8.143955;10148.75;4656.8;0.179158;0.6090776;0;
-21615.44;-15854.48;2488.006;-22583.59;-0.3766215;-1.236652;-21749.18;-11580.88;0.3089126;0.2836289;0;
-25398.4;-16908.8;1121.754;-27377.26;4.915042;5.261752;-25409.82;-12396.2;-0.08120183;-0.1064602;0;
-18601.06;-11021.05;-1035.882;-20413.01;0.2220307;-1.508628;-18577.52;-7655.323;-0.0161529;0.02358148;0;
-27025.91;-18968.14;-2962.373;-28880.57;-0.247683;-4.722232;-26909.28;-13109.23;-0.01613667;-0.04140955;0;
-4785.936;-2812.524;-3239.318;-6152.384;-1.653954;-2.842026;-4736.733;-2583.201;-0.01612045;-0.04136794;0;
21265.11;14915.97;-2502.713;22378.16;-4.800124;-5.183512;21305.2;10792.28;0.3087325;0.1535757;0;
20636.48;13083.19;-1297.646;22816.66;-2.585474;-1.829218;20713.32;9612.963;0.3084222;0.3483234;0;
18845.03;12168.95;931.2253;20668.35;-1.242729;0.7848936;18885.88;8757.12;0.1132103;0.4129407;0;
22205.1;14631.7;2912.418;24211.81;-6.399044;-3.167827;22261.59;10820.53;-0.2767075;0.02272173;0;
10056.29;6768.443;3244.948;10967.55;-8.067554;-3.231627;9943.932;4471.405;-0.1464948;-0.2371705;0;
-21705.78;-15897.64;2507.494;-22718.12;-12.54743;-6.644387;-21835.25;-11717.78;0.2434565;-0.1719648;0;
-25564.06;-17084.29;1156.871;-27549.67;-18.22727;-9.517916;-25575.78;-12465.31;0.1132772;0.02311;0;
-19023.57;-11448.36;-976.8444;-20817.17;-13.92302;-6.829096;-19008.62;-7863.766;0.048196;-0.04188056;0;
-27302.77;-19275.04;-2892.493;-29161.06;-13.0374;-5.884473;-27195;-13406.93;-0.08178711;-0.2367405;0;
-4745.366;-2815.125;-3189.03;-6144.863;-12.48941;-4.338014;-4704.809;-2646.115;-0.2766069;0.02336674;0;
21381.38;15053.24;-2460.987;22461.58;-9.395405;-3.864775;21415.73;10938.36;0.3083771;0.2182453;0;
20898.86;13341.58;-1253.823;23079.12;-11.93156;1.631587;20976.45;9861.294;0.5679365;0.2829933;0;
19340.45;12669.99;989.2165;21156.37;-10.98157;6.184665;19380.71;9250.359;0.3074965;-0.04212773;0;
22937.34;15357.33;3008.426;24944.34;-11.84119;6.580348;22995.3;11558.15;-0.01764915;-0.1070527;0;
11179.36;7636.886;3337.299;12187.49;-14.10647;9.855778;11068.82;5224.433;-0.01763142;0.08795685;0;
-20850.96;-15259.27;2554.618;-21766.13;-7.863;7.300645;-20990.66;-11190.24;-0.08258104;-0.4968376;0;
-25338.39;-16823.48;1189.517;-27322.62;-6.247509;6.020634;-25356.24;-12255.11;-0.1474654;-0.431371;0;
-18828.67;-11244.7;-949.5094;-20647.49;-2.758607;5.947601;-18807.32;-7827.064;-0.08234989;0.1537685;0;
-27417.46;-19343.66;-2888.205;-29262.9;0.3256235;3.597284;-27302.89;-13457.62;-0.2122018;-0.1062554;0;
-5119.211;-3080.354;-3189.041;-6460.055;-1.01485;4.531369;-5069.809;-2725.138;-0.08205392;-0.171116;0;
21354.47;15024.1;-2462.138;22469.16;1.599114;1.981526;21391.78;10922.24;0.04796321;-0.2359114;0;
20871.79;13310.93;-1273.713;23045.22;-5.569789;4.725774;20945.42;9815.709;0.1778497;-0.1057396;0;
19117.33;12445.38;950.6052;20941.97;-6.83699;7.80224;19160.09;9034.702;-0.01723103;0.4790727;0;
22546.8;14970;2943.492;24560.24;-15.47031;1.096229;22604.83;11161.05;-0.4070178;0.2836893;0;
10463.89;7116.368;3267.338;11447.19;-27.57855;1.430043;10354.55;4740.651;-0.1467394;-0.1713672;0;
-21518.63;-15753.68;2503.094;-22466.09;-13.68574;-7.881839;-21648.62;-11682.97;-0.0166573;-0.04126029;0;
-25802.63;-17316.48;1131.736;-27775.06;-10.92532;-17.1843;-25813.87;-12644.87;-0.3414773;0.08871585;0;
-19195.79;-11615.41;-1005.296;-20965.79;-3.949096;-9.665131;-19167.15;-7970.065;-0.2111995;0.02365937;0;
-27068.17;-19041.62;-2913.139;-28908.37;7.441727;-11.32993;-26963.74;-13287.88;0.2437841;0.08860294;0;
-4387.956;-2513.755;-3210.405;-5746.608;-1.942873;-2.878942;-4364.543;-2488.247;0.1136045;0.08851391;0;
21502.72;15118.49;-2496.052;22629.7;-1.940921;5.295686;21538.9;10988.62;-0.3412811;-0.1064771;0;
20842.59;13292.53;-1312.872;23026.86;-5.957459;0.3337499;20923.87;9820.942;-0.2110034;0.02356462;0;
19113.48;12442.6;885.499;20936.4;-12.38183;3.146637;19152.9;9021.222;-0.3407261;-0.0414264;0;
22580.79;14997.13;2883.073;24602.39;-7.010758;-2.683918;22641.59;11206.01;-0.08051438;-0.2362868;0;
11026.74;7518.082;3240.714;12065.05;-7.071063;-5.159529;10923.71;5041.637;0.5042726;0.08878732;0;
-20631.28;-15022.02;2485.523;-21522.96;-4.920504;-8.771301;-20755.24;-11062.52;0.1139619;0.02373077;0;
-24775.66;-16295.2;1143.824;-26782.65;-0.6286522;-17.47009;-24778.59;-11986.33;-0.2759567;-0.1711951;0;
-18397.11;-10829.15;-964.9847;-20212.51;-4.914928;-6.735507;-18366.54;-7645.43;-0.01581006;-0.1060557;0;
-27435.78;-19353.12;-2896.216;-29246.79;-7.320887;-2.709885;-27311.07;-13440.21;0.1141405;0.02398551;0;
-5217.365;-3174.65;-3217.596;-6563.335;-2.089594;-3.309947;-5157.686;-2804.119;0.1789932;0.2838308;0;
21388.51;15079.12;-2507.25;22490.52;-1.015768;0.310335;21429.45;10979.43;-0.01608871;0.1536109;0;
20949.87;13374.13;-1328.54;23135.74;3.473231;-4.512626;21024.31;9877.069;0.0488948;-0.04144548;0;
19232.51;12572.41;881.1536;21054.34;10.03382;-5.780706;19274.46;9164.186;-0.1460564;-0.2363058;0;
22870.77;15281.94;2891.257;24885.64;2.25421;-8.789069;22932.17;11492.96;-0.1459096;-0.4309704;0;
11410.66;7866.229;3250.826;12452.73;-2.303382;-11.0576;11304.01;5281.621;0.6338451;-0.1057007;0;
-19725.02;-14119;2510.493;-20634.88;1.182533;-14.6635;-19862.97;-10354.46;0.5682409;0.2192422;0;
-23734.27;-15320.42;1166.426;-25793.2;0.5781323;-19.9403;-23745.82;-11278.11;0.2428332;0.1540546;0;
-17732.47;-10227.43;-958.4912;-19605.63;1.247137;-14.56175;-17703.08;-7306.442;0.3725239;-0.04100223;0;
-26565.3;-18496.57;-2892.805;-28413.19;2.787101;-11.332;-26462.33;-12834.51;0.1772475;0.153941;0;
-4422.97;-2459.407;-3220.201;-5783.908;0.3060541;-12.39234;-4390.635;-2371.378;0.2420368;0.283721;0;
21522.14;15176.59;-2514.865;22629.78;0.4394684;-11.44213;21561.13;11012.47;0.2417936;-0.1713355;0;
20865.99;13311.71;-1345.066;23050.76;-0.8337709;-8.885339;20943.73;9854.352;-0.3431554;-0.301098;0;
19152.54;12482.35;848.3401;20974.6;-3.914392;-9.345291;19193.22;9055.065;-0.407778;0.08900859;0;
22609.63;15028.43;2848.825;24626.16;2.854695;-2.101927;22669.17;11237.54;0.04740315;0.1538865;0;
10984.4;7493.328;3214.059;11983.74;5.129979;5.870971;10866.39;4988.069;-0.01761183;0.02379719;0;
-20064.44;-14418.33;2485.069;-21006.16;8.205307;-3.713243;-20214.22;-10522.04;-0.4073982;-0.2360961;0;
-23753.9;-15333.92;1145.838;-25813.67;13.89049;-6.589717;-23781.97;-11327.71;-0.3420215;-0.1708915;0;
-17025.28;-9485.011;-972.218;-18929.34;8.183105;-9.396318;-17018.55;-6669.495;0.2430283;0.2190843;0;
-25300.78;-17270.09;-2893.337;-27189.75;8.979166;-15.14729;-25230.65;-11723.91;0.3727188;0.1538968;0;
-3753.398;-1949.37;-3204.6;-5119.246;3.276716;-11.3141;-3756.061;-2002.709;-0.08242716;0.08877479;0;
21531.54;15103.67;-2498.484;22654.66;-2.754796;-12.24049;21562.18;10917.79;0.04759035;0.1536529;0;
20828.23;13299.69;-1326.296;23005.82;2.740328;-9.347989;20905.66;9866.597;0.3074119;-0.1063708;0;
19047.58;12368.84;889.5178;20868.22;0.594121;-6.860289;19084.85;8930.602;-0.0177337;-0.1712313;0;
22463.71;14886.65;2886.214;24471.3;9.099991;-7.255293;22518.36;11091.22;-0.2126179;-0.04112455;0;
10661.27;7291.475;3225.267;11576.56;13.10933;-4.769695;10551.51;4853.148;-0.1474369;-0.1710179;0;
-20656.99;-14894.94;2491.081;-21652.89;18.05363;-8.649791;-20777.37;-10863.33;0.1125806;-0.2358134;0;
-24541.12;-16061.92;1148.376;-26539.98;30.82887;-9.913775;-24561.83;-11718.09;-0.08243456;0.0242929;0;
-18065.28;-10478.07;-978.5839;-19912.09;10.97094;-12.24816;-18063.93;-7271.467;-0.6020905;-0.1056662;0;
-26061.64;-18045.03;-2889.452;-27965.33;-1.163872;-16.05375;-25983.01;-12449.46;0.04818794;0.2192767;0;
-3916.278;-2144.02;-3201.063;-5314.417;5.335008;-13.69328;-3912.611;-2248.088;0.4379436;0.5438931;0;
21412.37;14979.62;-2504.585;22520.96;2.784051;-14.28237;21445.56;10814.12;-0.08223521;0.4134119;0;
20640.65;13111.19;-1321.412;22821.27;4.924708;-12.12462;20720.77;9666.858;0.0477821;0.1531271;0;
18934.52;12255.21;902.6734;20753.38;7.465355;-8.294476;18973.38;8819.801;-0.08220059;-0.2368308;0;
22335.03;14758.06;2910.944;24347.01;6.519849;-12.10411;22395.28;10968.01;0.04781669;-0.3015602;0;
10543.5;7142.071;3269.962;11509.33;7.316605;-12.82876;10436.04;4743.269;0.4375727;-0.1063551;0;
-20874.57;-15160.82;2545.664;-21835.08;11.86458;-11.54319;-20997.26;-11098.1;-0.2125404;0.02368641;0;
-24586.47;-16098.22;1221.583;-26606.02;13.86141;-13.40705;-24587.13;-11851.8;-0.2772942;0.1535973;0;
-17752.5;-10152.44;-887.5851;-19594.82;19.13975;-7.164352;-17712.85;-7060.775;0.3076905;-0.3662958;0;
-26134.33;-18074.51;-2806.666;-27981.84;22.73686;-3.339187;-26015;-12360.75;-0.14739;-0.4958624;0;
-4319.711;-2426.294;-3124.434;-5671.845;22.71402;-3.469798;-4284.705;-2333.08;-0.0822746;-0.3004621;0;
21379.07;14999.62;-2417.68;22499.03;24.902;0.5525423;21417.18;10852.73;0.5025141;-0.1702255;0;
20769.23;13223.71;-1224.349;22954.52;18.71503;-6.012157;20848.97;9768.521;0.2421398;0.3496842;0;
18978.3;12304.85;1010.914;20798.7;17.69087;-10.96273;19020.8;8879.977;0.04699452;-0.04047118;0;
22495.86;14921.03;3027.135;24507.19;5.080795;-6.999845;22559.14;11125.98;0.3068167;-0.3652672;0;
10764.04;7326.687;3374.136;11735.19;-10.32965;-7.126777;10657.39;4911.39;0.3714757;0.2847732;0;
-20996.2;-15313.39;2621.559;-21956.87;2.071959;-7.521514;-21124.91;-11288.83;0.1112331;0.3494544;0;
-25059.69;-16560.65;1264.138;-27076.66;7.763304;-8.51864;-25058.4;-12188.03;-0.2137154;0.2841359;0;
-18295.65;-10688.1;-875.8389;-20140.27;-0.2150991;-6.835567;-18251.42;-7385.483;-0.08356596;0.1539158;0;
-26532.3;-18493.85;-2798.476;-28396.72;-0.8844683;-4.484357;-26411.57;-12749.75;0.3063221;-0.5608796;0;
-4350.109;-2509.558;-3091.438;-5711.714;-2.49117;-8.498705;-4310.795;-2461.342;0.0461449;-0.4303814;0;
21420.78;15003.43;-2369.583;22535.27;-8.450514;-9.293961;21457.63;10845.69;-0.2137708;0.08978978;0;
20657.77;13120.45;-1174.474;22842.07;6.361084;-12.29879;20734.91;9666.914;-0.01865401;0.3495689;0;
18953.58;12279.65;1063.363;20775.49;19.885;-16.84115;18996.08;8851.685;-0.4734067;0.1543157;0;
22436.71;14858.45;3075.221;24454.81;6.267362;-12.26951;22498.53;11059.74;-0.278029;-0.4305455;0;
10633.23;7208.697;3410.523;11632.16;1.103501;-11.58736;10527.2;4842.011;0.3069565;-0.4301128;0;
-20847.44;-15155.04;2638.888;-21792.34;4.451295;-10.23611;-20976.53;-11066.78;0.111746;-0.3647133;0;
-24875.5;-16368.87;1260.116;-26885.2;0.3609852;-6.608812;-24889.67;-11941.75;0.1766011;-0.6891836;0;
-18601.69;-11007.87;-888.758;-20423.38;7.260475;-12.2956;-18585.03;-7663.972;0.04648895;-0.3636544;0;
-27114.48;-19058.36;-2812.054;-28980.19;13.88364;-15.56529;-27015.78;-13256.86;0.1114096;0.2214171;0;
-4731.269;-2785.235;-3108.75;-6118.136;3.488185;-13.6072;-4707.368;-2641.933;0.3061997;-0.1686094;0;
21350.99;14989.22;-2387.081;22460.09;0.06842816;-13.66051;21377.89;10859.06;-0.2138467;-0.4932767;0;
20663.95;13108.99;-1191.891;22844.5;1.67595;-13.9817;20733.35;9619.862;-0.3435665;-0.3628464;0;
18832.73;12164.41;1033.938;20650.25;5.291588;-12.22616;18864.29;8743.116;-0.473156;-0.2325471;0;
22300.2;14717.96;3037.86;24301.06;-0.2070614;-15.83083;22349.46;10900.45;-0.5376479;-0.1023788;0;
10480.42;7113.864;3369.764;11411.25;-8.71332;-19.83384;10342.98;4726.731;0.3724351;-0.03730857;0;
-20893.9;-15147.46;2611.383;-21914.21;13.53328;-12.78082;-21083.13;-11060.76;0.3070935;0.09266361;0;
-24154.59;-15757.7;1278.646;-26286.38;22.42829;-11.02648;-24239.74;-11745.92;-0.3428885;-0.03736418;0;
-16987.77;-9455.687;-843.3539;-18970.17;33.39047;-6.527669;-17048.58;-6728.929;-0.08267456;-0.2322287;0;
-25598.36;-17533.56;-2779.189;-27553.41;48.89696;0.2439826;-25587.92;-12000.5;0.1772779;0.09284139;0;
-4168.961;-2296.153;-3103.56;-5614.156;39.06856;-6.454373;-4211.171;-2304.746;-0.01780228;0.02778076;0;
21219.75;14826.58;-2406.104;22286.18;41.37383;-7.452631;21223.79;10624.56;-0.01778439;-0.2321165;0;
20438.59;12901.08;-1208.24;22605.66;27.46716;-9.92345;20494.21;9435.349;0.5019722;0.1579208;0;
18648.74;11973.17;1025.789;20441.42;14.04297;-13.86535;18662.98;8514.248;0.1116638;-0.03713995;0;
22134.8;14557.02;3026.815;24128.92;16.10497;-10.56932;22170.99;10731.01;-0.1483178;-0.296972;0;
10406.9;7063.295;3371.286;11334.48;10.19526;-10.02289;10246.4;4620.311;0.7613739;-0.03680423;0;
-20754.76;-14979.83;2618.9;-21831.35;9.782874;-8.874112;-20988.92;-11012.29;0.7606089;0.02820009;0;
-24157;-15715.45;1265.479;-26332.15;6.289444;-9.20011;-24286.08;-11652.41;-0.01976337;0.0931391;0;
-17660.3;-10125.53;-861.5677;-19646.86;11.64176;-3.095541;-17750.36;-7288.313;-0.01974351;-0.03688917;0;
-26482.16;-18404.69;-2789.654;-28495.8;15.18003;2.734902;-26524.68;-12892.62;0.305113;-0.3616888;0;
-4610.534;-2600.892;-3118.278;-6139.528;16.90707;0.4547948;-4709.812;-2591.011;-0.08499759;-0.2313907;0;
21118.42;14805.54;-2423.305;22161.09;23.58789;2.865662;21108.79;10618.44;-0.08491219;-0.1012235;0;
20392.43;12839.78;-1237.387;22559.92;16.53061;-0.6871904;20447.1;9358.709;0.1100752;-0.2960238;0;
18549.31;11870.5;982.0849;20343.28;15.44228;-4.035585;18555.5;8404.53;-0.1499048;-0.230759;0;
22115.1;14543.66;2989.838;24095.24;12.01148;-0.9503767;22147.41;10703.13;-0.08478685;-0.1005925;0;
10193.78;6855.826;3334.066;11061.43;5.770123;-2.489968;10019.56;4558.349;0.2401351;0.02944327;0;
-21664.75;-15911.61;2576.907;-22774.7;12.26106;1.531388;-21922.72;-11754.38;0.1749264;-0.03555366;0;
-25125.93;-16636.64;1236.74;-27294.38;13.25312;4.744969;-25281.78;-12403.94;-0.08511871;-0.1654526;0;
-18574.64;-11008.99;-899.6167;-20567.29;15.58432;1.72603;-18697.09;-7954.626;0.3047709;-0.03535169;0;
-28101;-19982.79;-2850.06;-30076.91;18.8512;1.858261;-28140.63;-14127.2;0.4343993;0.2245532;0;
-5808.116;-3593.562;-3153.933;-7281.74;17.15731;-0.6219132;-5877.217;-3219.839;-0.2806779;0.09439288;0;
21157.51;14943.73;-2418.569;22187.91;18.01073;-2.898647;21146.87;10811.5;0.04444081;-0.03563664;0;
20765.71;13168.62;-1211.12;22917.95;15.64909;-1.891051;20809.47;9635.63;0.4342002;0.2892359;0;
19083.03;12422.66;1030.003;20857.92;14.62801;-0.7504414;19084.96;8970.605;-0.3458442;0.09404322;0;
22729.95;15143.18;3042.549;24711.7;10.99696;-4.50067;22758.13;11306.54;-0.410464;0.09394872;0;
11016.26;7507.794;3371.919;11986.94;5.96207;-9.184832;10836.09;5007.041;0.1746545;0.418691;0;
-20589.31;-14968.33;2594.388;-21635.46;9.171261;-1.2718;-20876.45;-11133.54;0.1095117;0.09343362;0;
-24987.65;-16468.75;1229.498;-27136.12;11.10443;3.284196;-25170.15;-12147.22;-0.2804024;0.0283724;0;
-19144.2;-11575.73;-901.4172;-21086.38;4.86398;2.410179;-19275.89;-8328.26;-0.4750227;0.2232459;0;
-28239.44;-20115.21;-2832.056;-30238.89;-1.102754;6.024713;-28304.35;-14311.38;-0.4095781;0.1580543;0;
-5808.766;-3500.273;-3153.423;-7331.146;1.511298;2.200754;-5907.76;-3148.432;-0.4741338;-0.03700658;0;
21134.75;14969.15;-2434.458;22162.18;-4.183648;0.1220722;21116.5;10845.32;-0.5386248;-0.3618061;0;
20886.58;13279.79;-1224.353;23033.65;5.197679;3.002155;20928.43;9724.547;-0.1482795;-0.2315079;0;
19104.85;12445.85;1001.978;20886.51;21.46845;2.999138;19101.45;8996.137;0.04677149;0.02859411;0;
22662.2;15079.15;3004.308;24638.94;-11.37353;5.742364;22684.38;11227.16;0.1116918;0.4183694;0;
10911.79;7457.09;3336.995;11826.67;-27.23694;7.746082;10713.19;4992.506;-0.01835507;0.2880144;0;
-20706.92;-15028.95;2566.247;-21798.85;-28.14758;9.345767;-21016.26;-11111.61;-0.2132387;-0.03711174;0;
-24648.06;-16185.49;1234.524;-26848.53;-45.66809;12.35061;-24869.47;-12078.64;-0.3429591;-0.2969438;0;
-18028.17;-10441.12;-867.1609;-20062.13;-19.36489;10.99854;-18223.78;-7557.859;-0.01777776;-0.4915475;0;
-26714.62;-18674.46;-2807.002;-28766.39;-2.533573;9.714812;-26816.92;-13091.43;0.1771421;0.1586199;0;
-4645.825;-2758.043;-3141.574;-6150.14;-11.70708;13.25515;-4752.039;-2599.312;-0.1478726;0.4832972;0;
21461.13;15085.51;-2437.067;22523.47;-9.68656;13.91166;21437.81;10908.07;0.04717803;0.2879095;0;
20793.67;13243.46;-1246.512;22942.17;-5.456292;15.03627;20833.53;9714.161;-0.01783671;0.1576856;0;
19028.37;12355.83;977.1545;20807.83;0.3763401;17.36556;19023.32;8892.715;-0.3426555;-0.03737491;0;
22490.47;14907.25;2980.665;24472.4;-6.188121;11.38675;22509.68;11053.84;-0.2773439;0.09259733;0;
10755.18;7307.095;3328.119;11637.34;-8.325357;7.356457;10551.66;4810.855;-0.01719581;-0.2323324;0;
-20505.82;-14824.2;2583.522;-21640.94;-12.33646;7.081133;-20830.52;-10984.42;0.3076582;-0.621903;0;
-24337.66;-15864.9;1250.564;-26574.22;-20.09359;5.73436;-24569.59;-11809.57;0.2423817;-0.4263761;0;
-17669.45;-10078.97;-851.6678;-19749.83;-11.49959;2.915375;-17862.31;-7146.462;0.2421381;-0.1660783;0;
-25802.86;-17803.18;-2761.461;-27899.92;-7.804337;1.036985;-25943.74;-12431.4;0.1769275;-0.2958461;0;
-3892.654;-2111.931;-3074.871;-5431.153;-7.863844;0.5670625;-4056.507;-2338.229;-0.08311964;-0.3605162;0;
21407.82;14994.48;-2383.549;22457.54;-4.975554;-1.442934;21376.43;10773.17;0.1118659;-0.2302193;0;
20602.36;13067.94;-1239.01;22754.23;-4.099899;2.912284;20644.68;9579.191;0.1767208;-0.1000533;0;
18891.65;12209.53;940.0157;20665.93;-4.02843;4.918846;18879.81;8715.293;-0.01835875;0.2898513;0;
22405.41;14827.47;2948.436;24382.84;1.133181;7.928074;22425.11;10995.74;-0.08330765;0.1596254;0;
10750.65;7345.188;3322.753;11646.78;5.4863;13.88147;10537.11;4843.986;-0.01825659;-0.4252411;0;
-20704.27;-14981.49;2604.679;-21846.05;2.465701;7.638228;-21049.16;-11146.11;0.04672909;-0.1649444;0;
-24139.57;-15706.05;1310.024;-26408.42;4.540304;4.281468;-24389.72;-11841.5;-0.08325254;0.2899927;0;
-17146.32;-9601.484;-779.3363;-19217.4;-2.564205;7.291337;-17350.19;-6995.558;0.1767005;-0.03513538;0;
-26230.38;-18187.25;-2719.328;-28292.49;-9.193061;6.81513;-26368.28;-12673.83;0.4363923;-0.3599368;0;
-4566.833;-2763.079;-3059.204;-6110.402;-5.299057;7.946992;-4721.748;-2608.333;0.3709865;-0.6844118;0;
21545.2;15109.5;-2367.039;22573.81;-9.312221;9.88139;21516.5;10934.22;0.240679;-0.8786262;0;
20879.79;13341.38;-1210.803;23030.24;-1.064817;7.259248;20924.07;9818.113;-0.2143342;0.03179947;0;
19084.34;12409.41;982.9049;20863.1;5.232893;6.783074;19074.72;8939.294;-0.2790862;0.6814409;0;
22591.87;15005;2993.5;24570.53;-0.4657927;7.178156;22612.67;11159.52;0.240933;0.2259848;0;
10982.74;7480.778;3352.716;11873.15;1.8792;5.295421;10777.45;4954.404;0.5655276;-0.09907895;0;
-20208.31;-14588.4;2622.15;-21356.72;-5.624777;10.78258;-20544;-10807.47;0.3700573;-0.3588488;0;
-24135.68;-15690.57;1302.022;-26393.82;-7.896301;12.9152;-24382.95;-11696.36;-0.08508591;-0.1635862;0;
-17846.67;-10307.03;-810.6316;-19907.45;-13.85021;14.24176;-18047.75;-7438.927;-0.02003308;0.1614149;0;
-26471.27;-18431.04;-2728.728;-28552.92;-25.75901;16.57185;-26613.41;-12994.66;-0.08498029;-0.0336493;0;
-4387.319;-2447.406;-3053.462;-5954.339;-8.451779;13.94286;-4552.15;-2550.061;-0.2148296;-0.2285175;0;
21449.12;15108.28;-2368.393;22475.83;-1.811855;15.60343;21418.87;10897.93;-0.1496464;-0.2282879;0;
20813.88;13259.46;-1203.55;22965.5;0.9366323;6.679263;20859.7;9762.499;0.1103733;-0.03315648;0;
19109.12;12433.7;988.2454;20879.85;10.17909;-0.09260246;19098.89;8938.396;0.3701318;-0.09809051;0;
22591.77;15011.75;2992.744;24570.93;1.595048;0.7782687;22613.24;11184.2;-0.08501149;-0.03302461;0;
11087.06;7597.646;3361.394;11991.46;1.526097;-3.777231;10881.51;5030.989;-0.2798281;0.03197592;0;
-20509.19;-14859.22;2618.794;-21637.17;-4.972171;1.250163;-20840.79;-11138.35;0.3701265;0.03194379;0;
-24656.89;-16175.45;1278.773;-26889.16;-12.60299;2.856436;-24892.73;-12136.96;0.3047872;0.1618464;0;
-17784.95;-10203.38;-840.3538;-19840.88;-9.040348;5.599805;-17979.35;-7327.488;-0.2152577;-0.163153;0;
-26635.15;-18568.85;-2787.452;-28707.18;-12.84966;11.95743;-26763.97;-12979.66;-0.3449761;-0.2279564;0;
-4926.256;-3014.486;-3107.192;-6469.59;-6.674805;5.0463;-5071.56;-2802.989;-0.08476013;0.0971094;0;
21487.29;15104.34;-2382.979;22508.55;-3.050775;2.964819;21459.28;10958.99;0.1751944;-0.03292286;0;
20964.14;13406.95;-1225.931;23108.53;-2.243427;2.425977;21007.29;9864.96;0.2399857;-0.1628245;0;
19091.57;12422.67;963.4509;20865.96;4.389284;-2.198161;19083.52;8957.499;0.04484255;-0.2276282;0;
22648.26;15059;2970.848;24624.96;-4.389037;3.631441;22670.61;11216.55;-0.3450066;0.1624046;0;
11128.69;7631.949;3319.437;12028.31;-8.805256;7.04386;10918.8;5060.677;-0.4745946;0.2272087;0;
-19941.93;-14302.88;2577.41;-21086.36;-6.854025;3.017868;-20282.83;-10587.83;-0.149281;-0.422693;0;
-23726.84;-15330.86;1238.367;-25995.38;-11.93833;3.550699;-23971.07;-11444.39;-0.344033;-0.4222682;0;
-17437.36;-9942.083;-895.087;-19530.03;-3.419867;-0.002903341;-17642.84;-7226.335;-0.1487853;-0.2919093;0;
-26339.4;-18304.46;-2840.319;-28438.32;2.009552;-2.816123;-26481.12;-12863.25;0.1762009;-0.1616813;0;
-4375.685;-2514.685;-3156.398;-5927.925;-3.753243;-1.13872;-4529.109;-2533.264;-0.3437149;0.1633179;0;
21527.97;15129;-2440.554;22565.93;-3.414679;-3.749849;21499.16;10915.99;-0.2784022;0.09818643;0;
20810.62;13270.85;-1269.142;22967.78;-8.434114;3.688842;20856.04;9775.044;0.04671427;-0.09681425;0;
19139.75;12459.95;938.0244;20909.64;-10.50272;10.51721;19132.02;8968.81;-0.2781694;-0.03174963;0;
22573.07;14992.18;2933.734;24559.2;-14.64438;4.813216;22597.56;11168.17;-0.2129225;0.1631843;0;
11005.75;7525.257;3256.873;11951.36;-20.32309;3.669731;10803.77;4971.762;0.1770955;0.292955;0;
-20344.79;-14698.87;2486.673;-21444.68;-15.2798;5.139607;-20690;-10998.57;-0.0179845;0.2926607;0;
-24521.8;-16043.65;1134.728;-26769.88;-16.4699;6.139187;-24787.48;-12007.04;-0.4077705;0.3573339;0;
-17704.79;-10139.55;-986.9714;-19776.8;-7.477392;3.922642;-17916.34;-7220.073;-0.2774261;0.03213817;0;
-26374.75;-18307.68;-2924.365;-28443.27;2.309385;1.507376;-26502.5;-12714.66;-0.3421147;-0.1627962;0;
-4875.568;-2913.713;-3257.804;-6404.421;-4.055948;4.252101;-5016.393;-2740.769;-0.4717056;0.5520082;0;
21320.51;14958.76;-2559.536;22353.83;-3.784429;4.113863;21295.56;10789.67;-0.2763296;0.3565515;0;
20840.52;13282.26;-1386.678;22987.35;-4.115418;6.722002;20887.81;9758.31;0.1137521;-0.2934802;0;
18964;12288.93;829.4462;20746.57;-6.723252;9.394444;18960.54;8827.577;0.1786052;0.09661876;0;
22520.94;14935.7;2840.195;24501.36;-3.636013;7.040723;22546.63;11087.22;-0.146411;-0.03341301;0;
10773.64;7329.572;3178.545;11656.56;-3.162869;6.765717;10580.33;4915.351;-0.1462639;-0.2282815;0;
-20749.3;-15085.75;2426.29;-21893.03;-5.035701;5.218311;-21061.17;-11125.32;0.3736218;0.03181729;0;
-24617.32;-16149.28;1084.12;-26844.11;-6.638232;3.605538;-24831.68;-12014.3;0.3732464;-0.5529208;0;
-18029.48;-10463.97;-1052.209;-20070.38;-4.956623;2.731137;-18196.94;-7508.864;-0.01693269;-0.6173325;0;
-26892.55;-18826.96;-2989.381;-28966.48;0.4069926;1.388795;-26989.99;-13256.69;-0.08188302;-0.4218102;0;
-4953.328;-2936.023;-3296.393;-6522.325;-10.64548;0.5166218;-5072.092;-2846.457;-0.08180074;-0.4213863;0;
21283.09;14971.07;-2571.053;22297.14;-19.2086;0.181188;21267.52;10798.22;0.1131835;0.09877578;0;
20696.97;13126.2;-1368.87;22856.44;-7.735093;-1.761438;20749.82;9617.065;0.2430044;0.1636439;0;
18997.63;12324.87;874.7539;20772.92;-4.579488;-4.773839;19002.99;8864.588;-0.2769785;0.1634795;0;
22567.47;14985.66;2893.922;24552.76;1.319611;-0.5491786;22603.63;11148.39;-0.08179814;0.4881519;0;
10715.08;7237.41;3227.001;11676.47;8.350883;1.728732;10530.03;4851.783;0.4380228;0.03289;0;
-20840.47;-15202.76;2477.041;-21917.65;8.409841;0.7222509;-21141.34;-11208.12;-0.08215608;-0.1620451;0;
-24489.37;-16034.78;1159.119;-26718.69;11.81764;3.13285;-24678.82;-12011.15;-0.4069102;0.2279218;0;
-17539.49;-9951.838;-949.9235;-19578.96;10.26455;-1.090101;-17678.71;-7132.01;0.1132374;0.1627254;0;
-26415.52;-18360.72;-2886.854;-28443.63;8.311853;-2.897545;-26474.83;-12727.36;-0.08177844;0.4224313;0;
-4685.282;-2816.337;-3196.312;-6178.623;9.844719;-2.559719;-4761.945;-2649.36;-0.3415656;0.5519415;0;
21532.16;15130.93;-2466.794;22591.31;10.43706;-4.231659;21532.34;10968.27;-0.2112878;0.1615829;0;
20933.34;13378.38;-1286.985;23097.32;4.398356;-0.5434067;20990.53;9873.154;-0.1461081;-0.09844885;0;
19068.52;12397.05;926.6961;20860.52;-0.1604145;-0.208007;19081.3;8946.257;0.04894073;-0.03338258;0;
22593.01;15003.57;2947.842;24589.42;-0.3613242;5.552612;22634.91;11183.83;0.1138589;-0.1632837;0;
11124.41;7598.708;3296.454;12068.54;-2.102273;11.57537;10961.44;5084.055;0.2436792;-0.4879563;0;
-20111.79;-14510.52;2539.208;-21183.08;-2.43593;8.214719;-20370.31;-10653.1;0.2434343;-0.292564;0;
-24055.01;-15649.45;1196.049;-26248.5;-3.236789;8.340431;-24210.31;-11570.76;-0.276549;-0.09736805;0;
-17523.66;-10013.55;-927.3986;-19542.8;-1.492225;7.528255;-17637.36;-7138.43;-0.2762711;-0.3571396;0;
-26313.71;-18276.83;-2853.998;-28323;-1.155933;5.645169;-26341.75;-12750.45;-0.08109151;-0.2918134;0;
-4448.133;-2576.742;-3150.589;-5914.105;1.859339;5.840445;-4504.822;-2571.544;-0.275912;-0.0316508;0;
21513.41;15119.39;-2417.634;22589.65;4.335717;5.164747;21522.42;10933;-0.3406022;0.03334835;0;
20858.88;13315.19;-1221.601;23040.19;3.930195;2.748233;20929.18;9845.48;-0.1453579;0.03331484;0;
19128.89;12451.5;1000.572;20930.58;6.605563;1.070959;19155.12;8997.728;-0.0802445;0.2931508;0;
22533.23;14951.43;3001.967;24542.1;0.6370789;-0.537646;22587.42;11156;-0.08016387;0.1629215;0;
11081.08;7545.501;3354.146;12091.81;-1.640737;-3.082396;10937.9;5018.28;-0.01511598;-0.09711158;0;
-20129.21;-14533.91;2616.77;-21106.91;-5.523854;-1.002889;-20347.48;-10717.34;-0.2749701;0.09788802;0;
-24288.76;-15794.4;1271.597;-26405.41;-13.15411;-0.1311643;-24387.25;-11695.6;-0.4046285;0.09778966;0;
-17636.61;-10052.62;-845.8357;-19572.15;-3.964845;-0.599852;-17690.99;-7100.126;-0.1443526;0.2276261;0;
-26392.37;-18311.51;-2780.357;-28303.33;0.05860262;0.4054337;-26352.72;-12605.81;-0.01427288;0.09746268;0;
-4795.659;-2804.644;-3116.362;-6185.543;-1.080532;-0.06385418;-4791.678;-2605.84;-0.1441932;-0.3574066;0;
21397.73;15064.43;-2402.103;22499.69;1.532522;1.945698;21431.97;10919.43;-0.1440483;-0.4220148;0;
20886.38;13320.32;-1218.674;23077.58;-0.344052;-2.276121;20967.22;9842.326;0.1809331;-0.2916561;0;
18927.29;12270;989.9724;20751.54;0.1921571;-7.632346;18969.93;8848.416;-0.01415071;-0.09646105;0;
22530.16;14946.1;3014.741;24550.81;-1.616697;1.082921;22598.41;11147.16;-0.1440712;-0.1613315;0;
11035.22;7477.206;3357.069;12074.81;-3.155314;5.100687;10926.72;5068.933;-0.07895907;-0.291104;0;
-20375.43;-14794.79;2585.957;-21292.04;-2.416185;4.693664;-20525.51;-10751.52;-0.01391239;-0.09590951;0;
-23826.47;-15469.64;1270.737;-25906.88;-2.882272;8.640819;-23854.21;-11490.78;0.635775;0.2290236;0;
-16761.18;-9287.147;-829.4536;-18666.26;-2.477234;4.613343;-16753.07;-6639.902;0.5701689;0.2287935;0;
-25811.47;-17761.27;-2783.231;-27693.54;-3.881265;4.943562;-25732.56;-12203.87;0.04985719;-0.2911752;0;
-4382.59;-2512.392;-3137.568;-5779.771;0.6769865;2.125372;-4368.801;-2446.285;-0.08012759;-0.35585;0;
21453.83;15068.8;-2458.099;22553.06;3.824138;-3.302198;21496.62;10898.45;-0.1450144;0.1642464;0;
20815.52;13283.51;-1288.997;23010.07;4.156064;6.681333;20907.62;9846.945;-0.07990137;-0.2906901;0;
19069.83;12395.51;915.2537;20898.95;10.71597;10.49253;19121.98;8970.908;-0.1447884;-0.4203327;0;
22522.31;14944.94;2912.642;24552.06;-1.418585;13.36225;22595.92;11170.88;-0.07967559;0.2947305;0;
10998.78;7492.57;3266.442;12028.15;-12.87136;17.50164;10908.55;4972.919;0.1802738;0.1644996;0;
-20207.81;-14564.77;2531.247;-21126.01;0.8729496;16.07741;-20311.29;-10673.82;0.1800927;-0.1605024;0;
-24141.49;-15643;1200.621;-26204.26;4.154602;16.59712;-24131.59;-11535.07;0.1149444;0.09952824;0;
-17595.38;-9994.07;-916.553;-19485.3;5.824391;14.16906;-17563.88;-7086.02;0.04986155;0.2293629;0;
-26219.85;-18143.62;-2859.764;-28071.04;12.04783;14.55672;-26095.8;-12501.05;-0.2750252;-0.1606716;0;
-4380.151;-2463.397;-3209.869;-5721.47;3.194464;4.76283;-4321.132;-2413.693;-0.664553;-0.2904449;0;
21431.68;15067.61;-2528.579;22567.02;0.1771447;-4.150442;21487.89;10891.3;-0.0142118;0.2945531;0;
20794.85;13251.28;-1377.631;22994.82;-2.502351;-1.600981;20891.94;9831.832;0.5055412;0.4241918;0;
18956.96;12288.02;804.6884;20796.4;-8.059542;-4.278629;19017.7;8869.604;0.2451639;0.2288636;0;
22468.7;14894.92;2810.652;24505.89;-4.23305;-1.996971;22550.76;11115.03;0.3098849;-0.09620313;0;
10821.45;7315.727;3158.464;11843.71;-3.15707;0.2823945;10742.61;5000.708;-0.08023054;-0.1610738;0;
-21289.63;-15676.66;2396.922;-22169.66;-5.297351;-0.4547015;-21373.14;-11465.92;-0.275052;0.5537288;0;
-25311.71;-16807.85;1070.304;-27280.82;-6.899619;0.4835165;-25261.98;-12503.92;0.3748978;0.6831071;0;
-17826.15;-10231.49;-1033.621;-19636.64;-4.548162;2.492458;-17744.73;-7197.95;0.6993579;0.03274728;0;
-26542.94;-18430.71;-2976.964;-28325.94;-4.276148;4.097544;-26363.07;-12640.26;0.3738184;-0.0972203;0;
-4985.45;-2889.339;-3313.505;-6282.603;-2.195746;5.834921;-4879.726;-2680.621;0.0486061;-0.09712262;0;
21293.65;15007.48;-2617.399;22429.03;3.700958;10.04886;21362.38;10878.09;-0.01641008;-0.4218617;0;
20780.75;13211.21;-1454.899;22988.39;-7.689615;3.9435;20882.29;9772.004;0.1135411;-0.2915032;0;
18962.29;12299.72;743.6305;20813.87;-14.37969;-0.2803258;19033.38;8902.944;-0.3413444;0.3584632;0;
22479.04;14899.44;2746.345;24520.66;-12.22179;3.93982;22564.73;11130.78;-0.2110667;0.2281683;0;
10823.67;7360.998;3108.09;11863.54;-17.3007;3.199049;10767.62;4939.563;0.8286228;-0.161865;0;
-20755.24;-15088.54;2379.394;-21590.49;-8.775875;7.080783;-20789.79;-11009.37;0.8277902;-0.0317677;0;
-24832.83;-16337.56;1046.047;-26735.13;-3.07363;9.752864;-24743.46;-11973.82;-0.08258433;-0.09670312;0;
-18149.74;-10558.91;-1066.037;-19894.18;-7.223728;9.274183;-18040.68;-7417.306;-0.1474687;-0.291508;0;
-26829.16;-18740.46;-2992.887;-28569.51;-7.082747;11.14039;-26628.31;-12981.43;-0.01738583;-0.1612804;0;
-4875.458;-2837.369;-3322.853;-6169.248;-7.812565;8.78479;-4760.015;-2680.32;-0.147303;0.09875103;0;
21286.92;14983.9;-2625.129;22417.93;-6.86671;9.110878;21363.53;10857.35;-0.342057;0.2935539;0;
20644.34;13078.12;-1469.321;22862.21;-12.1511;5.484767;20751.77;9656.383;-0.5366154;0.1633242;0;
18802.25;12138.67;726.8806;20663.65;-16.22472;1.929221;18878.21;8746.93;-0.3411742;0.03322539;0;
22434.77;14854.97;2758.472;24475.46;-14.93562;3.065993;22528.21;11086.44;-0.1459293;0.09815935;0;
10770.2;7264.449;3129.95;11797.18;-16.12704;-1.424822;10720.74;4991.316;-0.1457827;0.03309338;0;
-21055;-15437.46;2393.486;-21893.81;-15.2392;7.686105;-21079.04;-11117.95;-0.01570153;0.09802747;0;
-24777.17;-16289.39;1076.773;-26677.28;-16.1619;14.71135;-24672.57;-11988.19;0.04928159;0.03296163;0;
-17614.87;-10024.24;-1047.648;-19361.81;-11.52396;8.40029;-17493.78;-7101.847;0.1141994;0.09789585;0;
-26705.83;-18609.77;-3006.688;-28421.15;-7.962403;10.20039;-26484.11;-12755.71;0.04911732;0.1627648;0;
-5140.619;-3066.746;-3326.676;-6385.893;-7.485888;1.415619;-4996.945;-2716.245;-0.08086672;0.2275686;0;
21185.6;14908.8;-2622.655;22340.17;-2.187081;-7.427367;21271.05;10795.33;-0.01581812;0.3572747;0;
20536.63;12963.56;-1478.421;22749.13;-10.42293;-1.659494;20642.82;9528.057;-0.01580222;0.226981;0;
18599.19;11933.12;720.6002;20463.42;-16.57537;-2.059724;18679.29;8555.826;-0.3406231;0.03185087;0;
22186.52;14600.88;2743.359;24227.11;-11.26646;-1.454808;22278.19;10832.3;-0.01544409;-0.1630832;0;
10610.4;7092.301;3121.942;11605.43;-13.0638;1.828756;10561.38;4764.288;0.5043102;-0.09795195;0;
-20677.86;-15052.03;2411.442;-21556.8;-7.223523;-3.062774;-20696.76;-10855.65;0.1139994;0.2269832;0;
-24220.15;-15749.56;1079.781;-26147.42;-0.1163176;-4.600243;-24115.11;-11517.03;-0.2109519;-0.2929836;0;
-17413.09;-9870.056;-1052.389;-19166.86;-7.752011;-4.12674;-17291.46;-6957.634;-0.08080522;-0.4226239;0;
-26527.02;-18449.85;-2986.875;-28279.21;-9.150742;-7.806594;-26329.97;-12696.69;0.04921065;0.3574089;0;
-5004.713;-2926.998;-3300.464;-6342.841;-8.605683;1.310746;-4900.636;-2696.627;0.04916121;0.032213;0;
21105.82;14827.65;-2582.07;22215.74;-10.53942;8.476358;21184.33;10689.82;-0.01585553;-0.09775405;0;
20595.51;13031.83;-1405.081;22820.36;-4.835402;3.645253;20704.37;9628.814;0.1790624;0.4220829;0;
18736.04;12060.29;806.0948;20592.46;-2.820811;6.588778;18810.56;8656.42;0.1139152;0.03185475;0;
22316;14739.21;2830.111;24357.3;1.736374;-0.6518765;22409.12;10974.52;-0.08110133;-0.09811194;0;
10641.76;7187.896;3186.462;11668.3;5.485674;-8.889878;10593.87;4955.811;0.04891485;0.2917907;0;
-21863.38;-16207.74;2425.36;-22699.89;5.882304;2.438865;-21878.53;-11858.61;-0.01610165;-0.03333921;0;
-26504.18;-17991.16;1081.878;-28358.94;6.412256;7.794988;-26395.67;-13139.84;-0.01608547;0.09662897;0;
-19591.6;-12048.92;-1039.924;-21280.62;7.543913;5.777668;-19471.27;-8421.535;0.1788327;0.4213686;0;
-28676.15;-20568.1;-2995.662;-30382.27;12.49283;6.977555;-28439.14;-14394.04;0.3085877;0.03114114;0;
-6343.095;-4035.893;-3315.583;-7616.907;-1.384828;8.97991;-6182.007;-3367.498;0.1133756;-0.03385749;0;
21186.58;15023.87;-2572.967;22314.74;-10.55949;10.37753;21271.96;10983.61;-0.211575;-0.2287255;0;
20930.26;13324.35;-1370.688;23143.01;-4.588007;11.43883;21036.91;9843.876;0.1784416;-0.4233977;0;
19095.58;12432.75;864.9416;20961.64;0.1056525;12.09716;19176.33;9074.68;0.2432297;0.1617338;0;
22680.72;15099.78;2878.06;24727.52;-6.726957;12.55389;22772.31;11315.48;-0.2117861;0.09660396;0;
10682.34;7173.368;3204.534;11712.79;-16.69956;14.21573;10643.69;4916.224;0.1782307;-0.2283298;0;
-21446.55;-15826.84;2445.944;-22270.2;9.105042;9.177844;-21442.09;-11535.57;0.3079863;-0.09816571;0;
-26284.29;-17758.95;1070.77;-28064.4;19.67846;4.680887;-26133.68;-12740.31;-0.2120619;0.1618023;0;
-20458.11;-12891.07;-1106.806;-22047.79;34.05966;6.819638;-20279.85;-8959.869;-0.0819141;0.09667237;0;
-29034.54;-20952.92;-3047.827;-30707.69;60.95233;5.473127;-28756.18;-14836.91;0.3079723;-0.1632941;0;
-5838.201;-3628.766;-3337.321;-7097.717;30.81636;6.338406;-5655.509;-3146.025;0.1127608;0.03177197;0;
21329.14;15112.8;-2591.387;22471.65;15.91494;7.671695;21421.43;11070.04;-0.01728721;0.09670739;0;
21022.83;13428.26;-1383.093;23243.17;23.46838;3.645072;21130.97;9952.925;0.0476975;-0.2282265;0;
19309.42;12646.49;847.5516;21172.11;17.14816;0.6942211;19394.95;9281.085;-0.3421545;-0.03309514;0;
22817.99;15234.03;2849.787;24867.23;20.14504;1.966138;22913.21;11464.31;-0.4717453;-0.09802923;0;
11088.14;7558.069;3162.765;12209.38;19.79001;2.901924;11055.92;5181.274;0.04846739;-0.4877348;0;
-21079.14;-15473.78;2379.01;-21813.06;18.09616;-2.392522;-21065.83;-11325.45;0.3732554;-0.4872447;0;
-25970.42;-17457.76;1009.432;-27769.32;17.47476;-6.676903;-25818.5;-12564.96;-0.08189104;-0.2268858;0;
-19587.34;-12025.27;-1143.813;-21211.31;19.53331;-4.25887;-19409.36;-8249.916;-0.2767108;-0.09672309;0;
-28258.41;-20184.61;-3100.96;-29929.08;22.193;-2.178181;-27987.46;-14087.75;0.1783386;0.1632435;0;
-5695.158;-3567.137;-3405.331;-6958.332;21.56846;-7.333556;-5528.36;-3045.185;0.04822477;0.5528835;0;
21405.18;15139.91;-2652.504;22532.26;24.02504;-11.01013;21493.72;11103.65;-0.211693;0.6172953;0;
21128.21;13539.99;-1453.238;23331.96;19.98143;-6.645295;21238.09;10061.25;-0.01657832;0.2918383;0;
19350.39;12686.04;775.3844;21211.22;14.67007;-5.7679;19433.64;9329.082;0.04840568;0.2265778;0;
22867.03;15279.16;2792.872;24918.37;23.89873;-2.948883;22960.24;11508.39;0.5031284;0.6161541;0;
11131.03;7556.646;3114.559;12189.85;32.44853;0.537132;11093;5153.764;1.152296;0.09579627;0;
-20746.59;-15197.97;2341.067;-21559.08;21.49759;-0.2002199;-20743.87;-11065.05;0.8263018;-0.2291367;0;
-25304.92;-16810.5;984.7386;-27119.11;14.84553;3.015101;-25163.21;-12168.31;-0.01910395;0.09593026;0;
-18962.62;-11370.71;-1152.739;-20594.63;22.33173;-2.54739;-18791.39;-7930.546;0.1758173;0.03086652;0;
-27517.18;-19485.67;-3081.47;-29215.84;21.43863;-9.108974;-27254.01;-13571.11;0.04570593;0.2257375;0;
-5019.906;-3015.376;-3387.797;-6297.878;24.23013;-0.05737009;-4860.489;-2694.125;-0.08427469;0.1605434;0;
21515.44;15230.45;-2658.679;22647.7;22.93396;3.693671;21602.36;11138.96;0.2406467;-0.1644547;0;
21101.77;13534.42;-1452.785;23311.3;22.97729;1.948403;21208.58;10086.54;0.04550288;-0.4241588;0;
19436.58;12763.2;780.1473;21295.85;25.96831;5.027599;19514.53;9380.879;0.1104245;-0.4237326;0;
22926.88;15343.18;2798.005;24977.4;10.13473;-0.6708798;23016.74;11587.73;0.4351502;0.1613993;0;
11361.76;7787.287;3137.49;12443.7;9.186545;-4.153196;11320.84;5342.407;0.3697457;0.2911718;0;
-20453.41;-14891.47;2365.724;-21234.36;-19.82471;-0.5990496;-20453.96;-10805.88;0.04453744;-0.03395751;0;
-24974.26;-16508.8;1012.12;-26837.81;-49.94687;0.4732793;-24859.66;-11982.6;0.10946;0.2909133;0;
-18447.22;-10902.96;-1115.516;-20165.11;-28.32842;1.812401;-18333.61;-7662.518;0.3042521;0.5504904;0;
-27388.44;-19318.29;-3060.448;-29094.11;-28.76944;1.944546;-27176.08;-13392.57;-0.0858577;0.1601332;0;
-5255.003;-3228.119;-3366.53;-6520.146;-19.02765;8.707685;-5126.184;-2806.573;-0.2157061;-0.03492973;0;
21545.76;15227.65;-2625.596;22659.52;-5.679288;13.78952;21618.18;11132.98;0.04438;0.0300727;0;
21145.66;13572.15;-1444.55;23352.16;-13.97898;16.12006;21247.96;10115.12;0.1093027;-0.0998922;0;
19405.47;12736.85;773.0843;21256.77;-10.21486;22.06523;19476.73;9343.921;-0.02074176;-0.03482448;0;
22981.19;15393.15;2798.227;25026.96;-16.70133;18.0242;23068.19;11629.99;0.04424642;0.1601125;0;
11485.07;7869.254;3139.211;12610.77;-18.22479;15.9966;11424.47;5374.565;-0.08573272;0.09498431;0;
-20093.03;-14566.47;2383.654;-20852.12;-26.24443;19.46352;-20144.58;-10619.27;-0.3455159;0.2897909;0;
-24811.16;-16311.87;1050.084;-26690.3;-36.1984;19.24301;-24735.27;-11829.26;-0.0852994;0.4194344;0;
-18599.57;-11033.3;-1063.253;-20325.29;-30.1338;21.23316;-18500.77;-7745.925;-0.02024635;-0.1656931;0;
-27171.85;-19161.33;-2988.763;-28913.6;-33.25136;21.34579;-26971.07;-13326.86;-0.215128;-0.1005593;0;
-4894.414;-2935.392;-3301.211;-6197.891;-24.64413;23.0659;-4771.946;-2657.61;-0.4098139;0.09444377;0;
21645.63;15333.31;-2577.194;22758.96;-18.52478;25.25304;21715.6;11225.54;-0.4743695;-0.03558581;0;
21295.07;13723.49;-1395.884;23499.35;-17.63551;21.40976;21392.56;10273.29;0.04584593;0.4841887;0;
19555.88;12885.35;809.6293;21394.03;-9.446113;20.04859;19621.58;9479.223;0.04579986;0.3537675;0;
23053.27;15462.68;2829.55;25094.02;-19.14854;17.08132;23136.67;11714.79;-0.1491482;-0.1663267;0;
11925.34;8196.941;3195.678;13031.76;-22.67927;13.24613;11862.37;5593.979;0.1758384;0.1586771;0;
-19451.72;-14032.41;2448.028;-20245.73;-20.17823;13.96963;-19505.79;-10217.7;-0.08420766;0.223485;0;
-24371.44;-15926.83;1107.023;-26250;-18.3493;13.28576;-24298.33;-11504.53;-0.2140577;-0.4913803;0;
-18225.46;-10745.14;-1001.468;-19917.22;-19.8711;11.19607;-18130.85;-7566.255;0.1109941;-0.3609519;0;
-27277.42;-19198.06;-2945.859;-28986.65;-24.87498;9.44326;-27083.57;-13308.45;-0.01905215;0.02921486;0;
-5446.659;-3250.808;-3283.899;-6740.165;-6.296808;10.17058;-5329.828;-2811.566;-0.3438697;-0.1657165;0;
21448.47;15236.9;-2561.196;22547.88;2.819197;10.89718;21516.15;11143;-0.2135895;-0.03561532;0;
21326.25;13733.31;-1385.837;23527.89;14.33694;9.211654;21422.19;10263.92;0.2413965;0.2242898;0;
19516.22;12850.4;814.5443;21362.45;32.34082;9.001449;19581.25;9452.716;-0.01871542;0.2890318;0;
23090.7;15502.82;2848.141;25129.13;20.25189;7.518902;23172.8;11750.59;-0.473468;0.2887414;0;
11981.14;8288.859;3229.648;13107.11;14.67183;5.367893;11917.56;5626.604;0.1117138;0.2234839;0;
-19436.91;-13965.96;2488.836;-20204.78;23.02983;7.974711;-19495.8;-10283.63;0.3714709;0.2882267;0;
-24358.31;-15872.35;1154.974;-26274.6;25.15015;9.708255;-24284.13;-11580.71;-0.01870638;0.4178718;0;
-18270.09;-10704.98;-950.7854;-20029.47;18.226;6.885339;-18156.26;-7571.563;-0.2135896;0.2875172;0;
-27083.03;-19026.92;-2887.044;-28846.51;11.24146;4.333069;-26888.12;-13227.15;-0.3433097;-0.1025757;0;
-4983.377;-2986.888;-3217.928;-6314.429;14.78014;7.008032;-4885.806;-2711.658;-0.4728994;0.09242935;0;
21587.7;15263.74;-2512.407;22691.26;18.31526;9.479237;21652.16;11127.66;-0.6023589;0.1573038;0;
21213.22;13643.21;-1336.691;23421;7.445868;5.048961;21312.58;10203.12;-0.2119496;-0.2326583;0;
19503.5;12833.6;881.9124;21349.42;0.6068587;4.842938;19568.32;9425.663;0.1131001;-0.1674572;0;
23004.04;15413.45;2900.636;25050.54;5.963907;1.488987;23086.82;11653.91;0.3078884;-0.03735423;0;
11594.83;7939.931;3256.854;12673.2;4.216603;-2.866278;11532.04;5400.136;0.5024811;-0.2971861;0;
-19907.83;-14416.64;2509.486;-20727.92;12.65246;3.432876;-19955.21;-10501.1;0.2421068;-0.2319201;0;
-24585.68;-16126.65;1172.573;-26476.35;17.52889;4.90299;-24503.81;-11663.38;-0.08297314;0.353019;0;
-18476.2;-10978.57;-941.7618;-20195.28;20.32432;10.59149;-18370.03;-7775.326;0.04704492;0.4176317;0;
-27549.42;-19481.1;-2888.743;-29280.29;29.68199;17.54695;-27335.57;-13574.98;-0.08293703;-0.2324614;0;
-5476.771;-3324.11;-3220.094;-6789.394;14.51427;14.51509;-5343.923;-2866.376;-0.2127884;-0.1672605;0;
21387.11;15156.83;-2497.439;22472.05;5.055214;15.57223;21456.59;11073.51;-0.08263989;0.2227116;0;
21193.02;13607.69;-1308.76;23390.72;9.00225;15.82451;21289.15;10136.98;0.1123452;0.2224878;0;
19452.1;12783.66;910.6902;21293.29;9.260648;15.0718;19519.81;9391.739;-0.1476371;0.352199;0;
22996.09;15408.98;2934.258;25030.11;0.9459469;16.73123;23076.19;11641.18;-0.5372928;0.1569431;0;
11613.82;7977.292;3282.82;12714.3;-8.432126;17.1833;11557.88;5461.508;0.04795317;-0.1680514;0;
-20093.4;-14585.28;2520.559;-20881.25;2.158918;16.76414;-20127.74;-10605.3;0.632611;-0.03794783;0;
-24814.89;-16363.85;1183.728;-26708.9;5.706722;15.80953;-24731.03;-11857.99;0.177204;0.2219597;0;
-18219.29;-10699.52;-928.275;-19948.66;7.777093;16.86537;-18116.23;-7482.3;-0.1478107;0.286704;0;
-26910.43;-18831.23;-2868.054;-28652.45;14.53443;16.51351;-26712.23;-13048.23;-0.1476622;0.02654654;0;
-5088.741;-2994.958;-3200.223;-6405.079;7.688301;16.76485;-4975.393;-2719.133;-0.01757917;0.3513566;0;
21417.68;15134.83;-2496.391;22519.4;5.939264;17.01594;21486.62;11011.76;-0.1474962;0.7408076;0;
21118.25;13540.87;-1320.566;23322.39;4.526776;14.52047;21216.67;10094.78;-0.34225;0.0903898;0;
19372.66;12704.93;895.8665;21214.7;1.708212;13.2332;19439.03;9303.433;-0.1470041;-0.4294398;0;
22888.2;15298.62;2917.793;24931.74;2.175987;9.402002;22970.32;11528.51;-0.2118237;0.02576313;0;
11341;7740.707;3272.869;12464.66;1.034724;5.373701;11283.58;5264.161;-0.1466435;-0.0392301;0;
-20297.64;-14758.61;2526.86;-21056.91;2.373831;4.564507;-20335.58;-10785.7;0.1783405;-0.29906;0;
-24994.08;-16496.79;1188.805;-26864.7;3.443173;2.751442;-24901.56;-11991.99;0.113194;0.1560119;0;
-18865.55;-11305.5;-933.6984;-20562.29;6.252752;0.6052843;-18742.12;-7968.565;-0.01685444;-0.03904694;0;
-27582.64;-19518.02;-2866.038;-29285.78;11.13561;0.001829694;-27363.07;-13612.7;-0.08180485;-0.2339097;0;
-5326.833;-3206.226;-3186.09;-6627.653;8.646178;-2.677428;-5197.922;-2842.025;-0.4065593;0.09116201;0;
21385.72;15148.82;-2471.231;22480.66;4.083139;-3.679482;21457.44;11065.08;-0.3411835;0.2859724;0;
21177.22;13594.71;-1290.949;23381.92;19.6181;-3.34087;21274.05;10129.95;0.04896337;0.3506525;0;
19435.46;12764.75;924.0791;21282.28;31.92325;-4.811077;19502.85;9366.373;0.04891417;0.1553981;0;
22988.98;15403.35;2950.569;25026.88;22.84884;1.757902;23073.53;11642.3;-0.146037;-0.2345621;0;
11628.69;8031.088;3296.647;12712.47;21.08457;5.975999;11566.32;5489.077;-0.01595558;-0.3642611;0;
-20112.99;-14565.94;2529.813;-20908.97;20.46017;7.97936;-20157.75;-10651.03;0.3088972;-0.0390584;0;
-24999.09;-16509.35;1187.007;-26857.77;14.81354;11.72239;-24904.76;-11960.07;-0.08121727;-0.03901916;0;
-18671.3;-11114.36;-936.7752;-20373.56;20.08994;10.77285;-18550.32;-7762.659;-0.01616833;-0.4937513;0;
-27365.81;-19313.42;-2882.434;-29078.44;23.61972;11.29789;-27137.51;-13403.66;0.5035866;-0.5582225;0;
-5235.816;-3194.81;-3216.93;-6499.152;14.48631;9.477995;-5088.658;-2793.612;0.2432113;-0.1678576;0;
21484.48;15189.72;-2502.305;22601.68;11.72606;7.860881;21559.28;11102.4;0.1779996;0.09218042;0;
21234.15;13659.07;-1297.036;23436.04;4.949129;5.70965;21332.99;10189.34;-0.01708132;0.02712046;0;
19551.48;12882.24;938.269;21393.35;-5.438321;2.890691;19620.28;9485.447;-0.4068682;-0.1028415;0;
23039.45;15450.59;2949.752;25085.78;6.155069;2.954769;23119.89;11687.3;-0.01665534;-0.1677055;0;
11682.92;8037.192;3279.184;12832.02;12.84669;3.219732;11625.3;5475.693;-0.08160594;-0.2325043;0;
-19653.64;-14152.12;2508.15;-20409.81;6.671839;-0.3335375;-19693.05;-10327.48;-0.471328;-0.2322707;0;
-24544.16;-16027.75;1139.254;-26428.97;6.531414;-5.289817;-24446.68;-11599.13;-0.1460177;0.2227341;0;
-18693.54;-11127.41;-1022.93;-20405.04;6.859643;2.619301;-18563;-7814.01;0.1789657;0.4823797;0;
-27461.69;-19378.88;-2979.621;-29202.17;6.785402;6.434635;-27244.14;-13505.73;0.1787859;0.1570583;0;
-5220.485;-3087.943;-3290.735;-6533.285;9.190457;6.696101;-5097.934;-2787.213;0.2435736;-0.4278056;0;
21459.35;15197.64;-2545.926;22563.42;13.26706;12.98552;21526.98;11070.75;0.04842684;-0.3624084;0;
21200.68;13614.05;-1338.473;23399.29;9.167892;3.461205;21295.24;10163.34;-0.1465238;0.2226618;0;
19473.21;12809.63;882.5683;21312.16;6.680433;-1.030068;19538.68;9402.474;-0.01644194;0.09250337;0;
22973.72;15384.07;2892.827;25007.61;12.90301;0.7125233;23051.1;11613.93;-0.01642541;-0.1674589;0;
11537.89;7910.98;3230.28;12664.17;13.96177;-3.575039;11478.15;5462.686;0.04855843;-0.1023233;0;
-20189.23;-14680.16;2462.918;-20951.13;20.04234;5.672015;-20229.01;-10636.42;-0.2763271;-0.2321552;0;
-25096.89;-16618.1;1099.878;-26993.03;22.30035;11.22578;-25015.54;-11998.91;-0.3410167;-0.1669546;0;
-18681.52;-11132.12;-1043.088;-20417.68;27.83667;11.34846;-18573.52;-7764.683;0.04912995;0.02811519;0;
-27333.14;-19289.36;-2983.002;-29107.66;36.44987;15.22195;-27159.42;-13387;-0.1458214;0.09305428;0;
-5338.956;-3275.552;-3283.009;-6695.497;23.01665;13.19716;-5267.871;-2849.249;-0.3405769;0.02799344;0;
21454.85;15180.25;-2538.27;22540.76;16.69689;11.44247;21512.34;11106.57;-0.2103;0.09293265;0;
21255.52;13680.66;-1342.944;23448.13;13.8007;14.51207;21350.59;10196.58;-0.2100887;0.09283927;0;
19474.5;12802.22;883.0994;21308.13;8.829363;16.64094;19532.23;9407.944;-0.274845;-0.2320907;0;
23001.53;15415.56;2900.541;25036.65;3.863998;10.79682;23076.89;11641.44;-0.3395362;0.09297919;0;
11432.64;7902.163;3230.022;12520.27;-6.455012;7.236001;11367.32;5363.16;-0.4691297;0.4177225;0;
-20246.48;-14635.72;2467.408;-21058.89;5.407819;5.487175;-20293.84;-10718.68;-0.3387236;0.1574334;0;
-24882.95;-16432.98;1132.755;-26790.26;11.7654;2.132575;-24804.54;-11929.04;-0.2734159;0.2222425;0;
-18394.91;-10857.06;-978.51;-20135.68;7.86881;2.599313;-18286.98;-7543.71;-0.3381085;0.2869866;0;
-26788.42;-18729.03;-2911.492;-28552.8;11.87939;1.65894;-26602.69;-12970.8;-0.2078341;-0.03813851;0;
-4677.683;-2705.285;-3240.806;-5994.509;5.839235;2.729;-4584.385;-2552.283;-0.532462;-0.4279042;0;
21638.29;15304.23;-2521.347;22749.55;5.565924;4.333787;21702.76;11165.11;-0.7917963;-0.2325723;0;
21247.21;13679.05;-1334.065;23449.31;0.4027672;3.257767;21340.55;10237.79;-0.2062947;0.1574655;0;
19529.49;12860.22;877.3205;21371.57;-7.368145;2.71863;19588.52;9444.282;-0.14112;-0.1675294;0;
23038.51;15451.88;2901.858;25082.69;2.619593;4.725325;23118.24;11696.63;-0.7256843;0.1574756;0;
11754.73;8110.43;3260.511;12871.08;4.492971;5.591355;11691.1;5548.378;-0.2052164;0.6770561;0;
-19677.62;-14173.65;2509.642;-20466.14;11.11891;5.853669;-19731.81;-10310.27;0.3796959;0.09166971;0;
-24368.04;-15876.4;1167.2;-26300.02;21.15542;8.058102;-24285.6;-11542.68;-0.01048969;-0.03835708;0;
-18160.45;-10576;-968.0878;-19923.36;12.8278;3.227417;-18037.63;-7503.639;-0.07544649;0.3514855;0;
-27128.88;-19056.2;-2933.783;-28856.49;10.06922;0.9467542;-26922.59;-13140.4;0.1195313;0.286165;0;
-5124.577;-3160.263;-3261.997;-6417.536;14.34601;-0.3268118;-5015.021;-2660.569;-0.01052345;0.4158122;0;
21631.97;15273.82;-2521.574;22727.84;16.14025;-5.08215;21695.88;11189.83;0.1843891;0.155525;0;
21357.92;13795.21;-1317.769;23560.86;10.83177;3.496528;21451.7;10326.78;0.1192365;-0.2344354;0;
19612.77;12939.88;918.2443;21452.87;0.640459;10.72705;19675.64;9539.42;-0.1407526;0.1556043;0;
23065.1;15472.36;2938.93;25097.33;12.16039;4.888878;23143.32;11716.3;-0.07564387;0.09048056;0;
11805.33;8194.389;3270.434;12925.13;16.23401;3.075487;11736.18;5562.004;0.1843015;-0.1045124;0;
-19439.31;-13905.74;2492.038;-20220.57;10.39055;8.162917;-19500.9;-10185.47;0.314051;0.2204293;0;
-24558.67;-16050.03;1117.817;-26463.94;19.82458;10.03024;-24477.64;-11578.36;0.1838008;-0.03966152;0;
-18925.96;-11362;-1023.824;-20656.05;-13.5526;13.7041;-18798.69;-7999.032;-0.07625329;-0.2345237;0;
-27632.08;-19569.71;-2959.494;-29388.35;-39.92904;19.11582;-27437.2;-13735.51;-0.4010134;-0.03938601;0;
-5240.117;-3165.319;-3272.627;-6577.759;-22.60854;14.40793;-5152.407;-2894.248;-0.2706757;0.09058824;0;
21449.97;15168.05;-2559.086;22543.5;-23.32275;11.44633;21509.93;11049.21;-0.2054364;0.09049722;0;
21152.2;13575.73;-1382.808;23347.66;-17.80599;15.98954;21246.46;10117.19;-0.01032799;-0.2344304;0;
19462.83;12790.21;832.0317;21294.69;-11.35871;15.9065;19520.43;9375.185;0.05464973;-0.03929284;0;
22938.17;15350.69;2846.12;24971.09;-9.069144;19.03859;23013.59;11593.24;-0.07533987;0.3505507;0;
11548.18;7986.446;3190.024;12643.23;-4.103539;22.83736;11472.89;5402.757;0.3145399;0.2202638;0;
-20122.36;-14551.24;2423.234;-20924.01;0.7233557;17.52289;-20184.71;-10719.79;0.7040279;-0.1697616;0;
-24914.2;-16437.24;1091.654;-26837.53;10.43454;15.62988;-24843.41;-12033.57;0.3135164;-0.03965633;0;
-18456.82;-10906.35;-1008.762;-20236.23;-2.034522;13.47072;-18361.44;-7741.24;-0.14157;0.4801223;0;
-27433.66;-19363.65;-2957.675;-29199.7;-10.94109;9.170399;-27234.83;-13413.14;-0.01149306;0.4146725;0;
-5482.179;-3424.997;-3277.713;-6774.644;-4.29866;11.90749;-5359.436;-2892.645;0.05348583;0.2843211;0;
21489.68;15193.43;-2551.657;22598.2;-3.156241;12.23031;21556.17;11100.26;-0.531274;0.3490028;0;
21221.93;13636.75;-1387.693;23412.48;-7.372628;9.80676;21311.53;10146.94;-0.4657728;-0.04115195;0;
19384.68;12719.68;820.4672;21220.87;-10.37933;8.658196;19443.64;9330.759;0.1194013;-0.2360126;0;
22985.55;15394.65;2844.719;25013.51;-6.550508;7.242855;23059.18;11609.26;-0.1405881;-0.04087345;0;
11565.92;7924.042;3190.841;12680.31;-6.14276;6.431904;11505.71;5389.705;-0.2054142;0.0891023;0;
-19910.19;-14404.08;2430.672;-20685.21;-1.179119;3.746124;-19947.42;-10528.6;-0.1402404;0.4788168;0;
-24300.31;-15889.54;1102.552;-26227.59;2.639483;2.067848;-24217.53;-11647.66;0.05480253;0.348401;0;
-17947.96;-10458.82;-1003.217;-19711.09;2.971624;0.123326;-17844.03;-7402.005;0.3146168;0.1531489;0;
-26699.66;-18669.06;-2949.667;-28473.12;5.982748;-2.020252;-26514.92;-12970.16;-0.3353727;0.2179624;0;
-4613.794;-2699.457;-3290.781;-5977.13;1.824527;-0.745546;-4525.566;-2602.547;-0.4649704;0.152776;0;
21647.85;15273.05;-2598.633;22718.6;1.152132;0.8627324;21706.52;11120.33;-0.07469916;0.2175899;0;
21191.66;13631.04;-1436.495;23383;-3.604448;-1.013596;21285.7;10200.14;0.05531058;0.3473059;0;
19529.8;12856.9;770.824;21354.42;-6.949729;-2.620106;19586.71;9427.714;0.1202223;0.02212022;0;
22982.88;15391.95;2793.876;25014.5;-8.081821;3.075892;23059.43;11646.11;0.1850689;-0.4326734;0;
11774.5;8113.256;3165.474;12899.26;-12.15954;6.154016;11702.14;5489.945;0.2498503;-0.3672713;0;
-19504.94;-14013.03;2427.944;-20290.7;-6.989756;8.559096;-19568.94;-10231.06;0.3145666;-0.1070329;0;
-24060.77;-15657.07;1102.232;-25997.49;-10.06322;12.03349;-23993.21;-11415.81;0.1843158;0.02300933;0;
-17581.67;-10124.16;-1005.723;-19361.24;5.084795;11.61962;-17485.71;-7181.084;-0.3356081;0.2178883;0;
-26582.24;-18525.71;-2958.074;-28334.27;21.55676;13.14843;-26388.59;-12712.83;-0.4652056;0.152702;0;
-4986.728;-3010.133;-3300.194;-6262.143;4.923327;10.79094;-4876.875;-2605.431;0.3148699;-0.1073208;0;
21549.92;15195.49;-2592.045;22666.21;2.774926;8.435693;21610.17;11078.12;0.8342923;0.1526564;0;
21243.73;13677.68;-1422.418;23429.43;-5.198465;9.164028;21333.72;10210.23;0.2487479;0.152503;0;
19432.77;12760.63;789.6505;21261.95;-18.72355;7.748179;19490.33;9355.212;-0.1413061;-0.367389;0;
23023.74;15433.5;2832.486;25049.26;-6.379877;7.941342;23097.65;11667.91;0.24864;-0.3020525;0;
11909.23;8209.024;3195.737;13015.42;-3.827871;7.933362;11838.39;5589.688;0.1184554;-0.3667164;0;
-19463.93;-14013.79;2434.501;-20263.18;-4.359888;6.98763;-19525.86;-10268.8;0.1183364;-0.3013805;0;
-24263.07;-15793.73;1108.251;-26197.64;1.203222;8.052336;-24186.41;-11553.83;-0.01171717;0.02375901;0;
-18136.49;-10577.79;-1003.864;-19892.89;-6.834962;4.561255;-18021.28;-7510.22;-0.5314441;-0.0412322;0;
-26950.56;-18892.9;-2957.747;-28723.07;-10.51277;0.738705;-26751.87;-13206.99;-0.3360081;0.02377657;0;
-4800.948;-2873.268;-3297.666;-6150.007;-6.884881;5.225758;-4696.698;-2775.054;-0.1407685;0.02375268;0;
21657.88;15280.07;-2601.435;22747.51;-8.485553;4.81861;21719.5;11116.99;-0.4654637;0.02372881;0;
21214.26;13657.25;-1431.329;23418.83;-0.7738672;8.564691;21306.23;10226.82;-0.270094;0.02370497;0;
19599.12;12926.73;777.0932;21434.79;7.331235;13.5127;19656.92;9500.452;0.0550141;0.1536158;0;
23048.79;15457.9;2785.74;25085.29;0.2239219;6.06426;23123.27;11707.04;-0.3348452;0.5432655;0;
11684.17;8057.812;3139.324;12821.41;-3.326277;4.718508;11618.03;5439.767;-0.2045741;0.3478177;0;
-19632.98;-14112.38;2397.697;-20404.2;3.643291;-1.448541;-19686.71;-10387.5;0.05550083;-0.1073032;0;
-24247.55;-15793.47;1067.33;-26185.54;7.122254;-8.279161;-24164.73;-11572.88;-0.4642937;0.02273925;0;
-18004.04;-10477.02;-1046.899;-19779.03;6.445513;-5.993484;-17885.88;-7401.514;-0.6587292;0.2176185;0;
-26999.16;-18934.42;-2987.699;-28757.06;8.247697;-9.001633;-26799.85;-13064.71;-0.5281326;0.2173998;0;
-5069.804;-3109.48;-3307.628;-6389.142;6.430749;-4.772724;-4963.604;-2741.422;-0.4626346;0.152214;0;
21627.69;15262.25;-2585.556;22718.13;4.213484;-0.6820912;21688.43;11154.68;-0.6570718;0.02212635;0;
21284.85;13722.5;-1416.81;23481.57;7.424431;-3.427645;21373.66;10259.51;-0.6564115;-0.3676999;0;
19527.37;12858.93;792.644;21358.54;6.546315;-1.146842;19586.35;9447.507;-0.1360132;-0.3023631;0;
23087.76;15496.51;2824.045;25116.18;10.35813;-4.36081;23163.44;11738.22;0.1239928;0.0227774;0;
11829.11;8167.583;3183.556;12959.89;15.30422;-7.906401;11764.26;5539.486;0.1888356;0.08772185;0;
-19393.72;-13904.83;2434.451;-20173.13;5.375852;-1.401295;-19447.54;-10195.64;0.2536132;0.2175684;0;
-24217.26;-15725.58;1083.027;-26150.44;-2.400058;1.279369;-24150.86;-11439.02;0.2533583;0.0874151;0;
-18366.76;-10824.81;-1065.076;-20133.47;2.894615;2.282827;-18271.21;-7649.235;0.1231691;-0.2375094;0;
-27070.46;-19022.63;-3012.885;-28848.77;6.977544;5.361687;-26883.52;-13246.62;-0.1368241;-0.1073361;0;
-4884.372;-2860.604;-3330.916;-6222.124;-5.086883;2.944914;-4789.587;-2669.888;-0.2016539;0.08767377;0;
21547.55;15237.66;-2613.833;22639.06;-12.31544;2.406153;21603.13;11097.53;0.1883528;0.2175204;0;
21302.65;13725.69;-1416.027;23489.58;-8.284578;2.537701;21393.01;10277.79;0.3180982;-0.3024369;0;
19695.87;13028.28;820.2883;21517.63;-8.208904;0.9275607;19751.23;9606.824;0.3177786;-0.3671004;0;
23145.91;15554.27;2840.604;25175.27;-5.45399;3.538902;23218.43;11802.25;0.4473939;0.4128766;0;
12002.75;8270.31;3182.296;13125.44;-4.243061;4.941988;11931.12;5617.604;0.5119117;0.282527;0;
-19323.89;-13909.59;2416.731;-20118.35;3.329664;4.133227;-19387.01;-10210.1;0.1865607;-0.3674303;0;
-24233.16;-15759.5;1064.856;-26195.82;9.220816;4.73192;-24171.22;-11560.04;-0.4633002;-0.4969957;0;
-18183.17;-10640.77;-1068.517;-19981.4;11.75715;3.655439;-18095.04;-7639.463;-0.7876714;-0.3015943;0;
-27288.1;-19200.78;-3026.412;-29060.48;17.10397;2.379151;-27102.87;-13310.67;-0.007271844;-0.1063893;0;
-5327.577;-3248.107;-3359.951;-6655.392;13.06732;4.319204;-5224.509;-2806.597;0.2526048;0.0236523;0;
21548.08;15244.61;-2633.017;22633.23;11.98246;5.386591;21606.83;11135.03;0.05744899;0.1535632;0;
21338.88;13757.07;-1435.988;23534.93;8.487796;5.046264;21429.39;10292.2;0.382228;0.1534089;0;
19575.58;12913.96;791.7582;21401.28;3.924916;5.577057;19632.17;9502.996;0.2519092;-0.04164726;0;
23159.59;15565.99;2824.628;25190.33;3.853623;5.50447;23233.06;11817.7;-0.008213265;0.1532966;0;
12165.5;8434.266;3170.552;13311.53;3.045468;5.766871;12098.12;5740.344;-0.07317235;0.2830773;0;
-19192.9;-13765.21;2389.351;-19958.74;-0.6412877;4.957281;-19253.46;-10156.69;-0.3329682;-0.2369459;0;
-24253.95;-15748.38;1012.422;-26171.21;-4.72648;2.005112;-24181.56;-11498.83;-0.2026989;-0.4965772;0;
-18259.6;-10712.61;-1141.856;-20002.6;0.4358327;7.495515;-18143.82;-7588.769;0.1223414;-0.04130683;0;
-27338.32;-19265.8;-3087.028;-29098.18;1.239678;12.0427;-27130.83;-13400.41;-0.2026182;0.1536367;0;
-5386.527;-3234.9;-3395.957;-6731.795;7.199303;7.007002;-5277.553;-2901.555;-0.5272513;-0.1713544;0;
21420.52;15191.96;-2659.147;22500.42;15.36374;8.674535;21478.55;11055.52;-0.4617542;-0.1062149;0;
21292.3;13698.65;-1440.524;23489.05;7.980915;1.163913;21381.6;10256.31;-0.07148617;-0.2360428;0;
19727.86;13062.83;813.385;21554.72;5.22623;-7.47781;19783.46;9644.708;0.188455;-0.1708383;0;
23247.07;15656.37;2846.295;25279.04;8.034018;3.045719;23319.54;11923.51;0.3831677;0.2191374;0;
12251.49;8478.111;3191.385;13397.07;9.165021;5.320078;12185.32;5752.982;0.5127174;0.1539499;0;
-19004.26;-13617.84;2421.064;-19776.46;6.141702;9.802466;-19057.37;-10037.68;-0.007536548;0.0238605;0;
-24234.23;-15753.63;1052.006;-26188.59;3.322491;17.42843;-24157.07;-11412.77;-0.007528975;-0.2360328;0;
-18480.16;-10955.08;-1097.065;-20266.61;6.198565;11.18175;-18375.55;-7797.504;0.1873806;-0.2357957;0;
-27867.97;-19771.22;-3052.604;-29606.84;6.393407;10.63465;-27653.96;-13775.66;-0.3975137;0.3491473;0;
-5858.116;-3691.893;-3355.555;-7145.256;8.530437;9.351286;-5720.461;-3081.375;-0.2671796;-0.04100755;0;
21467.38;15201.17;-2594.08;22557.67;9.45987;5.8589;21530.34;11114.67;0.05792554;-0.5607051;0;
21356.73;13762.98;-1401.571;23536.67;11.99596;9.603934;21438.91;10276.41;-0.1370347;-0.235305;0;
19585.31;12922.6;811.5689;21406.83;16.60561;10.73299;19639.35;9526.068;0.1229724;-0.1051339;0;
23210.09;15613.24;2853.914;25231.81;10.426;9.784449;23279.27;11859.51;0.1878161;-0.1699955;0;
12211.13;8481.332;3223.234;13346.93;7.870909;9.439703;12137.78;5775.205;0.2525948;-0.2997594;0;
-19031.44;-13612.07;2463.688;-19809.15;7.058717;10.70289;-19102.04;-10057.49;0.447243;0.02537848;0;
-24112.49;-15607.82;1112.516;-26068.07;2.965787;11.76374;-24045.97;-11404.29;0.3168589;0.415157;0;
-18253.44;-10716.08;-1017.938;-20036.94;7.517159;10.54635;-18145.87;-7596.46;0.1866058;-0.2349335;0;
-27554.34;-19448.2;-2977.242;-29326.08;9.385615;8.727217;-27353.84;-13498.45;-0.1384184;0.09013923;0;
-5749.754;-3496.475;-3315.455;-7093.965;8.103387;11.86652;-5634.931;-3029.642;-0.5930507;0.8046894;0;
21331.95;15126.51;-2590.158;22404.34;8.965901;16.20849;21392.09;11012.75;-0.3325854;0.2191748;0;
21325.92;13717.04;-1376.492;23512.45;7.684094;7.417562;21411.04;10251.3;0.1874875;0.1539872;0;
19621.45;12964.64;866.1707;21445.54;8.078515;1.381828;19676.07;9559.198;-0.07257024;0.4786692;0;
23165.62;15571.46;2882.911;25189.23;7.132392;4.997457;23236.86;11822.47;-0.397334;-0.1065178;0;
11957.52;8228.931;3226.028;13093.48;7.929509;3.317862;11888.3;5571.614;-0.00713074;-0.3013128;0;
-19358.55;-13937.62;2462.356;-20132;4.639012;5.457982;-19414.78;-10259.67;-0.07209092;0.1537613;0;
-24175.42;-15710.41;1097.067;-26138.73;-1.996106;6.524103;-24105.38;-11452.62;-0.3968552;0.08863948;0;
-18128.77;-10597.07;-1041.211;-19933.27;10.79927;5.445942;-18033.77;-7550.892;-0.006652376;-0.4311883;0;
-27157.85;-19102.39;-2990.919;-28931.57;18.9601;6.84699;-26965.82;-13308.92;-0.006645692;-0.3657877;0;
-5232.221;-3146.945;-3331.132;-6554.841;15.32372;1.079761;-5124.437;-2819.003;-0.3314757;-0.04058347;0;
21442.99;15167.01;-2616.251;22534.06;19.99738;-1.935495;21499.22;11030.14;0.0586614;-0.3653794;0;
21177.1;13595.96;-1430.217;23363.07;12.54157;-4.277892;21263.15;10150.52;0.3184718;-0.5599143;0;
19428.03;12757.96;777.0015;21257.02;6.835537;-7.086816;19482.25;9347.595;-0.1366196;-0.234515;0;
22918.14;15331.74;2803.108;24946.78;11.91986;-6.409865;22987.96;11570.08;-0.2014496;-0.1043447;0;
11659.93;7999.29;3157.206;12756.19;9.027494;-5.063766;11584.13;5462.612;0.1885568;0.09066222;0;
-20020.17;-14539.83;2380.891;-20815.79;17.05638;-6.264371;-20087.1;-10633.2;0.05843268;-0.03936356;0;
-24939.05;-16452.27;1031.738;-26860.31;23.80439;-8.736383;-24863.58;-11977.74;0.05837397;-0.1692587;0;
-18144.38;-10574.26;-1085.922;-19928.62;17.14904;1.386573;-18025.8;-7334.216;0.383152;0.1557481;0;
-26618.93;-18580.5;-3039.396;-28403.42;15.59157;5.404095;-26411.82;-12772.77;0.187865;-0.03931043;0;
-4878.172;-2922.531;-3375.546;-6193.251;13.0303;13.16844;-4767.198;-2685.729;0.05774155;-0.234173;0;
21480.47;15134.38;-2669.585;22581.45;9.534588;24.0062;21537.08;10988.52;0.1226509;0.1558664;0;
21057.13;13494.85;-1514.014;23243.79;6.912063;14.53773;21141.08;10049.46;-0.2672764;0.2206771;0;
19311.07;12642.82;674.8143;21135.65;2.685559;13.38441;19364.71;9231.564;-0.3969425;-0.234316;0;
22758.96;15171.93;2683.689;24784.71;1.879553;7.275639;22828.43;11411.17;-0.2016417;-0.03917855;0;
11456.7;7789.998;3047.901;12566.23;2.680972;-1.90809;11378.2;5248.206;-0.1364717;0.3506649;0;
-19893.29;-14431.59;2308.022;-20687.89;-6.029259;4.658033;-19960;-10569.21;-0.2013019;0.09044315;0;
-24600.12;-16111.14;973.7471;-26549.72;-13.25687;6.19396;-24520.06;-11826.28;-0.3310343;0.02538493;0;
-18275.6;-10700.62;-1133.298;-20066.7;-6.478395;3.374453;-18156.11;-7631.488;-0.200767;0.2852288;0;
-27077.61;-18989.36;-3077.291;-28843.69;-3.457775;2.701233;-26870.62;-13178.04;-0.2655326;0.6747463;0;
-5101.75;-3029.749;-3426.037;-6409.827;-3.320579;4.641024;-4987.48;-2764.749;-0.4601679;0.7390356;0;
21492.42;15192.01;-2724.399;22594.54;-0.3704816;4.569377;21550.65;11036.8;-0.1998361;0.2835216;0;
21132.49;13558.25;-1551.5;23319.83;0.9026883;9.856316;21217.06;10122.6;0.06023405;-0.1715347;0;
19349.52;12683.95;647.5954;21181.57;2.710443;15.00398;19404.06;9267.648;-0.004793813;0.02353973;0;
22816.92;15231.68;2666.492;24847.72;6.056622;11.23798;22887.35;11470.13;-0.1347237;0.4782875;0;
11471.13;7851.096;3036.25;12555.45;8.19399;10.62384;11394.66;5360.155;-0.004653626;0.02303549;0;
-20158.39;-14653.41;2296.008;-20955.36;10.73135;8.871608;-20222.05;-10680.56;0.06031839;-0.236857;0;
-24995.02;-16506.04;972.3024;-26895.21;13.60096;6.585274;-24929.75;-12008.92;-0.3295463;0.5429891;0;
-18620.54;-11080.47;-1135.49;-20374.91;10.77425;4.703257;-18534.23;-7848.425;-0.06934577;0.4125088;0;
-27611.83;-19545.97;-3088.961;-29363.72;8.552623;1.68436;-27418.1;-13590.35;0.1256259;-0.4324811;0;
-5664.913;-3516.594;-3424.531;-6981.199;10.62013;0.8788728;-5547.938;-3016.223;-0.06940232;-0.1072099;0;
21323.87;15085.81;-2710.103;22397.82;12.95399;-0.461608;21379.84;10992.33;0.0606021;0.3476692;0;
21108.54;13520.06;-1559.691;23293.01;7.716058;-1.599854;21193.92;10041.01;-0.06939348;-0.1724188;0;
19285.74;12620.9;616.2673;21109.94;5.163686;-1.397298;19341.42;9227.01;0.06061093;-0.1722456;0;
22820.59;15236.83;2636.913;24843.07;5.760734;-4.343081;22891.35;11462.28;0.1904847;0.2826989;0;
11433.06;7769.911;3029.003;12572.61;0.7984524;-8.223606;11361.37;5264.234;-0.3294454;0.0875128;0;
-20081.34;-14618.27;2314.161;-20851.29;12.25185;-1.182318;-20141.59;-10704.78;-0.1342124;-0.3673465;0;
-24836.2;-16359.59;983.347;-26780.14;18.60256;5.316092;-24766.11;-11984.83;0.06082451;-0.3020101;0;
-18647.69;-11104.55;-1135.67;-20425.48;18.58386;-1.253454;-18551.68;-7911.172;-0.004203943;0.08809744;0;
-27364.59;-19309.04;-3072.773;-29136.08;26.201;-4.1324;-27169.61;-13468.77;0.320637;0.2179436;0;
-5167.49;-3080.026;-3397.24;-6497.437;14.3193;0.5604355;-5054.614;-2809.15;-0.1994239;0.4126267;0;
21425.01;15145.13;-2691.07;22507.91;9.414797;1.698582;21482.38;11004.89;-0.3291582;0.2822773;0;
21089.34;13503.24;-1535.118;23265.52;6.793368;4.510098;21173.64;10053.15;0.1259439;-0.042843;0;
19360.79;12698.93;665.694;21177.57;-2.859;8.792352;19411.58;9287.486;-0.004117324;0.02216739;0;
22858.07;15268.2;2701.283;24880.73;9.736176;4.69768;22925.82;11505.43;0.1258215;0.1520798;0;
11631.47;7921.296;3083.625;12779.34;16.42517;1.209908;11558.08;5400.833;0.6454338;-0.04297503;0;
-19937.48;-14519.7;2349.332;-20689.94;13.52828;8.509649;-20006.02;-10615.06;0.4498833;-0.1728665;0;
-24625.89;-16167.65;1025.292;-26580.62;15.92559;14.46246;-24569.52;-11897.89;0.2545292;0.3470459;0;
-18130.68;-10600.49;-1079.712;-19930.66;16.04428;9.759242;-18045.57;-7610.767;0.4491754;0.3466972;0;
-27393.39;-19321.08;-3033.27;-29166.96;17.16626;9.012624;-27211.38;-13409;0.05892006;-0.1733899;0;
-5670.025;-3543.193;-3372.035;-7014.854;17.28273;10.61116;-5572.042;-3036.325;-0.4608779;-0.04328101;0;
21357.09;15102.45;-2648.68;22420.95;16.99792;7.586265;21406.67;11003.79;-0.1355781;0.3465665;0;
21230.06;13646.11;-1461.598;23404.16;17.31564;17.55886;21311.15;10168.4;0.3842969;0.4111857;0;
19487.72;12823.98;761.8315;21301.49;17.03079;24.70826;19536.49;9415.434;0.4488781;0.1509031;0;
23015.66;15428.85;2786.61;25033.82;16.67791;20.73157;23080.74;11661.23;0.4484271;0.2806862;0;
11785.09;8084.876;3139.35;12879.55;17.0633;21.78234;11701.6;5491.249;0.3180418;0.4753062;0;
-19557.34;-14115.39;2398.567;-20380.59;15.50591;18.74634;-19637.19;-10329.57;-0.2669839;0.08502451;0;
-24510.32;-16018.23;1052.207;-26457.33;15.15554;16.24926;-24464.69;-11633.42;-0.4616176;-0.0449956;0;
-18537.74;-10990.03;-1097.676;-20328.5;14.5371;14.15646;-18463.64;-7756.783;0.1235523;-0.1099177;0;
-27423.95;-19347.07;-3057.275;-29224.62;11.10624;9.319587;-27237.25;-13465.24;0.3183302;0.08509474;0;
-5322.835;-3184.139;-3386.24;-6649.727;19.60252;11.92243;-5213.019;-2855.865;-0.2017284;0.4098459;0;
21470.89;15221.2;-2657.936;22565.02;25.40997;13.65201;21522.33;11091.51;0.05834365;0.4094341;0;
21276.78;13686.03;-1472.453;23456.08;22.5714;8.279781;21357.96;10223.67;0.3831217;0.2790881;0;
19552.19;12893.98;734.199;21369.89;24.8259;6.663872;19601.55;9480.018;-0.2019693;-0.04602909;0;
23055.43;15467.68;2762.691;25075.39;18.37059;4.848759;23123.29;11713.97;-0.3966684;0.1489192;0;
11950.95;8207.295;3124.013;13066.48;9.644595;0.8249716;11867.95;5589.745;-0.07143311;0.2787043;0;
-19381.74;-13990.08;2366.254;-20180.72;19.01203;7.45527;-19468.85;-10232.64;-0.006393991;-0.1113799;0;
-24168.04;-15713.17;1014.43;-26112.06;25.62436;10.79693;-24119.3;-11541.09;-0.1363222;-0.0463006;0;
-17831.5;-10280.77;-1126.702;-19603.3;13.14003;10.71909;-17748.79;-7394.318;-0.006250589;-0.1761888;0;
-26912.39;-18855.81;-3091.769;-28678.35;10.24644;13.25355;-26727.48;-13023.77;-0.006244308;-0.3059464;0;
-5181.459;-3167.461;-3425.665;-6475.583;3.068844;11.4317;-5071.214;-2753.296;-0.1361727;0.08416505;0;
21563.96;15248.76;-2705.739;22677.62;-9.191751;12.49194;21617.64;11111.32;-0.07106855;0.1490478;0;
21296.89;13722.53;-1527.377;23476.63;7.295531;9.13036;21375.34;10260.28;0.05893755;0.2138654;0;
19584.28;12920.67;686.14;21405.2;15.79467;6.910749;19632.51;9513.102;-0.1360237;0.3435852;0;
23096.79;15506.58;2704.998;25119.97;13.97013;7.238719;23161.72;11750.49;-0.2008544;0.1483379;0;
11902.84;8198.197;3044.077;13019;20.11804;4.7532;11828.79;5544.252;0.2541188;0.0182542;0;
-19095.56;-13640.24;2277.183;-19888.36;14.5391;10.10694;-19159.68;-9952.157;0.3837982;-0.1116988;0;
-23856.89;-15418.21;928.6033;-25789.87;9.768088;12.57503;-23792.83;-11170.12;-0.2012935;-0.2415213;0;
-17893.28;-10353.82;-1202.353;-19658.18;17.32771;14.43791;-17801.08;-7299.226;-0.2660586;-0.1113439;0;
-26326.74;-18331.29;-3147.401;-28126.5;20.52548;17.03562;-26160.15;-12721.13;-0.2008239;-0.04626469;0;
-4258.213;-2478.253;-3476.337;-5604.64;16.28432;18.02324;-4182.603;-2458.407;-0.7203609;-0.1761529;0;
21706.16;15293.48;-2767.683;22809.28;15.26358;21.95701;21759.05;11126.67;-0.524735;-0.1110085;0;
21260.22;13716.02;-1574;23449.35;11.56455;16.10755;21346.47;10293.91;-0.004469038;-0.1758643;0;
19686.96;13017.35;663.5353;21508.85;8.73989;13.81407;19733.56;9581.197;-0.1343992;-0.1107203;0;
23091.47;15503.59;2687.82;25122.06;6.654027;12.86243;23160.92;11774.98;-0.06929684;0.01932564;0;
12092.51;8321.068;3029.727;13210.2;3.566858;8.294785;12010.91;5627.996;0.4505115;-0.04566112;0;
-18728.38;-13343.83;2271.875;-19543.24;3.830718;14.31479;-18806.27;-9704.393;0.5150262;-0.3054846;0;
-23375.95;-15010.36;920.551;-25353.69;-0.526412;14.56834;-23322.15;-10939.28;-0.07019739;-0.175243;0;
-17115.22;-9644.777;-1231.511;-18937.91;8.851239;19.30937;-17042.39;-6905.937;-0.2000615;0.2797045;0;
-25807.74;-17792.8;-3189.93;-27623.76;18.48789;24.5815;-25638.13;-12179.67;-0.06992584;0.3443908;0;
-4223.328;-2446.859;-3488.057;-5539.164;6.144452;18.79639;-4128.775;-2258.008;-0.1997903;0.1491427;0;
21846.63;15419.06;-2727.995;22958.25;0.7122942;18.64353;21894.95;11253.6;0.1252472;0.2139602;0;
21466.86;13931.21;-1527.45;23641.69;2.319169;11.45775;21546.74;10498.05;-0.004813329;0.0188432;0;
19771.16;13102.64;698.6541;21582.74;-0.6972715;5.953757;19816.93;9669.462;-0.4595799;0.01882427;0;
23214.69;15629.01;2734.959;25236.89;1.313161;2.196853;23279.46;11901.34;0.1905553;0.2137074;0;
12368.13;8564.066;3092.093;13494.61;4.325952;-4.972345;12281.77;5803.595;0.1903639;0.08355796;0;
-18434.41;-13066.41;2331.617;-19231.34;-3.045786;-1.484298;-18527.37;-9576.665;-0.3945335;0.1484414;0;
-23371.83;-14977;969.3325;-25344.1;-7.26326;-0.7459938;-23325.58;-10924.63;-0.004333025;0.2132595;0;
-17470.8;-10005.38;-1175.72;-19270.54;-5.581022;-1.883954;-17389.04;-7203.482;0.2555407;0.08311056;0;
-26255.47;-18215.41;-3122.263;-28060.37;-10.8667;-0.3415146;-26109.88;-12642.49;-0.5243242;0.08302705;0;
-4515.749;-2628.136;-3437.247;-5873.889;2.674527;-1.412837;-4460.138;-2498.599;-0.5887647;0.147911;0;
21621.28;15237.82;-2707.143;22709.18;16.93811;-1.679349;21663.65;11065.69;-0.003467003;0.01782766;0;
21224.6;13684.85;-1515.395;23405.38;1.649466;1.202543;21303.35;10254.02;0.1264712;0.01780975;0;
19588.88;12919.29;707.1673;21404.27;-2.639099;3.076796;19629.65;9489.033;-0.06855794;0.4075959;0;
23071.13;15487.13;2730.533;25090.4;-0.7604371;2.872756;23131.2;11737.91;-0.003521711;0.4071864;0;
11867.61;8182.439;3085.11;12963.51;-6.118308;2.869869;11778;5522.031;0.3213185;-0.1779289;0;
-19235.03;-13769.6;2336.697;-20054.68;5.073624;3.268883;-19323.55;-10064.84;0.4509304;0.01715194;0;
-23786.25;-15357;991.7427;-25763.77;11.49889;4.136376;-23748.34;-11233.34;0.1906079;0.3419714;0;
-17682.78;-10181.71;-1146.836;-19503.16;8.674294;1.051066;-17613.58;-7376.188;-0.264355;0.2116931;0;
-26625.91;-18585.81;-3097.889;-28447.68;8.196088;-0.4905974;-26486.71;-12922.39;-0.5239587;0.4063824;0;
-4773.833;-2786.384;-3411.165;-6124.506;11.9389;-2.097634;-4725.66;-2561.733;-0.3934976;0.4709415;0;
21556.31;15267.7;-2680.009;22654.42;18.7594;-4.104953;21598.06;11111.53;-0.1982002;-0.1792052;0;
21260.43;13695.55;-1483.26;23434.32;5.076523;-3.832897;21341.59;10262.23;-0.3929031;-0.3739271;0;
19619.99;12953.93;752.9664;21428.64;-4.306676;-5.838472;19661.43;9530.464;-0.1976063;0.1461873;0;
23035.81;15453.09;2771.82;25058.54;-0.8187482;-1.277888;23097.5;11712.04;0.1923964;0.2759751;0;
12008.98;8232.344;3115.798;13096.28;-6.578701;2.876215;11925.38;5570.271;0.1272357;0.2107305;0;
-18954.29;-13568.44;2365.667;-19776.83;-0.008008043;-0.7436309;-19026.41;-9885.028;0.2570425;-0.114318;0;
-23890.73;-15443.19;1016.811;-25822.33;3.340903;-2.417457;-23832.76;-11163.68;0.3217516;-0.5689745;0;
-18157.56;-10647.43;-1115.452;-19911.89;0.9266481;0.5321601;-18073.27;-7600.454;0.3214283;0.146238;0;
-27055.62;-19043.63;-3077.579;-28834.51;7.690871;2.94295;-26890.08;-13310.47;0.256138;0.4059604;0;
-5005.906;-3022.651;-3428.746;-6347.873;-8.39276;-1.212827;-4927.411;-2780.964;-0.1339234;0.01574842;0;
21483.41;15195.36;-2706.49;22573.13;-19.77118;-4.091814;21533.49;11055.22;-0.06882153;0.08069994;0;
21189.55;13631.97;-1526.503;23369.64;-11.44494;-2.748104;21271.93;10191.98;0.06118231;-0.1792505;0;
19470.61;12800.75;665.1332;21287.07;-12.17038;-3.817009;19516.41;9385.731;-0.06881385;-0.04913572;0;
22908.82;15329.78;2691.352;24930.89;-6.733142;-2.406593;22974.6;11588.36;-0.2636467;0.2757504;0;
11908.51;8196.145;3076.984;13024.78;-2.573191;0.4090473;11833.21;5540.017;-0.1984145;-0.1143308;0;
-19331.7;-13883.18;2345.102;-20099.79;-0.02500967;-3.945132;-19391.38;-10182.12;0.1915889;-0.04924854;0;
-24293.61;-15824.19;1004.356;-26227.88;4.529367;-6.218527;-24222.88;-11554.44;-0.003505592;-0.1141664;0;
-18098.47;-10576.9;-1117.712;-19889.37;3.319367;-2.99722;-17998.02;-7546.529;-0.1984041;-0.4388884;0;
-27069.99;-18992.59;-3068.139;-28829.49;2.846541;-2.860242;-26871.63;-13168.46;-0.1982047;0.016324;0;
-5267.827;-3199.369;-3407.603;-6586.893;3.781686;0.2907686;-5161.641;-2825.905;-0.3279403;0.3411443;0;
21442.25;15151.37;-2687.102;22521.79;5.385477;0.7593569;21495.29;11022.85;0.2570953;0.5357035;0;
21163.24;13595;-1510.554;23341.7;-1.050296;5.782131;21246.43;10150.25;0.3867717;0.2103286;0;
19418.4;12759.39;692.1697;21237.68;-2.053619;12.80941;19467.21;9345.595;-0.1333557;-0.04975215;0;
22976.29;15393.79;2721.204;24996.65;-7.14177;3.821067;23041.74;11646.79;-0.198189;0.3401019;0;
11849.44;8130.419;3093.719;12924.91;-10.48447;1.405903;11769.82;5530.002;-0.003087862;0.2098255;0;
-19425.86;-14002.91;2360.477;-20255.9;-4.780511;-1.944595;-19490.08;-10225.14;0.06188258;0.2096146;0;
-24440.38;-15951.7;1024.338;-26346.09;-5.377944;-8.640752;-24375.94;-11515.63;-0.1330816;0.2743714;0;
-18747.33;-11223.08;-1101.155;-20464.37;11.50667;-1.666027;-18666.07;-8023.654;-0.003013218;-0.3106104;0;
-28059.13;-19972.44;-3045.898;-29803.13;18.92985;-0.2577728;-27860.93;-14027.37;0.3218265;-0.5701677;0;
-5907.669;-3667.662;-3369.33;-7239.17;39.47373;2.287777;-5780.475;-3144.204;-0.1982356;-0.1797907;0;
21322.89;15160.06;-2633.469;22392.18;65.75775;6.170366;21376.28;11070.51;-0.2630037;0.405096;0;
21260.68;13662.96;-1459.661;23437.68;46.73636;4.824629;21337.93;10181;0.1920319;0.4696563;0;
19532.63;12882.23;724.2241;21350.55;43.13943;6.360267;19579.52;9480.997;-0.1979651;0.2742824;0;
23084.84;15503.59;2753.32;25098.63;41.55584;5.014339;23144.36;11756.54;-0.3277009;0.2090394;0;
12168.67;8374.601;3147.791;13269.64;28.92081;4.942318;12085;5668.781;0.3223018;0.01392737;0;
-18943.72;-13562.37;2432.767;-19747.39;44.16434;2.860881;-19022.16;-9942.289;0.4519127;0.01391337;0;
-23987.8;-15569.68;1104.958;-25935.44;54.3004;-0.4240962;-23936.89;-11323.71;0.1915892;0.2088014;0;
-18002.89;-10530.76;-1021.865;-19778.23;36.36225;3.394296;-17919.62;-7539.399;0.06146203;0.07865693;0;
-27095.62;-19015.62;-2972.467;-28856.9;24.53671;5.601322;-26911.07;-13240.84;0.1263676;0.01361055;0;
-5336.563;-3258.513;-3310.278;-6673.842;33.75546;3.519223;-5234.536;-2897.014;0.191208;0.2734663;0;
21409.62;15116.71;-2589.609;22479.95;32.98461;2.109046;21458.43;10987.37;0.1260485;0.1432568;0;
21243.5;13676.6;-1396.636;23424.84;37.43944;5.121158;21323.01;10229.02;-0.004012828;0.2080802;0;
19489.21;12829.68;808.7841;21308.23;47.11374;6.187617;19535.16;9415.099;0.06095855;0.2078711;0;
22995.67;15412.22;2836.889;25013.79;29.58495;7.722007;23056.48;11672.5;0.1258646;-0.1821418;0;
12128.21;8391.382;3218.595;13240.75;19.90968;12.67086;12044.96;5682.479;-0.004196516;-0.05202412;0;
-19194.27;-13773.05;2466.831;-19964.28;22.30057;3.481714;-19265.77;-10172.62;-0.3939964;0.07796284;0;
-24324.17;-15835.76;1122.496;-26260.65;15.71408;-4.02369;-24257.89;-11604.91;-0.6534698;0.1428519;0;
-18213.93;-10673.99;-990.3832;-20013.11;23.60252;2.745446;-18117.65;-7691.321;-0.4579112;0.7274144;0;
-27542.07;-19449.58;-2943.406;-29293.17;29.87545;2.80967;-27343.27;-13572.73;-0.3275164;0.7916508;0;
-5798.922;-3655.496;-3292.771;-7112.948;21.20426;4.682369;-5681.621;-3121.117;-0.457122;0.336084;0;
21273.8;15038.31;-2583.833;22342.27;19.3743;8.562552;21324.39;10942.94;-0.001891281;0.2707789;0;
21094.75;13512.37;-1398.081;23270.84;16.54179;2.056726;21171.02;10041.43;0.1930126;-0.1192972;0;
19324.47;12671.89;821.5991;21144.67;11.50133;-0.9594501;19373.67;9278.13;-0.5867894;-0.5739487;0;
22924.12;15340.24;2856.438;24935.26;17.51799;-1.427366;22983.91;11574.91;-0.6511672;-0.183568;0;
11849.56;8115.586;3229.316;12915.85;22.92637;-4.105188;11774.53;5518.681;0.1290953;0.2713879;0;
-19244.95;-13806.74;2492.784;-20061.27;15.66967;-4.034081;-19297.35;-10019.03;0.4538023;0.2061478;0;
-23913.31;-15507.19;1159.385;-25838.82;12.70618;-5.838566;-23848.83;-11257.63;0.3234116;-0.118896;0;
-17870.94;-10431.59;-971.7401;-19647.71;16.04232;-5.16287;-17788.51;-7434.873;-0.00175008;-0.2487112;0;
-27078.93;-19016.73;-2933.277;-28844.3;14.41861;-3.282222;-26903.81;-13198.45;-0.326585;0.2712774;0;
-5358.669;-3251.925;-3273.751;-6687.673;22.84422;-8.570393;-5272.544;-2877.295;-0.3262569;0.3359722;0;
21322.96;15068.89;-2563.223;22395.21;28.78213;-10.4373;21366.8;10953.35;-0.001092343;-0.05416946;0;
21157.45;13589.21;-1397.17;23336.16;28.75321;-12.30228;21234.14;10131.88;0.5186475;-0.05411503;0;
19432.54;12769.56;800.9109;21250.02;34.41775;-17.04558;19474.58;9358.983;0.5181264;0.07587402;0;
22953.17;15372.55;2831.96;24969.69;25.07339;-9.861464;23013.66;11625.61;-0.06710034;0.2057325;0;
11931.43;8227.504;3206.05;13032.29;15.8048;-5.430803;11846.99;5572.666;-0.1320003;0.3354605;0;
-19439.88;-13993.91;2454.829;-20235.9;24.96497;-8.03762;-19516.47;-10295.58;0.0630344;0.2051887;0;
-24455.65;-15984;1104.322;-26389.93;28.48985;-7.024799;-24396.95;-11721.17;-0.131931;0.07504782;0;
-18201.09;-10652.17;-1031.278;-19968.35;21.69608;-8.290416;-18108.6;-7612.019;-0.3267004;0.01000507;0;
-27188.71;-19094.67;-2999.517;-28965.41;20.80362;-9.353752;-27003.81;-13235.29;-0.1964375;0.1399297;0;
-5411.214;-3310.129;-3335.911;-6780.627;14.28598;-7.736824;-5314.846;-2890.856;0.193564;0.009854415;0;
21374.43;15110.92;-2611.937;22436.18;6.903259;-5.719623;21419.86;10991.92;-0.1964346;-0.3149922;0;
21167.08;13593.87;-1431.311;23341.9;13.66148;-9.263849;21241.6;10131.49;-0.2612045;0.2700304;0;
19448.18;12791.53;783.5931;21258.7;16.72921;-12.26871;19489.92;9385.581;-0.00107272;0.7245305;0;
22928.94;15348.07;2799.042;24943.83;14.09945;-6.897871;22987.6;11591.02;-0.06603898;0.1390964;0;
11748.29;8081.389;3144.149;12791.91;12.4777;-3.340906;11657.86;5442.741;0.2588641;-0.05594543;0;
-19468.58;-13976.35;2391.241;-20320.12;18.09221;-4.677208;-19560.93;-10242.92;0.1936366;0.2689475;0;
-24378.85;-15922.35;1046.701;-26280.88;23.63374;-6.480986;-24330.37;-11565.62;-0.001459961;-0.1211268;0;
-18338.08;-10820.36;-1081.875;-20080.5;18.18401;1.496312;-18251.95;-7697.748;0.3233782;-0.2509398;0;
-27118.46;-19096.62;-3029.543;-28914.9;16.02228;7.590072;-26974.14;-13360.99;0.1931186;-0.0557856;0;
-5083.825;-3115.068;-3353.241;-6451.263;17.01056;3.697557;-5034.427;-2850.858;-0.2618468;-0.3155989;0;
21430.49;15119.55;-2636.746;22500.56;15.72165;4.430655;21468.91;10992.22;-0.3915184;-0.1853471;0;
21084.49;13531.03;-1467.542;23263.42;17.71461;0.4072876;21160.53;10085.85;0.1286137;0.00974115;0;
19391.32;12723.21;739.3708;21205.38;22.31851;-4.013873;19428.09;9299.602;-0.0014502;-0.250138;0;
22881.59;15303.9;2759.55;24893.25;13.45482;-1.732481;22939.56;11555.03;-0.06641608;-0.05498464;0;
11714.51;8045.35;3118.532;12779.66;5.135909;-1.663758;11623.98;5438.795;0.5833241;0.20494;0;
-19902.13;-14423.48;2366.4;-20737.4;18.19157;-3.671513;-19980.44;-10619.33;-0.001968134;-0.2500373;0;
-25157.05;-16667.21;1005.768;-27079.31;23.3982;-4.605585;-25098.23;-12079.58;-0.6516396;0.01008326;0;
-18886.9;-11359.65;-1135.854;-20648.13;23.64213;-4.132076;-18809.32;-8017.214;-0.001311386;0.3998772;0;
-27589.29;-19534.12;-3078.017;-29379.9;24.75745;-4.797754;-27420.89;-13614.43;0.3235267;-0.05529601;0;
-5557.798;-3475.43;-3383.348;-6909.646;22.65647;-1.577813;-5469.347;-2975.767;0.06333219;-0.05524044;0;
21330.21;15053.25;-2639.586;22395.21;17.27507;0.09828441;21369.39;10963.09;-0.1966008;0.1397171;0;
21116.53;13544.55;-1436.787;23284.45;18.53051;2.107613;21188.24;10059.35;-0.1314359;0.2045441;0;
19375.83;12717.97;801.47;21184.37;24.54011;6.191332;19416.13;9318.27;0.2585002;0.2693059;0;
22941.61;15360.03;2835.142;24952.63;-3.415819;1.563471;22997.95;11590.49;0.2582405;0.1391006;0;
11696.45;8019.793;3178.307;12780.75;-15.3351;-0.3806047;11604.21;5432.11;0.452883;0.1389608;0;
-19712.74;-14249.26;2413.808;-20546;-33.74012;0.2896071;-19806.75;-10449.81;0.3874606;0.07385383;0;
-24724.03;-16227.44;1055.252;-26681.92;-63.98104;-1.25123;-24695.99;-11768.54;-0.2626022;0.138747;0;
-18901.22;-11340.76;-1099.257;-20696.82;-30.62782;0.625488;-18843.05;-8067.932;-0.2623383;-0.05629447;0;
-27853.71;-19800.45;-3047.407;-29666.97;-14.72222;0.6248595;-27689.23;-13856.93;-0.1971073;-0.05623791;0;
-5575.999;-3494.708;-3348.692;-6952.034;-18.05633;3.370471;-5491.595;-3016.945;-0.326844;0.00878594;0;
21316.25;15060.29;-2616.6;22370.46;-5.914394;6.984041;21353.54;10958.33;0.06328849;0.1387118;0;
21107.42;13535.73;-1426.411;23272.91;-11.19974;4.431794;21179.51;10054.53;0.0632249;0.3984418;0;
19440.13;12780.16;800.9813;21247.99;-11.59062;4.427341;19479.47;9373.813;-0.2616753;0.4630088;0;
22931.63;15350.75;2825.002;24941.3;-3.072512;5.159704;22986.74;11590.92;-0.1314777;0.5275109;0;
11773.81;8117.737;3174.237;12828;3.227215;4.082793;11679.42;5466.826;-0.001410925;0.5919482;0;
-19676.78;-14172.64;2413.928;-20529.38;-0.9965627;7.829612;-19770.2;-10443.66;-0.4561809;0.07161465;0;
-24724.54;-16253.08;1064.43;-26674.16;-2.535803;9.094421;-24688.34;-11795.96;-0.5856572;-0.1233593;0;
-18354.96;-10828.91;-1058.698;-20147.91;-1.796321;10.8937;-18285.42;-7614.534;-0.260232;0.0066993;0;
-27202.03;-19127.76;-3009.388;-28992.74;-6.081423;14.36587;-27036.19;-13299.76;-0.1300359;-0.05827477;0;
-5453.46;-3378.708;-3344.632;-6802.388;1.828917;10.39956;-5371.57;-2961.55;-0.06493786;0.07171846;0;
21342.82;15069.24;-2620.508;22399.26;3.903185;9.987213;21382.55;10973.73;9.472894E-05;0.3964831;0;
21188.21;13621.15;-1431.253;23360.35;6.980721;6.628032;21261.46;10142.93;0.1300293;0.2661501;0;
19479.26;12820.53;790.2726;21291.19;15.14538;1.061971;19519.76;9417.71;0.194866;0.1359479;0;
22992.35;15412.37;2816.522;25001.39;0.8629203;7.825997;23049.82;11653.93;-0.0002318226;-0.124058;0;
11844.58;8170.376;3160.362;12944.7;-7.376969;10.89923;11757.18;5525.827;0.1946704;-0.2538681;0;
-19338.89;-13852.31;2388.947;-20143.79;-6.164108;9.34779;-19419.23;-10146.4;-0.06539454;0.2011584;0;
-24269.91;-15779.76;1030.26;-26234.29;-11.65027;11.41475;-24223.39;-11505.17;-0.3901655;0.330891;0;
-18255.13;-10709.18;-1105.734;-20075.38;-8.825525;8.791064;-18181.04;-7623.821;0.3898346;-0.1891802;0;
-27119.04;-19051.39;-3061.389;-28934.47;-8.883031;7.442572;-26958.9;-13261.56;0.7142796;-0.1240228;0;
-5196.325;-3136.336;-3398.579;-6552.866;-9.945831;8.03794;-5123.62;-2848.912;-0.06604621;0.2009385;0;
21407.38;15121.53;-2676.354;22488.67;-7.859733;5.417651;21444.38;10983.39;-0.001012502;0.1357693;0;
21114.06;13544.71;-1482.81;23292.69;-13.07577;11.70836;21183.58;10094.36;0.3238252;-0.1892039;0;
19418.25;12759.7;733.9413;21229.54;-14.87129;18.12683;19456.01;9346.022;-0.1962389;-0.3189484;0;
22927.57;15345.1;2755.812;24933.44;-15.92808;10.00393;22979.9;11584.86;-0.001139684;0.2660781;0;
11708.01;8113.214;3110.239;12778.12;-18.12288;6.17585;11614.6;5474.567;0.5186002;0.3307781;0;
-19506.87;-13929.22;2355.772;-20341.11;-16.02856;7.978184;-19589.02;-10205.98;0.1282751;0.07057637;0;
-24240.54;-15801.32;1014.703;-26205.7;-16.61469;4.286228;-24192.65;-11510.36;-0.3266252;0.07050546;0;
-18098.51;-10593.74;-1108.063;-19891.25;-11.23936;10.97997;-18016.57;-7507.704;-0.2613297;-0.3193694;0;
-27047.78;-18993.07;-3061.435;-28860.87;-4.731337;17.73409;-26906.98;-13182.8;-0.2610671;-0.4489832;0;
-5181.55;-3238.822;-3397.283;-6578.223;-8.74507;7.334162;-5142.959;-2863.473;-0.3907395;-0.1886627;0;
21441.51;15091.56;-2675.121;22500.32;-8.602561;2.102246;21476.1;10998.84;-0.1304775;-0.1235058;0;
21105.95;13559.46;-1498.445;23282.32;-7.723261;4.9804;21178.69;10088.92;0.1944903;-0.3182837;0;
19357.1;12691.19;710.5449;21164.19;-11.73399;5.913034;19393.12;9285.318;0.3242296;-0.1880292;0;
22855.18;15277.74;2742.778;24865.94;-2.076656;2.692034;22910.19;11511.41;0.06403443;0.2019638;0;
11594.49;8010.593;3101.34;12657.16;3.68523;-0.9276271;11502.14;5401.536;-0.1309319;-0.1230759;0;
-19502.26;-13929.23;2355.129;-20348.67;0.6000686;5.235613;-19581.52;-10167.41;-0.0008656929;-0.3828216;0;
-24362.4;-15875.68;1014.716;-26310.21;6.159171;7.306701;-24332.99;-11514.64;-0.0008648231;-0.1875349;0;
-18516.09;-10971.22;-1112.235;-20311.15;-7.108906;10.31359;-18473.05;-7733.292;-0.1307986;0.462327;0;
-26909.28;-18878.14;-3048.565;-28748.91;-16.61358;15.12588;-26780.21;-13242.5;-0.3255692;0.8516665;0;
-4645.509;-2708.117;-3393.187;-6027.809;-10.56867;10.422;-4599.362;-2719.694;-0.4551768;0.525974;0;
21467.88;15129.36;-2698.344;22552.99;-14.10802;9.071864;21502.06;10968.8;-0.06491537;0.1356415;0;
21005.9;13454.43;-1516.35;23184.44;-4.71575;7.187227;21079.97;10029.76;0.1300519;-0.1243642;0;
19379.85;12714.93;684.8492;21184.7;0.5129252;4.701758;19414.6;9283.959;-0.1949155;-0.1892066;0;
22789.63;15209.85;2702.084;24800.93;3.99601;3.625307;22844.63;11460.09;-0.259687;-0.4488858;0;
11538.31;7886.362;3086.612;12602.25;14.17242;2.683903;11442.95;5314.694;0.2603127;-0.5134022;0;
-19860.87;-14373.92;2356.938;-20707.86;2.637608;0.3368651;-19955.46;-10513.65;0.3250185;0.1367871;0;
-24669.45;-16177.27;1028.018;-26625.94;-3.192191;-1.940832;-24640.1;-11839.43;-0.2600142;-0.05825234;0;
-18201.93;-10651.72;-1066.619;-19992.48;1.901231;1.678074;-18143.75;-7600.67;-0.1947856;-0.1231612;0;
-27139.92;-19046.37;-3009.742;-28921.25;2.769977;3.016047;-26981.26;-13179.08;0.1302468;0.4616687;0;
-5525.505;-3388.282;-3360.649;-6868.338;-0.1122186;7.500751;-5445.427;-2934.969;-0.06478606;0.1363681;0;
21254.43;14999.79;-2644.537;22310.15;-6.476095;12.1819;21291.62;10888.24;-0.1946557;-0.1236383;0;
21044.59;13472.87;-1474.466;23214.66;5.654202;12.30362;21113.96;10003.66;-0.06452537;0.00642061;0;
19181.12;12520.71;721.8184;20994.73;14.69085;12.96109;19217.39;9115.953;0.3253435;-0.2534552;0;
22744.88;15167.65;2760.037;24752.14;7.576142;16.69899;22798.81;11392.39;0.1950819;-0.1232659;0;
11449.88;7851.499;3147.443;12529.54;8.908676;20.76805;11356.92;5305.797;0.06495122;0.07176003;0;
-20078.3;-14540.59;2416.833;-20905.89;3.54109;14.58499;-20174.84;-10705.25;-8.138913E-05;-0.05824676;0;
-25105.76;-16591.15;1082.699;-27029.81;-3.026552;10.55136;-25070.92;-12074.58;-0.2599507;-0.1881229;0;
-19237.08;-11683.76;-1029.734;-20975.29;4.009087;11.67947;-19155.93;-8249.197;-0.06478745;-0.2529012;0;
-28082.06;-19979.63;-2962.243;-29855.1;7.086518;11.46678;-27903.27;-14056.03;0.5199837;-0.3825818;0;
-5739.218;-3523.157;-3301.875;-7114.012;4.199009;8.173221;-5652.7;-3171.701;0.3245592;-0.4471647;0;
21157.88;14943.62;-2607.514;22202.44;3.525205;5.68664;21195.81;10843.65;-0.0006036097;0.202958;0;
20942.23;13354.27;-1444.899;23111.33;5.262975;7.087568;21011.02;9883.821;0.3242337;0.5925581;0;
19270.77;12618.88;745.5929;21080.41;5.458757;5.07108;19306.52;9208.1;-0.0009287947;0.007256649;0;
22756.41;15175.12;2765.391;24765.4;8.467382;12.36688;22811.76;11409.36;-0.1308625;-0.25262;0;
11442.84;7788.231;3157.663;12516.04;11.80778;18.78469;11347.95;5232.605;0.453975;-0.05746415;0;
-20120.42;-14635.64;2434.884;-20949.3;9.050222;14.74696;-20215.54;-10791.58;0.1936495;-0.2523084;0;
-25185.03;-16668.37;1096.64;-27116.14;8.370567;15.20103;-25153.86;-12168.92;-0.001447106;-0.3819896;0;
-19075.73;-11528.37;-1019.399;-20855.31;7.4915;13.77911;-19021.63;-8190.388;0.3883584;0.2031003;0;
-28160.21;-20062.21;-2963.507;-29949.63;4.939353;11.95673;-27998.17;-14010.74;0.5828702;0.3977983;0;
-6156.612;-3896.668;-3293.315;-7508.446;7.9485;12.0117;-6063.253;-3254.41;-0.06738889;-0.05737285;0;
21129.94;14933.22;-2567.103;22176.04;10.6862;11.19583;21167.06;10867.45;-0.7169946;0.00765214;0;
20984.05;13393;-1405.325;23146.53;4.579897;9.443148;21048.61;9890.595;-0.001633395;0.1375791;0;
18998.61;12343.34;778.8802;20805.62;-1.184505;7.960034;19032.88;8948.953;0.1932703;-0.1224285;0;
22644.54;15065.74;2814.855;24647.99;4.912254;8.219968;22692.91;11280.49;-0.3266627;-0.1872728;0;
11335.1;7757.063;3199.926;12415.08;8.188872;8.412658;11238.74;5245.322;0.2583717;-0.05714994;0;
-20571.34;-15021.38;2453.74;-21409.37;3.692665;8.069289;-20673.69;-11164.95;0.3880467;-0.05709252;0;
-25682.43;-17164.06;1095.612;-27625.94;4.62696;6.252642;-25655.82;-12575.41;0.0628201;0.007932192;0;
-19635.88;-12095.17;-1049.068;-21396.1;-1.539631;11.60487;-19563.14;-8568.345;0.452561;-0.05704312;0;
-28698.01;-20574.37;-3000.048;-30518.98;-7.767375;15.74603;-28554.61;-14594.01;0.7769429;-0.2518878;0;
-6329.64;-3977.31;-3328.133;-7771.893;-0.5259013;12.98403;-6283.097;-3506.603;0.2564236;-0.05673271;0;
21005.17;14858.96;-2613.131;22018.45;2.958228;13.77478;21037.27;10793.36;0.1911986;0.008291641;0;
20938.32;13329.65;-1417.058;23113.09;2.419392;11.48352;21008.29;9834.053;0.1260391;-0.1216514;0;
19243.69;12592.29;809.5911;21046.58;3.957202;10.19931;19275.4;9192.536;-0.3288589;-0.05656179;0;
22792.78;15211.31;2824.639;24798.11;7.302128;8.849521;22845.31;11436.89;-0.0686591;0.2033644;0;
11348.22;7756.611;3181.558;12454.5;10.10783;5.960362;11251.32;5203.24;0.3861813;0.1381927;0;
-20469.46;-14908.67;2428.769;-21284.88;13.24648;9.102571;-20564.79;-11097.48;0.2558586;-0.1218155;0;
-25338.93;-16819.67;1064.982;-27296.6;17.31901;9.89722;-25299.07;-12373.38;0.06069945;-0.3165951;0;
-19071.42;-11507.01;-1081.167;-20858.11;15.62667;10.82491;-18993.08;-8160.069;-0.004328883;-0.316277;0;
-28322;-20220.27;-3038.455;-30100.79;13.33379;12.01973;-28148.62;-14134.52;-0.1342592;-0.1860245;0;
-6131.436;-3954.336;-3345.356;-7462.381;17.80837;12.40955;-6042.966;-3286.012;-0.264059;-0.250805;0;
21314.17;15065.74;-2586.655;22382.18;18.99593;14.13864;21352.38;11020.08;0.1260104;-0.1855856;0;
21113.64;13526.24;-1392.999;23276.19;17.3019;10.77528;21179.54;10010.58;0.2558185;0.1394376;0;
19228.73;12575.68;824.1936;21034.58;18.42359;8.487159;19263.16;9187.363;-0.1342427;0.2692322;0;
22873.57;15287.88;2864.246;24872.45;11.3715;8.277682;22924.89;11506.13;-0.4589445;0.07405961;0;
11570.26;7937.282;3231.213;12657.97;7.54266;6.929706;11473.57;5371.884;-0.3285486;0.2039199;0;
-19987.64;-14479.18;2472.346;-20815.88;4.654693;6.051965;-20087.63;-10669.66;-0.1333165;0.3336497;0;
-24815.4;-16308.38;1111.732;-26800.37;-0.6412695;5.443038;-24783.26;-11971.56;0.0617195;-0.05648964;0;
-18758.92;-11201.52;-1033.182;-20566.68;3.176792;4.298981;-18687.12;-8001.673;0.1915922;0.1384692;0;
-27717.24;-19626.62;-2975.199;-29531.47;1.633358;2.553105;-27556.09;-13755.83;-0.003502372;0.008395326;0;
-5522.128;-3339.868;-3279.883;-6910.903;7.928357;5.56465;-5445.329;-2999.346;-0.3283356;-0.5113518;0;
21319.35;15091.52;-2554.091;22374.42;14.2834;7.836478;21355.36;10965.18;-0.392973;0.1388354;0;
21103.09;13516.94;-1350.113;23275.05;9.512652;5.953082;21170.06;10050.26;-0.1976761;0.3335979;0;
19492.75;12836.8;902.253;21289.62;10.91059;4.54058;19526.5;9416.63;-0.1325101;-0.4463454;0;
22965.91;15382.65;2925.954;24971.63;5.540992;8.554872;23014.69;11622.45;-0.06740965;-0.05609285;0;
11670.4;8057.663;3267.434;12758.07;2.051824;13.16798;11575.34;5411.914;-0.002374573;0.3337676;0;
-19464.52;-13918.49;2508.469;-20308.15;0.4421722;8.064164;-19556.5;-10269.36;0.1275625;0.07356282;0;
-24368.9;-15859.86;1130.608;-26336.52;-4.381043;7.453215;-24331.56;-11566.12;0.257369;-0.1214131;0;
-18612.82;-11044.62;-1032.441;-20404.08;-0.08973342;5.838135;-18536.87;-7834.495;0.1921431;-0.3161932;0;
-27553.88;-19463.24;-2975.333;-29360.35;0.1787765;0.004937074;-27390.19;-13522.24;0.1269826;-0.2509081;0;
-5456.18;-3353.112;-3271.865;-6816.697;3.326429;13.0663;-5382.281;-2893.993;-0.003079627;0.07418072;0;
21408.61;15140;-2508.74;22474.56;8.279579;22.29657;21443.72;11037.82;0.06189081;-0.1207958;0;
21221.53;13643.12;-1298.373;23392.55;4.453843;18.45626;21288.29;10158.65;0.1917633;-0.1856418;0;
19411.87;12755.09;929.3745;21215.47;5.453745;20.782;19445.14;9347.876;0.06163594;0.1393815;0;
23029.12;15444.61;2973.069;25028.2;1.563499;20.09129;23079.89;11671.04;-0.003393337;0.07427405;0;
11855.92;8160.64;3335.023;12942.31;-4.801084;17.3919;11759.37;5560.134;0.06157741;-0.1207026;0;
-19630.31;-14180.76;2574.865;-20470.33;4.044999;24.0726;-19727.18;-10417.83;-0.1333865;-0.3154834;0;
-24501.89;-16004.24;1220.083;-26488.22;9.131149;28.26821;-24474.55;-11712.35;-0.1982198;-0.1852317;0;
-18469.59;-10893.02;-916.3512;-20268.83;3.629618;24.22095;-18406.5;-7752.235;0.2567508;0.1397912;0;
-27459.41;-19391.62;-2858.032;-29269.6;3.291178;24.33058;-27295.71;-13544.3;0.3214601;0.07468335;0;
-5315.59;-3259.549;-3172.813;-6701.347;0.1400395;20.15319;-5235.782;-2942.416;-0.3285363;-0.1852611;0;
21487.97;15199.14;-2427.592;22538.74;-4.147009;14.43964;21521.35;11068.69;-0.3282062;0.1397618;0;
21209.04;13638.75;-1196.911;23371.47;-0.5928685;20.11843;21272.79;10170.73;-0.06800704;0.3345234;0;
19542.13;12880.28;1058.128;21336.16;-0.05640932;22.17469;19572.66;9461.564;0.06199598;-0.05561678;0;
23037.87;15453.44;3089.043;25038.55;0.1447182;19.94197;23087.06;11695.52;0.126901;0.2692758;0;
11790.86;8160.965;3430.61;12895.11;3.292405;20.25685;11695.19;5487.199;0.2567082;0.3989399;0;
-19305.61;-13772.51;2657.362;-20140.08;-1.93484;18.69601;-19400.72;-10157.72;0.3863849;-0.2511343;0;
-23987.83;-15492.88;1278.884;-26017.91;-4.679563;17.73946;-23950.55;-11386.79;0.3210294;-0.3158494;0;
-18010.49;-10442.06;-882.9716;-19860.57;-1.928194;17.98957;-17935.14;-7458.417;0.2557395;-0.1855973;0;
-27030.52;-18937.84;-2835.727;-28845.27;-3.533847;17.90451;-26862.95;-13094.65;0.1255478;-0.2503782;0;
-5136.506;-3121.595;-3148.922;-6486.292;2.899089;16.61385;-5053.563;-2786.524;0.190389;0.07471014;0;
21510.89;15175.61;-2402.585;22589.43;7.116711;14.18589;21547.93;11034.27;0.3201324;-0.120267;0;
21275.19;13708.87;-1184.438;23437.65;6.974862;17.38669;21340.74;10250.01;0.3198107;-0.7048522;0;
19571.05;12911.37;1055.314;21368.39;10.7189;19.44569;19604.37;9491.802;0.1895547;-0.2493726;0;
23121.48;15533.04;3088.762;25127.49;5.885356;17.21572;23172.6;11782.33;-0.2654072;0.3355841;0;
11953.23;8287.581;3431.235;13056.44;4.004409;19.34187;11854.99;5599.902;-0.1352058;0.2053122;0;
-19332.03;-13844.83;2644.056;-20160.12;1.856931;12.15539;-19431.65;-10253.31;0.1247994;0.01020388;0;
-24143.22;-15648.64;1264.186;-26168.55;-3.569942;4.775172;-24108.25;-11537.29;-0.005260685;-0.3146431;0;
-18203.31;-10633.59;-887.285;-20057.69;2.930379;12.54027;-18129.79;-7651.832;0.3195813;-0.2493596;0;
-27324.82;-19225.94;-2836.413;-29153.15;7.415413;14.53704;-27157.2;-13391.54;0.3842275;0.2706297;0;
-5261.113;-3198.7;-3148.077;-6639.288;3.322125;15.39321;-5177.583;-2871.33;-0.3307993;0.2053905;0;
21527.26;15223.18;-2408.628;22589.15;4.122095;19.59754;21562.88;11073.8;-0.1355649;0.2701514;0;
21213.18;13641.11;-1212.292;23376.48;4.05158;14.55425;21279.26;10184.67;0.2543754;0.3348473;0;
19524.91;12867.5;1001.533;21322.61;2.774711;12.59725;19558.95;9445.088;-0.005749582;0.07464147;0;
23059.25;15473.41;3015.357;25061.62;9.336006;13.38838;23108.41;11716.23;0.1241909;0.2045012;0;
11811.75;8143.899;3365.931;12886.09;11.80487;11.29846;11712.56;5478.152;0.05909875;0.009393648;0;
-19392.51;-13899.44;2606.71;-20246.37;16.21364;14.43518;-19491.95;-10237.89;-0.07089531;-0.5103545;0;
-24215.45;-15725.07;1243.275;-26228.82;19.81467;16.02827;-24180.14;-11467.44;0.1890453;0.009897016;0;
-18276.59;-10712.62;-902.7088;-20118.57;20.66542;14.40457;-18201.95;-7613.86;0.1888553;0.4646585;0;
-27011.28;-18965.56;-2847.917;-28826.59;26.20436;14.05531;-26846.08;-13158.29;0.1886656;0.3992243;0;
-4934.959;-2978.517;-3160.834;-6287.892;13.98689;13.23739;-4853.056;-2684.127;0.05854131;0.3988231;0;
21478.58;15141.4;-2441.721;22547.26;4.394642;13.02314;21518.29;11003.46;0.05848249;0.2035203;0;
21126.18;13571.66;-1273.526;23289.46;8.944578;10.33074;21194.79;10113.54;-0.07151096;0.2682832;0;
19419.57;12756.97;936.1438;21223.71;7.797491;8.377975;19454.62;9342.344;-0.5911778;0.2030463;0;
22967.09;15385.34;2973.054;24975.6;5.646202;6.761965;23019.64;11623.45;-0.07084508;-0.1869618;0;
11750.16;8084.822;3335.695;12842.91;4.032938;3.808044;11655.43;5487.126;0.4489648;-0.05683928;0;
-19692.37;-14218.95;2560.606;-20530.19;5.166986;5.545652;-19786.26;-10450.83;-0.07122502;0.3330219;0;
-24375.87;-15900;1201.122;-26376.19;6.50194;5.607062;-24335.38;-11715.6;-0.2660555;0.5925567;0;
-18112.55;-10537.6;-918.2079;-19931.48;5.624751;5.467463;-18035.26;-7545.415;0.2539506;0.5269939;0;
-27064.21;-18980.22;-2864.15;-28870.54;4.077882;7.203525;-26894.03;-13154.88;0.2536954;0.2016277;0;
-5071.435;-3072.338;-3195.917;-6420.879;9.767212;2.909501;-4983.867;-2767.6;-0.3312656;-0.1234117;0;
21489.28;15156.76;-2475.566;22571.53;16.52255;0.2942436;21527.66;11006.48;-0.1360307;-0.2532223;0;
21056.43;13495.26;-1292.391;23213.86;7.329898;1.231709;21119.62;10039.52;0.1239754;0.006901475;0;
19388.86;12728.96;925.1063;21184.59;0.7584495;0.6946079;19423.13;9314.749;0.1238508;0.1368292;0;
22920.21;15338.61;2955.562;24918.71;7.188049;0.8278758;22969.82;11566.67;0.3186284;0.2016591;0;
11493.06;7898.028;3319.47;12528.14;8.788417;1.362907;11384.1;5308.645;-0.1364632;0.1364891;0;
-19753.83;-14202.41;2573.727;-20641.03;6.233991;1.026623;-19864.48;-10426.39;-0.5910975;0.006417281;0;
-24254.48;-15814.14;1226.848;-26264.76;5.624514;1.092575;-24236.69;-11617.36;-0.3956015;0.2013129;0;
-18097.97;-10567.33;-900.5352;-19950.17;4.011272;2.900016;-18055.09;-7543.602;-0.005399938;-0.1237261;0;
-26687.43;-18673.46;-2831.831;-28551.36;4.14194;3.901846;-26566.55;-12985.83;0.2544748;-0.7083079;0;
-4557.907;-2705.526;-3159.351;-5947.095;-1.421927;6.644104;-4518.942;-2594.092;-0.1355849;-0.3177921;0;
21590.5;15210.38;-2456.169;22663.28;-9.659521;10.25438;21615.89;11044.52;-0.2653833;0.07233124;0;
21106.83;13570.36;-1280.978;23271.66;0.4642413;7.497902;21171.72;10132.39;0.3195894;-0.05767612;0;
19414.9;12743.68;915.7684;21211.41;8.033212;4.476136;19441.95;9308.509;0.0593989;0.007349177;0;
22802.81;15226.94;2929.554;24804.85;-2.825851;10.96886;22851.25;11464.93;-0.005628124;0.1372765;0;
11448.47;7828.144;3305.17;12522.25;-6.171914;15.17764;11343.55;5290.723;0.644051;0.2021059;0;
-19901.39;-14382.76;2562.939;-20752.91;-6.635203;11.54543;-20004.94;-10551.18;0.3185671;0.07196812;0;
-24545.85;-16048.05;1215.946;-26544.47;-8.637292;12.0697;-24521.08;-11822.81;-0.07155705;0.2018305;0;
-18280.73;-10709.53;-908.9268;-20109.9;-6.217715;9.110321;-18235.22;-7660.624;0.2533516;0.5264644;0;
-26981.85;-18925.67;-2847.773;-28804.94;-5.273463;6.488955;-26838.8;-13109.5;0.5779337;-0.05877067;0;
-4923.986;-2962.495;-3171.263;-6264.793;-3.12471;8.290974;-4852.482;-2685.557;0.577353;-0.513483;0;
21508.12;15159.44;-2460.104;22599.51;-4.394368;6.675053;21539.63;11011.82;0.1869688;0.006771675;0;
21076.97;13518.8;-1283.113;23237.47;5.791453;11.95988;21139.47;10058.73;-0.07308842;0.3316016;0;
19351.86;12690.91;926.0662;21145.19;14.09103;15.83275;19379.59;9272.637;-0.008047645;0.07139902;0;
22886.78;15304.56;2948.775;24884.98;10.59425;14.20925;22931.43;11530.51;0.1218951;-0.05860741;0;
11483.05;7826.929;3324.934;12586.78;16.94661;13.59225;11374.75;5287.586;0.4466093;-0.1235159;0;
-19842.86;-14367.05;2588.274;-20667.17;3.399277;15.7889;-19955.08;-10530.28;0.3162259;-0.1233917;0;
-24294.47;-15817.08;1243.004;-26330.2;-7.120337;18.18442;-24281.19;-11650.08;-0.00892854;-0.2532024;0;
-18275.16;-10708.04;-882.708;-20143.17;0.3215573;12.40574;-18239.17;-7701.137;0.1859825;-0.3828827;0;
-27213.61;-19152.57;-2823.08;-29044.01;-3.295112;10.11586;-27078.19;-13328.35;0.1208282;-0.2525633;0;
-4988.048;-2994.98;-3151.608;-6351.53;6.151694;5.082093;-4920.824;-2751.859;-0.07419519;0.1374945;0;
21505.54;15179.58;-2432.77;22578.78;11.50415;-2.22397;21535.18;11020.52;-0.07412064;0.2672911;0;
21117.94;13557.06;-1242.157;23274.58;13.56967;2.734941;21180.31;10108.55;0.1858232;0.007153105;0;
19441.29;12781.99;966.2009;21236.67;23.06688;4.54061;19470.7;9357.314;0.3155712;0.07211326;0;
22891.98;15311.84;2981.467;24896.4;8.576364;2.124784;22939.18;11549.12;-0.009582628;0.1370082;0;
11597.83;7967.575;3354.688;12648.44;-1.547287;3.730239;11492.87;5351.123;0.05539434;-0.1879662;0;
-19628.32;-14118.35;2620.841;-20512.56;4.818256;0.5113104;-19735.92;-10361.86;0.1852734;0.072092;0;
-24108.48;-15666.8;1273.133;-26123.9;3.87541;-3.775989;-24087.36;-11484.03;-0.2696842;0.2669216;0;
-17985.54;-10460.62;-874.3485;-19821.7;0.7900571;4.19853;-17933.16;-7508.269;0.0554235;-0.1231507;0;
-27115.71;-19042.16;-2834.188;-28924.69;0.1870269;7.744407;-26967.14;-13209.46;0.4451719;-0.1879943;0;
-5153.755;-3155.897;-3158.566;-6492.563;-4.635932;6.597915;-5087.042;-2781.145;-0.3348835;0.007096658;0;
21444.09;15117.18;-2445.077;22517.18;-7.244218;8.466807;21472.14;10991.95;-0.7893184;0.3968936;0;
21095.88;13534.41;-1270.444;23254.8;-7.839176;3.434702;21160.34;10067.94;-0.2687866;0.5913968;0;
19469.74;12813.51;952.7781;21266.29;-10.64434;1.488746;19499.51;9394.921;0.05632018;0.2659659;0;
23001.79;15418.07;2975.647;25006.1;-4.069559;-3.603331;23049.62;11663.1;-0.008703753;0.3956333;0;
11787.24;8076.445;3321.107;12888.92;0.6226032;-8.221411;11686.26;5403.633;0.4460764;0.3302684;0;
-19252.16;-13811.39;2564.805;-20095.19;0.8230484;-9.552808;-19359.62;-10167.85;0.2507261;0.005099855;0;
-23990.58;-15524.61;1203.848;-26029.63;3.501539;-13.4281;-23980.02;-11343.33;-0.2042972;0.1999968;0;
-18160.33;-10607.81;-946.1253;-20025.76;3.76644;-9.998597;-18118.78;-7593.375;0.1207448;-0.06007357;0;
-26907.11;-18853.01;-2891.165;-28750.6;3.561585;-9.452687;-26754.63;-13114.45;0.1855908;-0.5147846;0;
-4777.313;-2798.708;-3204.835;-6150.293;5.835182;-4.955454;-4698.121;-2606.112;0.05546965;0.1354061;0;
21541.11;15227.76;-2478.588;22616.54;7.704352;1.345798;21571.85;11065.59;0.5101853;0.2652047;0;
21186.16;13623.73;-1278.887;23347.03;3.879194;-2.272571;21247.83;10179.3;0.8345094;-0.2548005;0;
19571.66;12914.72;958.1182;21363.32;3.00464;-2.136322;19601.64;9486.807;0.2489648;0.3301616;0;
23066.16;15483.77;2986.136;25065.75;-1.084216;-0.2586533;23112.4;11738.68;0.0538126;0.7196339;0;
12084.37;8369.734;3339.05;13149.18;-5.168963;0.344392;11981.4;5627.377;0.1187259;-0.0606973;0;
-18899.21;-13435.14;2570.517;-19769.88;-2.819245;1.013875;-19007.97;-9900.803;0.05363923;-0.190571;0;
-23587.33;-15191.58;1196.811;-25601.11;-3.754417;0.4100102;-23564.17;-11133.36;0.4433894;0.06948986;0;
-17373.81;-9894.346;-948.3765;-19220.34;0.602636;3.557796;-17311.23;-7028.866;0.5079112;0.004452694;0;
-26305.34;-18244.86;-2893.758;-28148.22;3.750838;6.166433;-26163.5;-12502.36;-0.1422726;-0.1904538;0;
-4654.649;-2775.948;-3186.092;-6008.349;5.823174;4.150749;-4599.758;-2487.545;-0.2720643;0.004639589;0;
21719.91;15330.73;-2423.257;22803.57;9.166225;3.744803;21748.75;11186.72;0.2479478;0.06960227;0;
21354.75;13809.31;-1217.646;23512.65;8.754874;3.540092;21415.83;10351.74;0.312666;-0.1253697;0;
19676.09;13019.41;1024.451;21468.22;9.616733;1.794978;19700.84;9596.447;0.05248249;0.1346257;0;
23208.35;15623.76;3058.68;25206.69;8.602693;3.802663;23253.48;11877.83;0.2473318;0.06952303;0;
12034.38;8292.955;3392.406;13125.29;7.857114;4.803463;11924.2;5554.047;0.1821159;-0.1904162;0;
-18604.72;-13173.78;2616.448;-19467.72;5.705765;2.119442;-18725.24;-9676.053;0.05199824;0.0696445;0;
-23006.46;-14664.69;1233.138;-25060.11;3.757649;0.4427389;-22993.97;-10705.82;0.1818807;0.06957453;0;
-17377.94;-9944.261;-940.821;-19255.42;0.6733904;0.8441916;-17336.18;-7148.942;0.1167306;-0.1253974;0;
-26034.31;-18041.05;-2885.257;-27901.75;-5.020713;3.120763;-25930.62;-12514.06;0.05164595;0.004663276;0;
-3951.8;-2205.969;-3185.69;-5300.344;1.815858;-3.379595;-3928.473;-2224.4;-0.07834063;0.264528;0;
21772.74;15344.52;-2446.344;22886.8;9.248774;-8.265831;21796.98;11152.25;-0.07826191;0.3292295;0;
21266.86;13746.6;-1212.301;23418.15;-2.683238;-2.899013;21329.85;10330.11;0.1167187;0.00406198;0;
19782.74;13109.54;1050.967;21569.07;-10.249;-2.226332;19806.24;9666.2;0.1815688;-0.06090944;0;
23153.06;15575.48;3068.646;25156.54;-1.062653;3.000513;23200.63;11841.34;0.2463537;-0.1258156;0;
11925.5;8219.769;3400.083;12999.45;2.555737;8.35601;11812.74;5521.287;0.5709429;0.06921286;0;
-18929.38;-13473;2618.62;-19799.88;2.553169;8.749512;-19055.76;-9871.011;0.4404345;0.5239147;0;
-23423.23;-15008.71;1242.054;-25480;5.096199;12.96052;-23424.63;-10972.78;-0.07974677;0.1335842;0;
-17302.51;-9786.326;-898.8996;-19200.18;5.425871;11.005;-17284.15;-7018.912;-0.2745687;-0.3862887;0;
-25892.44;-17909.25;-2842.175;-27766.99;6.358424;9.386347;-25800.34;-12303.18;-0.07939075;-0.1260312;0;
-4155.081;-2453.513;-3154.63;-5496.898;8.294418;13.39589;-4131.681;-2299.016;-0.1442783;0.1339648;0;
21708.17;15250.94;-2416.657;22824.41;9.960047;13.5164;21730.55;11077.06;-0.2091007;0.06886283;0;
21198.79;13686.96;-1209.257;23350.73;8.610868;15.98106;21260.08;10251.43;-0.01398856;0.06879364;0;
19462.92;12788.65;1028.022;21252.18;5.520758;17.97449;19484.95;9358.728;-0.07894184;-0.06121017;0;
22835.77;15260.94;3044.444;24836.16;9.533698;15.07617;22876.25;11503.37;0.1810068;0.003818677;0;
11572.67;7988.258;3388.21;12615.9;10.99799;14.86007;11458.61;5345.538;0.375727;0.1337495;0;
-19448.03;-13882.34;2624.313;-20345.94;7.570685;10.3574;-19571.29;-10205.25;0.1804474;-0.06128689;0;
-24036.87;-15561.65;1242.588;-26080.16;8.835876;6.663055;-24028.8;-11337.57;0.1152988;-0.5159967;0;
-17912.13;-10336.1;-909.1422;-19789.04;-0.7511961;6.053514;-17864.8;-7256.329;-0.1446864;-0.4505109;0;
-26312.95;-18313.39;-2843.053;-28205.31;-7.649317;3.703029;-26208.54;-12685.1;-0.07957372;0.06968052;0;
-4279.786;-2534.519;-3163.19;-5675.344;-6.10139;4.771035;-4267.926;-2500.438;0.1154083;0.1995452;0;
21592.23;15164.13;-2447.432;22681.62;-8.908298;5.302104;21611.45;10992.64;-0.1445771;0.004442661;0;
20966.1;13443.6;-1238.252;23126.38;-5.148303;5.162811;21026.1;10018.54;-0.1444318;-0.3203985;0;
19328.18;12656.4;1011.175;21118.06;-3.401818;5.023658;19348.79;9223.248;-0.07931933;-0.1251746;0;
22776.17;15202.16;3030.425;24768.42;0.6210644;8.099825;22819.75;11442.25;-0.2091743;-0.1900161;0;
11308.12;7701.821;3366.303;12315.82;5.308514;10.77088;11188.6;5171.619;-0.2089641;-0.1898252;0;
-19975.75;-14451.88;2598.742;-20910.29;7.044492;10.49213;-20109.35;-10554.69;-0.3386889;0.265137;0;
-24512.82;-16038.19;1228.756;-26540.16;12.93191;12.82599;-24520.82;-11658.26;-0.4682832;-0.1249335;0;
-18376.34;-10806.15;-921.6174;-20226.17;7.627632;8.861106;-18358.14;-7681.18;-0.5977474;-0.2547427;0;
-26967.39;-18972.14;-2852.299;-28846.16;3.131989;5.302229;-26870.52;-13223.88;-0.01244067;0.005382667;0;
-4696.539;-2882.576;-3137.788;-6074.512;9.425482;7.842253;-4670.085;-2632.623;0.3124085;-0.1245574;0;
21632.12;15242.07;-2394.272;22725.24;9.683455;6.293766;21651.71;11116.53;-0.3375788;-0.05946493;0;
21072.51;13536.25;-1195.468;23220.87;12.28667;8.832671;21128.53;10068.88;-0.2073049;0.07052951;0;
19279.29;12613.38;1027.772;21065.04;15.8243;11.70406;19299.27;9203.214;-0.01219458;0.2003933;0;
22743.28;15166.08;3044.257;24733.91;9.645478;5.529994;22781.6;11398.26;-0.142117;-0.1246447;0;
11461.87;7830.532;3399.549;12458.75;6.822748;1.639549;11336.19;5220.302;0.1178952;-0.1894868;0;
-19737.83;-14227.55;2641.825;-20690.67;4.270297;2.709629;-19877.31;-10476.85;0.2477114;0.005605581;0;
-24229.32;-15763.3;1286.663;-26284.17;-0.75686;3.24277;-24242.01;-11545.94;-0.07737423;0.005599949;0;
-17897.68;-10314.4;-842.6854;-19771.83;2.324383;-2.587943;-17879.48;-7249.07;-0.2721985;0.135529;0;
-26302.73;-18321.14;-2772.524;-28197.68;5.537229;-7.809889;-26213.96;-12645.16;-0.2069577;-0.1894439;0;
-4221.901;-2507.94;-3074.679;-5610.166;-1.903075;-4.519939;-4208.619;-2423.964;-0.6615211;-0.4491229;0;
21681.07;15229.57;-2357.042;22775.44;-4.847924;-4.046517;21701.23;11062.8;-0.595889;-0.2537696;0;
21038.38;13522.28;-1168.927;23196.74;-3.704952;-4.2434;21097.97;10091.12;0.3142525;-0.05861258;0;
19418.73;12748.73;1059.91;21207.29;-6.781713;-2.430658;19439.61;9313.307;0.1190347;0.071381;0;
22761.87;15185.19;3065.773;24756.85;2.401153;-5.375403;22801.36;11429.4;-0.465791;-0.3834621;0;
11239.72;7715.518;3425.135;12279.17;7.221512;-7.446412;11122.23;5143.034;0.05441577;-0.1881748;0;
-19864.04;-14242.14;2690.281;-20756.12;9.826224;-4.424759;-19982.55;-10445;0.3142304;0.4616877;0;
-24314.49;-15864.6;1331.665;-26322.05;16.24671;-2.812783;-24316.4;-11525.63;0.18398;0.3312891;0;
-18119.13;-10599.02;-801.5078;-19959.49;10.87175;-3.546709;-18102.76;-7464.493;0.05386049;0.2010216;0;
-26665.23;-18632.92;-2738.931;-28542.47;11.66511;-2.806394;-26562.86;-12900.24;-0.01116097;0.07088488;0;
-4719.185;-2829.362;-3061.516;-6112.126;5.825265;-3.808257;-4689.272;-2603.354;0.05381758;-0.1240884;0;
21411.35;15055.54;-2334.944;22490.66;-0.1414586;-4.742191;21427.78;10924.59;-0.01120384;-0.05899634;0;
20979.38;13435.16;-1144.445;23129.46;2.872793;-2.661016;21032.08;9971.46;0.2486768;0.006030283;0;
19253.02;12594.37;1071.311;21041.18;-1.819142;-1.117735;19271.18;9177.287;0.4433289;-0.1888778;0;
22824.34;15249.54;3096.872;24806.9;12.18248;-1.317561;22859.24;11479.39;0.1830141;-0.05875333;0;
11460.4;7844.842;3461.044;12435.37;28.44624;-0.3114928;11334.57;5265.847;0.3127649;0.3311098;0;
-19978.08;-14432.94;2705.164;-20946.92;15.55694;-0.5791116;-20124.69;-10610.53;0.3124506;-0.059027;0;
-24195.79;-15785.33;1363.931;-26259.44;13.39883;-2.588018;-24238.09;-11628.77;0.05226732;-0.123935;0;
-17637.45;-10112.97;-746.4423;-19536;20.61903;3.509969;-17654.46;-7284.125;-0.01275254;0.1360589;0;
-26318.46;-18349.11;-2682.797;-28236.5;15.3734;7.726244;-26255.28;-12764.05;0.05222762;-0.05897987;0;
-4271.771;-2614.623;-3003.235;-5677.391;35.58607;4.972181;-4278.302;-2474.076;0.05217514;0.2659161;0;
21712.98;15248.92;-2292.183;22798.61;41.37844;5.235116;21720.65;11088.44;0.1820574;0.5904856;0;
21039.16;13533.25;-1112.081;23188.11;52.85743;2.617644;21089.08;10074.58;0.3118092;0.2650556;0;
19475.04;12804.98;1111.794;21248.13;81.13774;-0.7340719;19483.66;9370.276;-0.01334087;-0.1250148;0;
22883.58;15309.17;3126.008;24863.14;29.21215;0.2043658;22912.61;11541.03;-0.2731968;-0.4497259;0;
11479.18;7918.935;3484.685;12456.9;-1.226719;-0.1977371;11326.87;5234.254;0.05191439;-0.3193393;0;
-19367.54;-13761.29;2743.773;-20361.16;6.946187;-3.211648;-19564.91;-10161.16;0.3766989;-0.05914908;0;
-23428.04;-15051.52;1395.505;-25556.16;-8.265064;-4.213165;-23512.55;-11106.58;0.1164511;-0.1890243;0;
-17124.06;-9658.272;-730.7359;-19092.26;4.134473;-7.491035;-17178.69;-6942.85;-0.27347;0.2009697;0;
-25783.42;-17785.79;-2673.462;-27765.18;5.469489;-11.63633;-25775.43;-12313.53;-0.1432605;0.2657351;0;
-4020.532;-2322.292;-3002.75;-5480.704;14.17153;-7.404832;-4076.644;-2343.85;0.1167528;-0.124336;0;
21576.21;15121.52;-2298.991;22644.06;27.55388;-5.99075;21566.77;10923.35;0.1166355;-0.2541457;0;
20738.02;13220.29;-1145.713;22875.66;20.0241;-5.448867;20778.69;9777.386;-0.2083184;0.1359137;0;
18929.65;12266.44;1042.745;20707.33;24.96048;-3.166034;18924.13;8806.372;-0.1431418;0.3306791;0;
22448.31;14870.61;3058.934;24415.11;15.4919;-4.837426;22467.78;11098.13;0.1168714;0.2653795;0;
11243.23;7664.437;3436.825;12109.42;8.040618;-3.492906;11068.89;5028.652;0.05178664;0.3300802;0;
-19584.57;-13998.27;2711.89;-20670.21;11.58251;-6.10167;-19823.49;-10284.58;0.1816693;0.1348465;0;
-23095.07;-14879.68;1385.081;-25280.26;10.09798;-7.502181;-23236.84;-11004.54;-0.14335;-0.06019101;0;
-16247.02;-8962.77;-731.1227;-18304.99;8.948759;-5.217284;-16375.29;-6555.834;-0.1432059;-0.1250979;0;
-25317.31;-17347.95;-2679.877;-27351.82;4.921279;-5.078075;-25381.04;-11980.56;-0.01312734;-0.3198742;0;
-4157.513;-2464.461;-3020.137;-5656.762;13.35545;-0.7861264;-4259.559;-2368.023;-0.2729835;0.07025126;0;
21414.64;14949.73;-2321.233;22451.86;17.2268;0.6212441;21387.93;10752.57;0.1170948;0.3950174;0;
20684.32;13188.12;-1151.269;22819.01;20.49202;6.916893;20716.98;9718.706;0.05200982;0.2646858;0;
18928.99;12247.27;1063.15;20688.69;28.84417;12.33544;18911.86;8797.524;-0.4028138;0.4593219;0;
22440.55;14872.75;3079.724;24399.49;17.62941;11.78718;22449.43;11063.37;-0.207507;0.06905628;0;
11046.92;7531.457;3433.981;11910.33;12.11934;15.25833;10850.89;4970.747;0.3124402;0.1339542;0;
-19837.94;-14221.04;2688.747;-20966.33;12.17353;9.616551;-20122.54;-10446.45;0.3770936;0.588591;0;
-23642.18;-15239.34;1330.258;-25863.42;8.343882;6.525796;-23829.23;-11300.27;0.1818127;-0.06167381;0;
-17401.54;-9895.676;-819.5607;-19467.52;9.072432;5.380529;-17556.8;-7192.618;0.2465973;-0.1265792;0;
-26288.57;-18261.12;-2758.309;-28332.45;8.661175;2.361012;-26368.51;-12762.73;-0.07848718;0.1983847;0;
-4389.929;-2593.587;-3068.443;-5888.139;8.182981;2.492606;-4503.612;-2587.621;-0.403245;-0.1916187;0;
21470.08;15052.93;-2347.736;22505.16;7.639871;-1.461831;21433.88;10845.87;0.2468336;-0.2563935;0;
20775.08;13254.89;-1157.818;22909.54;11.04747;5.840595;20798.79;9796.492;0.5714223;-0.06123383;0;
19088.1;12418.89;1062.699;20843.56;12.57759;9.85358;19062.49;8942.417;-0.01385798;-0.0611723;0;
22590.47;15022.85;3071.933;24553.68;16.44971;10.71446;22594.02;11225.73;-0.1437787;-0.2560129;0;
10990.52;7506.898;3417.609;11898.55;20.78647;18.33962;10775.17;4954.443;0.1162351;-0.1258209;0;
-20531.43;-14890.92;2661.553;-21639.11;18.55575;6.465461;-20852.99;-11110.45;0.1810856;0.004240177;0;
-24751.31;-16328.25;1301.748;-26935.73;20.34577;-0.5070776;-24962.97;-12038.3;0.245871;-0.3855681;0;
-18233.87;-10710.48;-838.2036;-20244.14;14.4972;4.650935;-18404.39;-7619.086;0.3105913;-0.1253113;0;
-26964.53;-18956.52;-2775.247;-29016.21;8.521764;3.440691;-27060.26;-13294.67;0.05040987;0.524488;0;
-4832.391;-3046.307;-3077.461;-6337.473;12.86648;7.52307;-4955.353;-2787.553;-0.2744775;0.1991243;0;
21543.55;15122.94;-2346.188;22581.58;14.46114;9.256946;21502.36;10995.26;-0.07929967;-0.06094518;0;
20980.37;13460.52;-1153.991;23096.23;10.09333;13.19964;21003.12;9944.39;-0.01425264;0.06905074;0;
19271.88;12605.33;1074.268;21021.23;5.796283;17.87506;19246.45;9163.176;-0.5989444;0.004014018;0;
22691.41;15120.97;3074.339;24644.51;12.28719;17.52218;22694.81;11305.61;-0.2735059;0.06897733;0;
11046.69;7544.214;3406.238;11916.68;17.16497;21.05455;10834.13;4950.575;0.3764424;0.2638101;0;
-20169.62;-14541.75;2650.943;-21308.29;13.93254;16.94756;-20489.66;-10836.33;-0.208642;0.263545;0;
-24646.2;-16163.65;1275.219;-26826.14;16.32944;14.25121;-24857.29;-11855.34;-0.338367;0.06837813;0;
-18674.23;-11094.68;-880.4478;-20662.23;12.0271;15.3756;-18841.5;-7848.671;0.1167444;-0.3214946;0;
-26864.09;-18859.48;-2807.36;-28924.77;5.985816;11.60923;-26961.94;-13363.46;-0.0133076;-0.1262696;0;
-4371.097;-2556.905;-3103.311;-5922.457;16.83079;17.75987;-4497.301;-2650.834;0.1816078;0.198694;0;
21523.66;15136.41;-2366.858;22542.89;22.44094;21.15803;21488.21;10965.17;0.5712293;0.3284291;0;
20968.72;13445.22;-1144.046;23102.14;20.20758;18.79237;20998.27;9966.793;0.5706554;0.4580337;0;
19436.75;12770.51;1118.935;21189.54;20.99156;22.32358;19415.77;9310.666;0.3102126;0.3926062;0;
22821.07;15253.92;3128.363;24785.42;20.09981;13.45965;22831.27;11453.03;-0.2098378;0.06737495;0;
