Fp1;Fp2;O1;O2;POLY3;POLY4;A1;A2;Video;Audio;event;
-841.6757;-166.2402;569.7792;-781.3771;-4.768786;24.65421;-1303.547;-233.5122;0.1136928;0.1390301;0;13:17:08 Рука;
-24930;-18864.38;337.1359;-28585.21;-9.720488;25.9691;-26397.53;-14162.31;0.178546;0.008955725;0;
-18236.23;-12505.38;-11.23105;-22339.69;-9.644348;27.34964;-19471.72;-8291.63;-0.1464702;-0.31589;0;
-23268.02;-17364.31;-47.68581;-27213.97;-9.567308;23.97301;-24461.7;-12515.19;-0.2112903;-0.3805399;0;
-18977.33;-14125.78;-280.1773;-23143.81;-11.09794;23.34608;-19995.65;-10915.96;0.2436934;0.009646501;0;
14324.43;12554.59;-449.7322;14285.36;2.308825;20.77739;14655.92;9881.064;-0.01642086;-0.05533053;0;
26517.91;20364.29;-213.9924;31374.08;6.124898;18.21116;28063.86;16049.16;-0.0813717;-0.1852096;0;
22965.45;17469.83;80.77772;27758.45;3.506776;21.34106;24368.83;13743.48;0.1136121;-0.1850235;0;
24867.4;19162.59;112.7586;29649.33;6.784806;21.52057;26319.1;15237.28;0.1134979;-0.3147723;0;
24134.84;18884.38;251.8878;28390.67;-0.7240998;14.33189;25339.84;14921.09;0.5681553;-0.4443907;0;
-1267.972;-494.5728;555.7787;-1212.398;-2.129892;12.576;-1729.063;-526.9384;0.2427477;-0.1840748;0;
-25889.91;-19796.76;314.1851;-29543.44;1.422222;14.70675;-27342.32;-14941.93;-0.5371043;-0.1189225;0;
-19335.35;-13626.59;-50.82226;-23496.43;-0.9901049;14.08913;-20553.77;-8970.003;-0.2117279;-0.1837703;0;
-24139.8;-18244.05;-91.25085;-28112.34;10.3304;16.21843;-25315.24;-13172.11;0.04835417;0.01131633;0;
-19886.14;-14989.1;-300.2728;-24125.25;14.07106;16.47006;-20897.17;-11639.46;-0.1465964;-0.05366238;0;
13686.95;11980.13;-449.068;13481.83;0.05809823;16.85541;14001.67;9515.15;-0.01651446;-0.2485105;0;
26263.2;20115.23;-205.6452;31069.69;-1.081036;16.90546;27800.77;15781.42;0.2433715;-0.4431628;0;
22608.04;17112.02;87.38303;27416.35;-1.482091;16.88847;24014.04;13385.04;-0.08170974;-0.3127828;0;
24579.41;18872.39;105.2393;29358.22;-3.824151;17.54121;26031.43;14947.8;-0.4714317;-0.2475012;0;
23834.4;18614.26;238.0199;28018.63;5.690536;10.28967;25026.22;14672.96;0.1137481;-0.2472525;0;
-2006.568;-1170.926;550.8265;-2105.753;8.766277;8.068894;-2493.561;-1089.028;0.3085358;-0.1820367;0;
-26786.77;-20676.6;300.0707;-30471.29;0.3847242;9.333462;-28226.15;-15685.64;-0.08157826;-0.1168865;0;
-20392.01;-14693.98;-62.25197;-24493.75;-1.022182;7.515605;-21570.86;-9696.354;0.1783731;-0.05180169;0;
-25322.64;-19449.81;-74.02722;-29285.23;9.561417;10.38826;-26485.51;-14162.38;0.3730959;-0.116717;0;
-20531.28;-15579.57;-292.7023;-24745.78;11.09303;10.10989;-21540.12;-12300.93;0.04788427;0.07830232;0;
13567.98;11966.08;-453.2804;13415.65;10.74611;10.03275;13888.18;9486.716;0.04783616;0.07822365;0;
26250.05;20113.56;-194.2674;31072.63;13.28091;10.08965;27786.39;15780.67;0.3726248;-0.311659;0;
22558.93;17050.13;98.82743;27357.87;1.545917;7.534221;23965.25;13318.51;0.112381;-0.2463785;0;
24524.07;18829.85;117.0002;29296.32;-1.402397;7.325702;25977.19;14909.54;-0.01766658;-0.1161963;0;
23756.01;18526.4;254.8602;27934.99;3.621878;0.6201697;24946.91;14593.62;0.1772532;-0.1810468;0;
-2256.627;-1423.122;559.5446;-2349.655;1.876927;-2.729478;-2736.882;-1174.048;-0.01782694;-0.375767;0;
-26722.64;-20610.84;294.9275;-30400.44;6.430368;4.440255;-28158.65;-15645.47;-0.1477437;-0.4403567;0;
-19517.07;-13799.78;-79.10283;-23617.63;7.093492;5.239589;-20705.95;-9183.066;-0.08262791;0.2097592;0;
-24055.26;-18132.95;-88.19061;-28026.18;4.273325;-0.1241885;-25228.08;-13040.33;-0.2124796;0.4694178;0;
-19462.84;-14631.65;-283.0977;-23677.01;4.067961;-0.4589784;-20465.81;-11380.03;-0.3422008;0.2090767;0;
14105.99;12293.38;-431.2855;13972.24;2.858424;-0.1236025;14442.72;9741.921;-0.2768896;0.01396462;0;
26383.56;20221.6;-177.1828;31205.69;3.256718;-0.6593418;27923.94;15894.88;-0.08170932;-0.1809514;0;
22648.7;17165.82;123.1256;27441.47;-4.984601;2.154543;24049.75;13431.14;-0.2115619;-0.05083493;0;
24573.96;18864.45;144.6785;29349.38;-8.061051;2.487293;26023.3;14941.55;-0.2763167;-0.1157512;0;
23703.23;18489.69;279.2935;27903.21;-3.230181;2.752725;24893.97;14553.11;0.113765;0.1442345;0;
-2000.823;-1147.03;584.6249;-2068.9;-5.57146;2.816942;-2483.076;-995.3585;0.4384874;0.1440896;0;
-26113.16;-20001.7;330.9615;-29801.18;2.940605;0.1348554;-27572.31;-15062.24;0.3081121;-0.5057286;0;
-19464.89;-13754.96;-40.41887;-23566.48;5.148453;-1.204939;-20679.09;-9076.856;-0.08200149;-0.0504491;0;
-24491.5;-18566.89;-79.53045;-28443.41;-2.559879;-3.749018;-25671.73;-13463.85;-0.0819191;0.404373;0;
-19536.4;-14695.31;-283.676;-23753.91;-1.351858;-6.290542;-20553.15;-11465.01;-0.01686944;0.1440973;0;
14156.35;12367.05;-435.4864;14012.86;-13.33959;-6.083272;14475.03;9794.672;-0.6015586;0.2089199;0;
26288.72;20138.4;-204.9926;31116.85;-17.2783;-7.215869;27827.22;15808.72;-0.5359868;0.01380791;0;
22626.64;17138.44;98.67024;27426.73;-7.481677;-12.36618;24030.54;13406.29;-0.1456442;0.2086961;0;
24554;18849.74;120.3258;29326.83;-7.139367;-14.22922;26002.44;14926.42;-0.08053048;-0.1163504;0;
23774.12;18552.55;248.4842;27993.71;-2.1757;-14.08095;24967.1;14600.17;-0.01548222;-0.5060375;0;
-1827.87;-989.527;578.1312;-1851.886;0.7068744;-14.93752;-2308.662;-913.7206;-0.1454013;0.2740791;0;
-26298.4;-20177.54;315.3695;-29968.02;0.5050933;-11.57349;-27745.24;-15246;-0.4051246;0.4037384;0;
-19690.05;-13965.49;-93.47638;-23796.73;1.844733;-9.552433;-20872.62;-9177.837;-0.07988083;0.273398;0;
-24446.91;-18520.85;-110.2334;-28397.19;5.660296;-13.8966;-25604.83;-13336.47;0.1800688;0.403058;0;
-19719.92;-14893.83;-292.7495;-23932.92;7.999133;-14.35152;-20723.09;-11620.07;0.04995318;0.207751;0;
14025.52;12220.98;-451.11;13874.12;1.158592;-5.026656;14357.29;9685.31;0.439707;-0.1172945;0;
26447.46;20297.88;-195.8317;31270.35;1.023706;-1.806546;27985.56;15971.23;0.4392652;-0.3120787;0;
22730.68;17241.83;119.3942;27533.82;-2.594645;-5.756602;24133.61;13502.99;-0.08091489;0.07803896;0;
24698.65;19001.26;142.169;29461.06;-5.002935;-4.746074;26148.07;15096.24;-0.08083359;0.4027973;0;
23976.17;18737.79;273.382;28240.22;4.848705;-3.669639;25180.44;14759.42;-0.4055891;-0.05237887;0;
-1485.434;-682.7031;560.9782;-1434.648;6.651518;-3.531986;-1936.462;-668.3519;-0.1453122;-0.2472283;0;
-25606.66;-19501.1;299.3114;-29270.76;9.592572;-0.8491806;-27046.42;-14636.24;0.04973586;0.07785686;0;
-19218.91;-13502.33;-44.5354;-23319.37;13.66877;0.1564166;-20421.72;-8848.136;-0.2751508;0.07777863;0;
-24229.37;-18288.74;-60.15466;-28181.31;6.019225;-1.987194;-25402.63;-13219.09;0.3098317;0.07770047;0;
-18972.43;-14234.83;-269.0673;-23187.87;4.606658;-2.454017;-19973.05;-11101.58;0.3095204;0.2725244;0;
14642.46;12675.63;-416.8944;14550.69;14.58236;-0.1072098;14992.31;10018.4;-0.01562731;0.337218;0;
26361.66;20187.64;-171.8953;31204.62;15.70581;0.2947955;27908.14;15885.27;0.3092251;0.2069444;0;
22724.48;17255.35;114.7428;27507.31;14.14979;-1.112142;24124.52;13513.24;-0.4057264;0.07680179;0;
24787.52;19076.42;125.6064;29547.38;15.47474;-1.378956;26237.72;15186.13;-0.6002207;-0.05321006;0;
23987.29;18761.21;263.1922;28237.64;4.942994;-1.779469;25188.48;14746;0.1150231;-0.1830913;0;
-1152.729;-318.8417;571.5538;-1133.683;0.5847464;-2.648398;-1613.624;-505.592;0.1798749;-0.312842;0;
-25117.82;-18992.6;309.7983;-28813.49;7.080893;-0.7702754;-26556.71;-14252.27;0.1147268;0.0772764;0;
-18749.72;-13029.01;-54.93914;-22866.46;4.662881;-0.2336379;-19941.83;-8463.287;-0.2102251;0.4020355;0;
-23585.62;-17638.15;-71.81293;-27559.21;3.184327;-2.309813;-24760.92;-12603.74;-0.3399486;0.01182745;0;
-18524.65;-13834.51;-288.8192;-22769.15;0.8366027;-1.436775;-19535.14;-10601.86;-0.2746397;-0.1181191;0;
14754.95;12734.34;-470.8123;14636.28;-1.240343;-6.458929;15093.75;10129.45;-0.07946169;0.1418689;0;
26561.05;20392.91;-228.1016;31389.15;-1.372818;-8.595832;28100.23;16077.88;0.3753895;0.07675904;0;
22879.86;17407.96;103.8983;27664.56;-14.29853;1.058103;24278.29;13660.91;0.115143;-0.1831875;0;
24826.05;19123.27;136.3244;29576.13;-16.42762;2.061784;26271.24;15249.24;-0.1448421;-0.118036;0;
24195.86;18936.35;257.236;28484.65;-21.23389;4.471037;25403.5;14881.12;-0.01476186;-0.0529501;0;
-657.1573;89.47723;568.9457;-571.2261;-26.10267;8.016579;-1114.287;-155.387;0.1151877;-0.1178642;0;
-24290.79;-18174.84;319.9052;-27977.64;-5.713631;-3.780228;-25749.83;-13587.4;0.05010457;-0.2476805;0;
-17856.6;-12113.49;-40.48529;-21971.16;-3.028572;-5.651891;-19074.39;-7861.323;-0.5996192;-0.3773663;0;
-22719.79;-16767.6;-44.66124;-26702.02;1.662544;-1.560375;-23920.75;-11916.71;-0.4041147;-0.05215041;0;
-17618.1;-12971.24;-237.332;-21794.18;7.220579;-3.032371;-18630.11;-9933.602;0.3758995;0.5326081;0;
15189.1;13082.3;-377.0857;15228.59;-11.60827;3.668786;15553.92;10275.2;-0.01428226;0.1422689;0;
26509.5;20326.43;-130.8616;31381.76;-16.21831;5.27269;28057.23;16041.22;-0.2741373;-0.3126455;0;
22961.04;17503.55;145.4436;27722.08;-12.11617;0.7795968;24354.18;13756.9;-0.0789598;0.1424401;0;
24934.15;19228.99;148.8425;29684.93;-14.91704;0.1090452;26378.67;15338.77;0.1160216;-0.05260511;0;
24181.75;18920.66;271.147;28500.05;-21.6672;0.8456869;25391.52;14878.33;0.4407417;-0.2474543;0;
-397.7086;330.421;582.9053;-256.048;-23.92261;0.3760176;-854.845;-33.52045;0.5052662;0.01266373;0;
-24007.14;-17906.43;343.627;-27697.92;-27.71696;-3.107412;-25483.5;-13344.42;0.1799218;-0.05231633;0;
-18058.06;-12311.63;-24.62707;-22191.92;-29.83257;-3.774119;-19287.1;-7972.581;0.1147736;0.01270358;0;
-23467.69;-17508.36;-53.24417;-27418.4;-21.02771;-7.990129;-24656.03;-12625.6;0.3095604;-0.05227653;0;
-18586.35;-13936.57;-267.8484;-22807.35;-19.06419;-9.589691;-19613.68;-10739.31;-0.08055475;-0.247126;0;
14791.78;12695.63;-432.1372;14712.15;-13.15054;-6.833816;15120.23;10042.32;-0.4702778;-0.05197569;0;
26586.99;20413.52;-170.6623;31423.31;-8.850418;-7.563701;28126.68;16107.32;0.04993341;0.1429786;0;
22852.19;17396.82;146.022;27625.01;-11.11968;-0.3891099;24248.93;13656.22;0.3097526;0.01290021;0;
24820.26;19109.4;152.7155;29566.54;-8.96505;1.955623;26266.63;15228.56;-0.01539535;-0.1170474;0;
24111.04;18881.02;281.4973;28391.75;-11.70173;0.1451795;25303.43;14837.01;0.2444895;0.0779722;0;
-714.2375;96.09012;602.2874;-640.7275;-12.56063;1.886529;-1194.75;-224.7139;0.1792765;-0.1170082;0;
-24355.59;-18219.29;342.3126;-28065.02;-11.20884;-4.344657;-25816.22;-13612.79;-0.1457404;-0.4417273;0;
-18245.05;-12505.2;-24.53461;-22384.86;-13.00624;-6.215753;-19448.15;-8056.944;0.0493081;-0.1814141;0;
-23368.07;-17407.23;-47.1236;-27367.71;-9.242125;-2.190592;-24543.25;-12452.4;0.04925856;-0.1162645;0;
-18139.55;-13482.76;-275.5395;-22383.72;-8.161111;-2.38934;-19148.81;-10380.55;0.1141764;-0.0511803;0;
14976.24;12892.35;-428.6231;14922.83;-15.85607;-3.190734;15321.2;10171.12;0.179029;0.3386752;0;
26414.72;20245.02;-162.8102;31257.71;-16.5761;-2.249767;27958.64;15949.22;0.1788491;0.3383349;0;
22814.72;17360.38;137.4838;27569.12;-16.02358;-4.993746;24212.47;13625.89;0.04873474;0.2080602;0;
24809.75;19100.3;153.2595;29551.99;-15.60631;-5.25666;26258.01;15216.41;-0.08124891;0.1428838;0;
23844.27;18623.33;279.0422;28098.65;-12.57652;0.8438858;25042.44;14596.87;0.1137348;0.07777292;0;
-938.998;-124.3314;585.0454;-947.1222;-11.15736;2.919509;-1412.012;-288.5833;0.1785878;0.2725968;0;
-24046.75;-17916.4;350.4502;-27836.39;-4.313649;3.251429;-25512.15;-13321.59;0.2433757;0.07742086;0;
-17715.96;-11974.1;-5.488848;-21894.88;-1.697346;4.587821;-18928.17;-7836.091;0.3730659;-0.312461;0;
-23008.24;-17040.67;-35.20277;-27033.41;3.931414;5.922808;-24188.83;-12220.12;0.177789;-0.05227765;0;
-17966.47;-13279.38;-239.8614;-22182.64;7.410088;6.318755;-18963.5;-10176.24;0.2425777;0.337579;0;
15002.38;12943.75;-388.6392;15007.8;1.575493;6.915252;15375.79;10184.06;0.04743189;0.01240302;0;
26493.61;20316.71;-141.529;31342.8;1.171769;6.774337;28045.81;16039.19;-0.2774525;-0.05257678;0;
22789.65;17335.52;149.0298;27540.96;-0.3696502;3.351462;24183.35;13593.79;-0.4720757;0.2723128;0;
24719.93;19013.76;152.3626;29455.28;-1.441006;1.673582;26169.15;15145.28;-0.3416667;0.07713711;0;
24080.01;18861.22;275.9911;28366.33;-6.262329;-1.543219;25280.01;14807.95;0.2433827;-0.05287509;0;
-670.4796;175.0139;584.4023;-560.7416;-8.935353;-4.153942;-1130.675;-182.6862;-0.1466659;0.01214539;0;
-23965.17;-17821.71;343.1861;-27693.49;-6.045987;-3.546921;-25426.22;-13346.48;-0.4713552;0.4019372;0;
-17402.44;-11657.53;-11.6212;-21586.85;-7.848574;-4.481119;-18625.64;-7531.079;0.1138244;0.7263701;0;
-22527.65;-16543.37;-26.39897;-26534.91;0.5994062;-6.88794;-23717.8;-11743.33;-0.2111266;0.5957056;0;
-17665.36;-13078.55;-216.074;-21900.25;4.081429;-7.215873;-18693.96;-9959.341;-0.2109145;0.1403356;0;
15063.47;12873.92;-362.0021;15022.66;-6.773664;-8.414315;15402.53;10133.82;0.1141341;-0.3145768;0;
26420.82;20242.74;-130.9731;31258.13;-7.637514;-9.343622;27967.55;15959.38;-0.01591522;-0.1843261;0;
22833.28;17395.18;128.2626;27584.54;-5.352664;-2.569079;24227.33;13658.01;0.1140355;0.01076118;0;
24804.04;19086.81;130.1328;29538.48;-6.01687;-0.4900878;26248.95;15219.15;0.1788882;0.0757177;0;
23930.06;18737.13;286.5952;28216.78;-4.001093;-2.632988;25123.54;14682.68;0.2436758;0.2055763;0;
-897.7089;-5.101931;590.4355;-786.2902;-3.997072;-0.8888473;-1366.833;-310.8422;0.438333;-0.119467;0;
-23821.97;-17656.29;318.9004;-27535.79;-3.725612;-5.308706;-25296.68;-13215.96;0.3079579;0.01058776;0;
-17335.41;-11591.24;-35.07043;-21483.84;-4.056662;-6.977945;-18572.6;-7580.402;0.04777906;0.3354138;0;
-22861.7;-16883.46;-43.93697;-26848.09;-2.311273;-0.406728;-24074.8;-12149.14;-0.4720077;-0.2496293;0;
-17585.92;-12979.06;-230.3928;-21797.96;-1.303597;-0.2723534;-18636.91;-10025.82;-0.6664354;-0.6391824;0;
15327.5;13177.87;-365.4059;15361.71;-6.728271;-1.678721;15675.11;10283.02;-0.08105972;-0.2487362;0;
26373.18;20202.63;-135.3729;31247.22;-6.988954;-2.346803;27927.46;15932.73;0.1139238;0.01138311;0;
22745.1;17303.65;134.0965;27485.29;-11.73833;-4.956718;24128.01;13588.31;-0.2110274;0.07633901;0;
24672.14;18962.25;144.1285;29426.35;-15.20916;-6.358379;26117.43;15055.7;-0.2757827;0.01129496;0;
23852.07;18644.55;276.0111;28082.35;-3.070088;-11.91145;25037.71;14665.8;0.1142984;-0.05368373;0;
-1312.864;-500.746;591.1221;-1309.901;-1.191969;-15.24851;-1814.148;-623.2241;0.1791509;0.3361743;0;
-24962.52;-18829.04;356.5833;-28695.18;-5.20926;-13.89359;-26451.53;-14157.58;-0.2108331;0.1409345;0;
-18421.16;-12662.31;-12.41788;-22583.25;-4.266996;-14.95129;-19654.28;-8318.466;-0.2106213;-0.05410919;0;
-23928.53;-17978.94;-49.21502;-27906.63;-8.147474;-18.28536;-25119.63;-13055.05;-0.01550763;-0.05405482;0;
-19233.35;-14386.14;-262.8238;-23483.93;-9.211015;-18.80285;-20264.1;-11208.53;0.1144426;-0.1839352;0;
14134.04;12310.4;-428.5856;13990.41;-10.33986;-18.38206;14451.24;9645.447;0.2442623;-0.05381568;0;
26002.58;19849.61;-176.2035;30800.07;-12.13813;-17.82772;27535.93;15550.81;0.1790496;0.07617307;0;
22352.58;16894.79;114.9835;27099.56;-10.51834;-14.32682;23743.91;13190.71;-0.2109344;0.4009333;0;
24305.53;18592.81;114.743;29037.59;-11.31206;-12.50388;25747.92;14653.85;-0.08078778;0.4654977;0;
23223;18089.59;268.1912;27412.87;-9.894173;-9.27626;24397.95;14202.94;0.5689668;-0.1846434;0;
-2773.079;-1767.478;579.8899;-2833.844;-8.878877;-7.190469;-3286.367;-1664.937;0.2435584;-0.1844579;0;
-27073.87;-20913.69;299.3229;-30825.39;-13.69273;-6.111578;-28551.71;-15889.16;-0.4063597;0.1405642;0;
-21033.02;-15324.3;-81.11486;-25198.47;-14.14748;-5.167676;-22238.69;-10305.43;-0.2110494;0.3353249;0;
-26757.47;-20825.75;-114.7039;-30727.61;-13.06154;-4.090817;-27934.88;-15584.67;0.2439341;0.0101513;0;
-21415.42;-16496.68;-331.386;-25741.97;-13.92005;-2.814031;-22462.3;-13044.42;0.2436889;-0.5745649;0;
13199.67;11517.1;-479.5408;12909.68;-9.350734;-8.03575;13486.25;9253.113;0.04854206;-0.3790856;0;
25761.9;19625.29;-198.0908;30529.11;-8.739101;-8.161642;27284.5;15282.19;-0.01647405;0.141034;0;
21956.45;16481.38;123.1812;26728.04;-9.198835;-10.16287;23349.41;12771.65;-0.5361962;0.3357943;0;
23955.68;18253.03;141.9854;28702.38;-8.653728;-11.35835;25398.49;14315.92;-0.2757881;0.3354569;0;
22965.94;17835.65;287.3321;27046.32;-13.13301;-2.170457;24123.16;14002.2;0.3091951;0.1402178;0;
-3796.679;-2762.516;585.2216;-4030.841;-14.52633;0.3770139;-4333.994;-2266.632;-0.2108543;0.140077;0;
-28126.38;-21961.93;294.6856;-31876.57;-15.58347;2.185113;-29602.76;-16803.66;-0.08070777;0.07496884;0;
-20954.49;-15258.6;-81.34352;-25082.91;-17.0407;4.661225;-22164.68;-10297.14;0.1792427;0.1398609;0;
-26379.15;-20443.75;-105.156;-30351.53;-16.35399;6.398037;-27572.46;-15177.1;-0.1457741;0.2046877;0;
-21155.63;-16279.74;-327.5479;-25380.8;-16.27119;8.133164;-22184.03;-12970.24;-0.08066031;-0.05538737;0;
13484.8;11724.46;-459.7772;13335.07;-16.656;5.579701;13807.57;9316.912;-0.2105139;0.2045377;0;
25775.52;19622.92;-173.8493;30579;-15.56754;4.904266;27307.72;15292.87;-0.01540039;0.2043321;0;
21940.25;16477.01;118.0694;26690.94;-15.01603;4.832355;23326.91;12774.34;0.3094518;-0.3156119;0;
23964.69;18251.54;141.4389;28722.07;-14.19764;4.090687;25408.02;14290.69;-0.2105979;-0.1203928;0;
22705.2;17597.22;297.0779;26787.03;-8.356224;0.06772283;23860.27;13810.06;-0.08045159;0.07463023;0;
-4189.588;-3132.006;582.7138;-4433.751;-6.137025;-1.740884;-4743.229;-2617.109;0.3094333;-0.1203468;0;
-28853.67;-22689.71;297.74;-32596.59;-3.987404;0.136387;-30323.87;-17415.95;-0.5354531;-0.1202259;0;
-22363.05;-16654.89;-91.41061;-26490.31;-1.37143;0.002284057;-23527.81;-11398.54;-0.4049804;0.07479697;0;
-27850.2;-21923.81;-141.0438;-31822.02;-7.800413;0.4041794;-29013.31;-16535.53;0.5699367;0.2696238;0;
-22247.42;-17300.61;-347.5326;-26563.87;-10.33719;1.006559;-23287.27;-13783.46;0.17956;0.009483552;0;
12754.87;11118.48;-479.1483;12459.73;-2.423554;1.876325;13053.22;8978.922;-0.4702938;-0.3153627;0;
25444.05;19306.52;-198.4795;30210.16;-1.885255;2.410303;26968.8;14951.27;-0.08001726;-0.1851111;0;
21537.25;16071.78;121.9027;26306.21;-9.250751;3.479548;22930.66;12371.32;0.1149652;-0.1199578;0;
23523.38;17801.47;137.0382;28298.51;-10.11309;3.20818;24970.38;13829.33;-0.2099871;-0.05486991;0;
22284.56;17238.48;273.6911;26178.87;-14.12141;5.750247;23420.91;13523.27;-0.01487404;0.01015257;0;
-5560.065;-4362.707;573.9994;-6067.048;-15.2463;6.816135;-6126.985;-3576.462;0.569847;-0.1197923;0;
-30934.24;-24723.91;274.0418;-34652.05;-17.17336;0.1111763;-32364.37;-19301.03;0.4393397;-0.1196719;0;
-23965.3;-18248.47;-148.7555;-28031.85;-20.57138;-0.6257477;-25081.53;-12939.69;-0.01587313;-0.3794211;0;
-29543.26;-23647;-201.8605;-33479.92;-3.537781;-6.921331;-30681.15;-18216.88;-0.08082452;-0.3140725;0;
-24448.25;-19374.6;-422.6872;-28776.72;0.08309601;-11.6701;-25482.85;-15583.29;0.1141587;-0.1188549;0;
11478.18;10092.22;-566.5337;11030.28;-7.552798;1.603938;11761.86;8262.309;0.2439787;-0.3786048;0;
25168.54;19062.05;-260.821;29869.41;-6.60818;2.941985;26684.68;14690.32;-0.1460705;-0.508159;0;
21110.37;15626.88;81.17558;25899.89;-11.62441;-1.682733;22504.55;11917.33;-0.6656625;-0.1828118;0;
23117.42;17387.94;131.6155;27912.95;-11.94849;-0.2744005;24569.15;13401.92;-0.2751895;0.01227395;0;
21528.57;16565.81;287.0613;25153.51;-14.28004;-8.780774;22608.36;12922.06;0.309793;-0.05270573;0;
-7372.401;-5993.219;550.0936;-8274.878;-12.39065;-11.04931;-8039.697;-4956.582;0.3744491;0.01231457;0;
-33194.4;-26941.99;218.6447;-36913.12;-15.45966;-8.760849;-34623.74;-21454.06;-0.01573121;-0.05266514;0;
-26632.03;-20873.97;-247.3877;-30591.37;-14.84092;-10.56052;-27680.23;-15644.78;0.244154;0.2722245;0;
-32547.52;-26634.58;-326.6304;-36418.22;0.5793383;-4.2537;-33661.45;-21252.14;0.8286147;0.3369183;0;
-26820.8;-21642.75;-508.2577;-31224.86;2.119974;-2.440887;-27882.7;-17612.45;0.04817402;-0.05322429;0;
10203.61;9050.582;-617.6761;9457.861;34.13495;-5.854503;10456.23;7545;-0.6015478;-0.1181382;0;
24670.18;18594.79;-293.593;29240.14;48.90278;-4.575944;26174.28;14228.26;-0.2111393;-0.5078235;0;
20642.59;15136.08;58.7594;25461.77;18.31041;-7.116637;22034.92;11401.14;-0.08099248;-0.3773786;0;
22699.19;16967.95;118.3891;27497.21;18.96159;-7.243452;24155.86;12978.95;-0.2108458;0.4026088;0;
21042.78;16138.48;287.4976;24388.63;14.58926;-4.021115;22048.46;12543.87;-0.3405686;0.07736748;0;
-9082.244;-7549.458;549.3113;-10304.24;10.35504;-3.548194;-9848.439;-6356.865;-0.3402264;-0.1825796;0;
-35820.04;-29550.26;212.9126;-39524.02;18.11417;0.675235;-37257.81;-24041.93;0.04991951;-0.05246148;0;
-29007.42;-23281.57;-282.6774;-32999.65;16.82317;2.817949;-30062.08;-18113.04;-0.21;0.2074606;0;
-34841.48;-28956.37;-383.0459;-38711.46;24.71049;-0.266036;-35964.28;-23600.22;-0.404691;0.07731746;0;
-28983.79;-23742.12;-559.3221;-33515.66;25.95749;-0.935598;-30065.2;-19551.61;-0.07944769;-0.3125643;0;
9060.931;8071.557;-675.9825;7863.567;33.43349;2.280462;9258.665;6776.699;-0.2093025;-0.2472829;0;
24339.78;18296.76;-329.8831;28683.12;37.15094;1.206443;25821.95;13928.32;-0.2740596;-0.05213237;0;
20322.83;14802.74;42.83928;25078.22;27.93756;1.071265;21718.45;11049.8;-0.1438495;-0.1170473;0;
22462.89;16714.99;96.05071;27185.18;27.44;0.7353353;23922.69;12721.94;0.05119705;-0.1818971;0;
20441.07;15671.9;260.5746;23567.47;16.76251;-7.839036;21357.18;12102.23;0.1810803;-0.116747;0;
-10535.5;-8742.893;488.7604;-12042.34;10.78479;-9.639637;-11424.65;-7467.333;-0.01400368;0.01330504;0;
-37260.04;-30961.84;149.0804;-40996.52;15.99789;-16.99789;-38711.22;-25442.84;-0.07895695;0.01329167;0;
-30077.71;-24394.28;-303.6388;-34102.49;14.64265;-21.33464;-31137.86;-19250.43;0.05105706;-0.05168903;0;
-35864.95;-29982.57;-398.1454;-39778;7.25957;-11.26601;-37001.73;-24648.88;0.3108751;0.07829759;0;
-29933.61;-24657.69;-579.7007;-34519.15;4.439236;-11.05374;-31000.13;-20316.28;0.2455954;0.273121;0;
8445.284;7555.394;-681.6917;7107.596;13.87925;-7.157683;8655.431;6488.091;-0.4043248;0.2078792;0;
24150.42;18122.52;-321.8747;28369.08;16.14248;-4.538218;25630.93;13770.35;-0.5338532;0.337605;0;
20063.39;14532.39;52.71368;24636.5;10.29911;-8.887487;21459.03;10756.22;-0.2084801;0.07739639;0;
22142.51;16390.64;91.75044;26776.42;9.08331;-8.47666;23610.87;12405.28;-0.1433032;-0.05261607;0;
20088.58;15379;256.5285;23094.66;17.91544;-11.68326;20897.25;11813.76;-0.01322456;0.3372409;0;
-11721.69;-9813.206;504.5366;-13356.26;20.91155;-13.21207;-12727.87;-8505.243;0.5065275;-0.05290206;0;
-39034.34;-32727.82;151.1757;-42701.79;7.62865;-13.73466;-40462.57;-27204.04;0.3111165;-0.3776856;0;
-31712.1;-26040.58;-338.73;-35703.6;5.343809;-15.2614;-32758.38;-20896.62;0.1159018;0.07746528;0;
-37759.06;-31880.76;-423.3157;-41584.67;8.017756;-15.71495;-38888.82;-26543.44;0.5705568;0.0124201;0;
-31928.64;-26622.64;-586.4332;-36596.7;6.535832;-17.03876;-33002.41;-22222.6;-0.01472261;-0.1175271;0;
7470.578;6662.35;-702.1448;5855.081;10.34668;-14.00753;7608.303;5663.222;-0.8592833;-0.05244163;0;
23907.85;17895.01;-336.935;27790.61;11.00685;-12.92172;25360.56;13535.28;-0.5335831;-0.05238894;0;
19651.63;14118.13;52.44237;23595.86;10.5263;-17.59742;21058.85;10341.74;-0.2731776;-0.182271;0;
21888.87;16121.26;103.9887;26213.21;10.51572;-18.18259;23357.53;12119.08;-0.0780011;-0.1820878;0;
19538.14;14930.95;272.7837;22429.71;12.71596;-15.81998;20294.99;11416.93;-0.2078574;-0.2468722;0;
-13082.84;-10995.06;501.0978;-14917.42;13.23904;-15.53615;-14142.29;-9573.773;-0.5974526;-0.2466242;0;
-40626.09;-34307.38;147.4125;-44222.25;12.28773;-15.45355;-42045.7;-28768.09;-0.1420809;-0.05147432;0;
-33980.02;-28314.4;-340.959;-37962.09;13.95033;-15.37104;-35038.19;-23175.92;0.0529639;-0.1163899;0;
-40699.88;-34854.73;-452.4352;-44422.79;4.357141;-14.68577;-41814.8;-29532.8;-0.271926;-0.1812403;0;
-34603.4;-29166.35;-637.0125;-39370;2.477729;-15.13989;-35731.93;-24594.94;-0.2716528;0.2737132;0;
5737.437;5255.016;-771.9449;3563.344;7.029591;-12.78034;5675.588;4540.532;-0.07647782;0.4033729;0;
23263.58;17341.86;-406.3371;26504.51;5.683356;-11.82974;24629.9;13005.96;0.1185011;0.01316347;0;
19252.33;13688.2;12.70456;22350.96;20.4134;-17.37731;20685.53;9881.801;-0.07652004;-0.0518171;0;
21522.48;15729.45;78.67425;25397.14;26.22004;-17.9627;22982.1;11715.13;-0.01147581;0.2081043;0;
18586.89;14309.27;251.9612;21258.67;19.02737;-19.01637;19252.93;10859.66;0.3133724;0.0129932;0;
-15801.3;-13207.13;475.8922;-17937.59;22.89302;-19.19815;-16927.02;-11616.44;0.3780249;-0.2468892;0;
-44258.33;-37923.87;104.2881;-47859.95;13.76034;-17.10246;-45658.8;-32361.68;0.2477104;-0.1816738;0;
-37150.74;-31550.93;-381.6975;-41249.64;9.794398;-15.87964;-38228.97;-26425.3;0.2474615;-0.05155658;0;
-43662.38;-37845.91;-460.9458;-47433.7;27.87019;-10.7731;-44764.77;-32551.31;0.1172781;-0.1164721;0;
-37895.55;-32330.43;-622.6199;-42871.32;28.37805;-7.949054;-39087.67;-27658.24;-0.01277439;-0.3112571;0;
3475.834;3392.29;-757.6292;672.1441;32.63547;-4.257067;3262.712;2922.742;0.05220579;-0.3759117;0;
22481.51;16697;-380.9944;24744.35;37.42545;-1.50655;23604;12393.45;0.182088;-0.4405013;0;
18476.54;12868.08;42.76936;20240.85;11.33258;0.1024932;19454.58;9025.902;0.3118397;-0.3750913;0;
20789.06;14992.98;102.2121;24008.11;4.689761;1.2411;22026.32;10976.16;0.3764937;-0.04987776;0;
17344.42;13437.32;275.085;19667.42;10.37848;1.574707;17944.06;10034.37;0.5060501;-0.04982764;0;
-18499.64;-15406.63;483.9222;-21050.81;4.272479;2.042005;-19764.7;-13683.96;0.375607;0.1451245;0;
-47126.89;-40788.38;100.6127;-50660.7;15.72239;-3.251576;-48522.76;-35204.71;-0.2744439;0.209946;0;
-39472.06;-33924.55;-393.1308;-43567.04;17.85005;-4.65489;-40554.68;-28812.27;-0.3391355;0.07980033;0;
-45725.71;-39900.28;-487.9692;-49496.21;3.162725;-7.664383;-46836.29;-34595.55;-0.07892533;0.2096549;0;
-39494.9;-33898.81;-662.1879;-44409.09;2.021448;-9.934041;-40698.48;-29250.64;-0.07884602;0.01454215;0;
2695.457;2827.352;-803.1233;-238.2859;0.07703341;-4.565547;2397.129;2345.769;0.05116789;0.1444622;0;
22441.32;16732.35;-412.9964;24586.52;-0.9947709;-3.355327;23514.89;12420.22;-0.01385087;0.4041864;0;
18544.71;12900.36;21.10687;20153.71;1.550848;-3.017041;19456.89;9052.647;-0.208739;0.1439109;0;
20868.35;15083.2;90.00415;24038.02;1.148124;-1.406419;22056.33;11057.88;-0.2085292;0.273701;0;
17529.86;13579.56;275.2112;19996.34;12.80127;0.4704548;18115.55;10185.52;0.116517;0.4033607;0;
-18524.58;-15477.8;476.8176;-20957.69;17.81225;1.34076;-19809.47;-13727.67;0.3762693;0.2730207;0;
-47214.16;-40881.89;103.2135;-50681.49;12.56944;5.961113;-48604.33;-35292.66;0.1809892;-0.05209034;0;
-39473.91;-33938.86;-362.8904;-43496.54;14.36547;7.830585;-40550.48;-28825.65;-0.01409469;-0.5068094;0;
-45862.93;-40040.05;-456.01;-49572.46;13.07824;3.803863;-46973.63;-34734.37;-0.07904787;-0.4413328;0;
-39618.79;-34061.87;-654.1707;-44532.37;10.72057;3.933945;-40812.64;-29366.88;-0.0140011;-0.18102;0;
2809.154;2824.196;-816.2441;-140.7554;20.42269;1.719617;2540.155;2421.755;0.05098031;0.01406393;0;
22569.97;16807.81;-421.0284;24604.06;21.94241;1.583923;23587.83;12505.5;-0.1439729;0.1439845;0;
18595.47;12954.48;36.71165;19997.78;10.93565;-1.297813;19357.96;9089.288;-0.273763;0.2737745;0;
20894.2;15089.35;113.558;23941.47;9.986656;-2.770133;22043.09;11067.69;-0.1435532;0.4034341;0;
17376.85;13496.5;290.3706;19673.79;1.872297;5.136453;18007.88;10083.73;0.2463951;0.1431594;0;
-18500.07;-15359.49;484.4655;-21125.28;-1.344765;6.00207;-19766.51;-13622.53;0.3111148;0.2079829;0;
-46761.4;-40429.99;100.156;-50320.54;4.148942;13.02906;-48138.29;-34838.57;-0.0790018;0.6625453;0;
-38950.01;-33419.56;-376.3926;-43081.5;3.809981;17.70472;-40024.57;-28320.31;-0.01395508;0.0122061;0;
-44981.93;-39159.25;-462.4085;-48812.95;12.78113;7.103807;-46091.17;-33852.51;0.2459283;-0.1827082;0;
-38380.87;-32829.7;-637.793;-43377.47;16.58669;6.560805;-39583.31;-28215.77;0.05077918;0.2072795;0;
3441.661;3493.963;-817.6239;489.7615;16.63737;10.3052;3146.615;2941.689;-0.3390759;0.01216915;0;
22627.15;16894.4;-470.3203;24700.41;18.29461;10.36182;23654.61;12560.54;-0.6635719;0.01215692;0;
18758.15;13111.98;-14.74834;20207.12;12.71653;10.61934;19538.96;9256.711;-0.5979378;-0.11779;0;
21059.33;15259.46;83.37341;24147.34;5.537428;10.00583;22196.83;11228.65;-0.2075329;-0.377541;0;
17567.87;13676.42;269.04;19883.32;18.66003;14.68446;18222.84;10243.61;0.1824796;-0.3771616;0;
-17982.04;-14847.57;474.3382;-20577.1;16.49783;15.80841;-19222.83;-13165.55;0.507133;-0.246848;0;
-46045.3;-39696.78;91.44447;-49549.47;-5.756596;14.25192;-47418.27;-34120.16;0.3117214;0.07823677;0;
-38155.38;-32640.9;-394.2627;-42197.7;-8.965992;14.90743;-39209.15;-27538.91;-0.01342853;-0.2466786;0;
-44068;-38208.8;-484.1337;-47840.05;-50.21749;9.600921;-45192.3;-32905.59;-0.3382517;-0.3763654;0;
-37287;-31829.29;-657.7628;-42106.17;-67.71583;7.313915;-38439.71;-27237.85;-0.2079772;-0.05115049;0;
4499.26;4260.649;-804.5278;1873.492;-36.97083;10.0528;4284.764;3665.502;0.1820358;0.07883558;0;
23315.28;17453.34;-429.1889;25950.32;-36.86633;8.502157;24539.56;13112.35;-0.1429838;-0.05117831;0;
19256.97;13629.88;-4.9082;21448.09;-30.2652;8.091717;20501.65;9773.143;-0.2078075;-0.1160942;0;
21592.75;15793.84;55.72251;25062.3;-22.26419;7.48074;22952.2;11766.47;0.1822054;0.0139571;0;
18618.18;14443.92;240.6985;21347.01;-22.04075;3.72224;19259.29;10969.42;0.3769244;-0.05102426;0;
-15849.43;-13078.38;468.6388;-18031.1;-15.99038;2.646834;-17039.49;-11466.35;0.3115783;0.01399435;0;
-43236.98;-36887.59;100.0561;-46672.65;-6.998356;-0.2360308;-44625.98;-31325.31;-0.07853885;0.01398029;0;
-35596.43;-30047.48;-378.7569;-39457.55;-0.7620336;-2.111255;-36639.02;-24966.11;-0.2083946;0.01396624;0;
-41818;-35933.36;-462.8964;-45519.8;-3.775378;0.570123;-42960.36;-30626.8;-0.07825053;-0.1809498;0;
-34687.14;-29344.94;-628.9882;-39300.55;-1.428036;0.5695501;-35785.27;-24830.6;-0.4679759;-0.7005067;0;
6392.597;5800.852;-746.1251;4229.885;-4.708155;0.368029;6387.362;5055.499;-0.7273751;-0.5049008;0;
23858.59;17872.5;-380.8867;27184.64;-6.645807;0.7025738;25264.51;13508.42;-0.3368402;-0.04962211;0;
19926.38;14334.33;3.86531;23217.42;1.331474;1.23767;21364.94;10477.21;-0.1415997;-0.04957226;0;
22315.01;16526.69;65.42423;26338.9;1.933348;2.040222;23782.59;12510.68;-0.2713921;0.0154449;0;
19906.72;15415.94;266.0389;22953.56;-0.8826094;0.4976255;20682.98;11834.18;-0.07621738;0.08039672;0;
-12850.42;-10516.99;514.0999;-14679.24;-1.68503;-0.038738;-13886.63;-9157.136;0.3136632;0.01534859;0;
-40078.94;-33737.85;138.0533;-43619.94;0.1253245;2.104694;-41498.53;-28248.13;0.4432828;-0.04963417;0;
-32805.43;-27220.35;-357.1335;-36715.17;0.6610621;1.767664;-33863.49;-22130.46;0.3129027;0.08035038;0;
-39109.15;-33230.32;-421.1485;-42871.26;-5.636242;0.4932734;-40251.97;-27937.48;0.3125883;-0.3095344;0;
-32861.02;-27602.06;-593.6384;-37493.67;-7.17082;-0.7798979;-33960.96;-23131.71;0.1823395;-0.9588968;0;
7316.847;6514.135;-731.566;5175.744;-3.814712;0.2256297;7352.956;5670.135;-0.1426804;-0.5681292;0;
24393.02;18357.27;-359.4395;28074.34;-2.404359;0.8952323;25817.67;13972.87;-0.07756972;-0.307689;0;
20616.61;15029.21;40.22094;24803.03;-6.220336;-7.076453;22047;11174.82;0.0524429;-0.2424125;0;
23088.74;17332.43;113.3156;27495.99;-6.615252;-8.074087;24548.77;13313.62;-0.01257714;0.01770044;0;
21437.7;16594.39;308.666;24858.55;2.165305;-8.534854;22402.54;12961;0.1823375;0.277552;0;
-9862.588;-8143.529;551.3275;-11249.6;3.838069;-9.798893;-10707.41;-6890.026;0.312089;0.2123058;0;
-37442.95;-31190.45;190.0174;-41149.72;7.920049;-0.07676605;-38896.99;-25718.73;-0.2079633;-0.0477769;0;
-31882.92;-26242.95;-304.0815;-35860.12;10.12289;2.066704;-32960.06;-21157.37;-0.07781968;0.08220579;0;
-39724.47;-33909.56;-396.5107;-43540.61;5.021532;6.820293;-40879.71;-28635.21;0.1821279;0.01715585;0;
-33856.05;-28551.96;-571.5709;-38500.42;3.944759;10.69839;-34963.31;-24083.53;-0.2078592;-0.1777634;0;
7173.835;6440.468;-697.4643;5182.732;2.534276;3.386683;7269.395;5596.92;-0.2726177;0.1472519;0;
24704.14;18689.93;-344.1907;28607.01;2.599078;1.976639;26150.63;14311.87;-0.142409;0.08213661;0;
21173.05;15558;41.13352;25866.88;-10.13054;5.859601;22598.39;11683.14;0.1825708;0.01708673;0;
23844.42;18114.49;89.53659;28472.51;-14.94313;5.585782;25295.19;14123.86;0.312322;0.0820369;0;
22589.88;17592.07;255.3945;26223.21;-4.478286;-2.323634;23653.12;13833.31;0.1820735;-0.1129475;0;
-7386.391;-5960.615;540.1352;-8426.387;-5.344442;-5.201504;-8097.905;-5002.29;0.4417599;-0.1778014;0;
-34264.94;-28054.3;250.644;-38014.17;0.2196569;-4.928346;-35727.8;-22646.91;-0.01345537;-0.1126554;0;
-28977.63;-23315.79;-214.6085;-32935.96;0.8899975;-6.798855;-30064.87;-18187.12;-0.07840919;0.01739248;0;
-36931.89;-31101.44;-311.0786;-40740.91;4.170657;-5.251477;-38091.52;-25830.16;0.5063757;0.1473097;0;
-31352.15;-26153.58;-512.4615;-35895.92;7.71644;-4.777319;-32438.19;-21771.19;-0.01387187;-0.2426424;0;
8683.417;7690.295;-677.223;7101.259;-5.21841;-6.045195;8886.791;6698.997;-0.1437926;-0.1124639;0;
25362.9;19294.29;-336.9475;29603.71;-2.400127;-5.637223;26851.97;14902.29;-0.07868079;0.2774532;0;
21851.57;16258.52;62.69031;26869.41;-16.79868;-2.684371;23265.32;12377.07;-0.2735038;0.1472397;0;
24527.88;18809.63;103.5755;29273.75;-18.8579;-1.609947;25974.79;14843.74;0.3764445;0.4719285;0;
23635.42;18526.01;278.7896;27659.43;4.93913;0.1331663;24779.47;14656.21;0.2461315;0.2115849;0;
-4511.768;-3326.611;584.793;-4902.495;11.16346;1.070794;-5087.494;-2678.683;-0.01398514;-0.1784318;0;
-29635.95;-23470.72;284.809;-33333.88;27.56294;1.203622;-31096.53;-18149.13;0.3108656;0.3414863;0;
-24008.4;-18345.82;-128.9413;-27929.89;33.22867;1.939225;-25141.05;-13124.06;-0.07925079;0.4710778;0;
-31667.39;-25813.8;-196.4652;-35451.65;64.4081;-2.550458;-32837.13;-20487.72;0.05076353;0.01583309;0;
-26082.94;-21028.04;-434.6323;-30317.02;80.55302;-4.222407;-27137.31;-17105.27;0.2456145;-0.2440522;0;
11651.94;10308.35;-571.9701;11131.67;42.15833;-2.141755;11950.99;8702.677;-0.3393383;0.08102974;0;
26145.44;20008.16;-256.5536;30850.78;41.04424;-2.809432;27673.7;15595.35;-0.1440953;0.4707524;0;
22772.06;17215.57;60.82598;27666.55;24.05741;-2.806609;24174.13;13350.74;0.05095148;0.3403447;0;
25328.75;19604.93;94.2168;30110.63;10.77038;-2.334908;26783.93;15670.36;-0.1440017;0.40497;0;
24394.63;19222.68;285.3073;28646.22;31.92567;-4.676904;25561.2;15187.02;-0.2737917;0.2746285;0;
-1963.515;-922.0708;600.0497;-2008.433;26.40124;-4.605222;-2509.763;-902.2866;-0.0786146;0.01448312;0;
-25901.01;-19773.64;332.253;-29569.47;39.77129;-1.51944;-27396.96;-14833.44;0.1163664;-0.1154661;0;
-20531.48;-14904.33;-29.61787;-24535.02;44.21931;0.08961569;-21756.34;-9795.669;0.3111515;0.01458459;0;
-27727.55;-21878.97;-67.06927;-31564.82;25.48701;0.4914232;-28945.29;-16600.24;0.3758062;0.4693413;0;
-22109.3;-17179.93;-300.2752;-26297.5;26.5995;1.562595;-23169.67;-13692.64;-0.2742448;0.5988044;0;
13573.38;11960.2;-460.3617;13398.75;6.613076;5.847872;13876.41;9784.946;-0.5338386;0.273366;0;
26467.04;20291.17;-195.9224;31308.63;-1.23045;7.516508;28000.14;15861.9;-0.01356348;0.1431567;0;
22979.32;17452.61;101.5781;27818.8;16.11851;6.705161;24377.92;13633.63;0.3762542;0.2079802;0;
25350.69;19608.31;126.3698;30172.34;16.30339;6.229604;26807.75;15638.22;0.5707781;0.01286916;0;
24182.45;19026.98;288.5206;28312.05;20.70763;9.103488;25333.48;15011.64;0.2453679;-0.2470131;0;
-1955.868;-911.0637;584.738;-2219.671;23.76829;9.697187;-2534.368;-706.2067;-0.01474798;-0.1817976;0;
-25175.12;-19049.23;317.347;-28923.16;26.75851;2.386487;-26690.65;-14188.78;0.1152015;-0.1816149;0;
-18532.42;-12894.8;-18.95923;-22571.24;29.87946;1.111474;-19776.34;-8318.875;0.2450204;-0.5062692;0;
-24276.52;-18384.17;-31.18402;-28218.53;27.43854;-3.176489;-25512.98;-13309.94;0.2447743;-0.3758258;0;
-18773.46;-13976.92;-260.9434;-22867.77;28.08055;-5.517639;-19820.72;-10872.24;-0.08030841;0.209258;0;
14926.69;13090.2;-411.9021;15058.17;20.14811;-1.426197;15271.02;10439.01;0.04970697;-0.05082169;0;
26593.84;20396.1;-139.6717;31539.73;15.70723;-1.893645;28141.28;16021.87;0.3744937;-0.3756073;0;
23118.66;17607.4;151.0101;27932.9;20.04571;4.270505;24512.15;13775.89;0.2441828;0.07954147;0;
25427.59;19689.69;159.5571;30257.14;18.68542;6.342624;26884.38;15754.69;0.6337414;0.07946155;0;
24424.57;19218.55;301.5284;28645.5;13.71015;9.149473;25589.55;15096.9;0.7630393;-0.440357;0;
-643.0828;312.4977;586.2853;-742.9645;13.56265;13.56109;-1188.512;98.74247;0.3724686;-0.3099799;0;
-22701.6;-16572.22;309.1321;-26413.08;6.315356;1.892679;-24214.82;-12124.18;0.307127;0.01516831;0;
-16426.15;-10769.38;-31.38251;-20426.02;2.959131;0.8860947;-17687.74;-6813.303;0.241851;-0.3096837;0;
-22919.5;-16984.06;-43.3918;-26783.49;13.20491;5.573888;-24159.93;-12225.05;-0.01826133;-0.2444051;0;
-17117.45;-12554.73;-280.6976;-21131.94;11.78512;4.362594;-18134.32;-9567.404;-0.1481777;0.08067716;0;
16185.58;13976.7;-435.1347;16431.19;23.16014;15.74506;16579.63;11115.13;-0.08306143;-0.3092079;0;
26964.5;20737.94;-158.7893;31939.06;28.02601;19.48017;28523.49;16395.96;0.1768914;-0.5687666;0;
23617.54;18132.06;139.3455;28419.3;8.975184;14.10208;25005.83;14286.52;0.04677897;-0.1783911;0;
26044.92;20311.11;153.1203;30852.87;8.229232;15.22662;27496.72;16422.33;-0.1481701;0.2765596;0;
25167.63;19884.58;308.076;29533.78;-2.76375;12.93396;26372.15;15650.42;-0.2779559;0.146347;0;
1322.976;2095.964;630.8384;1456.795;-8.588121;11.0455;838.0782;1519.035;-0.6025133;-0.4385061;0;
-19614.71;-13498.26;396.1972;-23337.39;3.544297;15.52214;-21153.34;-9692.685;-0.2121038;-0.5680002;0;
-13295.74;-7563.124;70.46264;-17348.08;2.469008;15.17163;-14608.5;-4732.762;0.307848;-0.6973642;0;
-19717.74;-13737.73;55.13388;-23621.72;13.38389;9.730889;-21001.99;-9511.742;-0.2771674;-0.3068594;0;
-14208.75;-10004.84;-178.6634;-18242.81;17.92577;7.912633;-15260.48;-7230.717;-0.4068235;-0.04668169;0;
17542.09;14890.06;-340.6836;17904.88;11.87954;5.493358;17949.6;11689.14;-0.01661072;-0.3714715;0;
27319.68;21102.88;-95.76109;32336.94;13.34049;3.545333;28889.03;16827.44;0.2432753;0.1486405;0;
24264.41;18784.89;168.1088;29038.73;12.79123;4.345566;25651;14932.06;-0.01683848;0.5382952;0;
26678.68;20978.4;159.3036;31477.5;14.78811;4.743097;28128.66;17122.8;-0.4066256;0.472787;0;
25933.09;20471.38;298.1362;30340.33;-0.6320957;-0.82113;27163.79;16165.65;0.1135217;0.6022466;0;
3530.453;3769.632;605.1821;3730.063;-7.731407;-3.23163;3098.108;2655.547;0.5032117;0.4067394;0;
-16555.11;-10586.57;382.6075;-20325.63;13.50885;7.42166;-18090.61;-7527.145;0.1778693;0.4712981;0;
-11091.88;-5248.794;92.00951;-15232.94;14.56701;8.686817;-12417.05;-3275.105;0.1776906;0.5357919;0;
-17971.45;-11986.27;102.4274;-21958.73;13.68171;8.544184;-19264.55;-8219.656;0.1125447;0.2104168;0;
-12464.46;-8463.196;-110.8652;-16497.17;17.62008;10.54503;-13529.33;-5938.586;-0.2124051;-0.1146314;0;
18353.44;15425.88;-279.5284;18822.01;-2.224572;3.300456;18777.3;11982.74;-0.4070936;-0.04954883;0;
27425.97;21202.52;-76.22455;32459.72;-7.714694;3.230157;29005.64;16981.44;0.1130541;0.145403;0;
24395.71;18954.44;160.0771;29134.96;2.407115;-4.877841;25779.62;15124.13;0.4377773;0.01532219;0;
26702.62;20967.05;153.56;31497.81;0.3285913;-9.762571;28155.52;17090.17;-0.08240137;0.1452415;0;
25862.51;20473.95;301.8936;30244.87;5.083683;4.782168;27095.39;16214.17;-0.01735124;0.0801282;0;
3236.27;3589.527;617.9;3367.692;9.03069;6.183944;2816.026;2484.519;0.3724703;0.01508034;0;
-17156.89;-11119.83;393.3761;-21011.71;-7.12066;3.699423;-18676.75;-7944.081;0.1122266;0.4048693;0;
-11639.62;-5807.07;83.35517;-15837.03;-9.659101;5.370279;-12963.5;-3637.837;-0.1477555;0.3394951;0;
-19192.32;-13217.91;74.91624;-23202.06;2.205973;-0.5294933;-20468.2;-9258.34;-0.0826397;0.339154;0;
-14476.98;-10191.72;-155.7619;-18592.1;2.874318;-1.801576;-15505.82;-7310.339;-0.01758933;0.5337152;0;
17209.35;14584.86;-328.3779;17534.98;10.03775;-0.7280998;17636.39;11366.39;-0.1475063;0.5981463;0;
27060.29;20827.69;-104.1449;32041.09;12.77433;-1.799034;28627.25;16565.18;-0.4072275;0.2077412;0;
23794.76;18348.47;143.0856;28532.52;10.14953;-0.8595264;25176.28;14547.13;-0.01701425;-0.1822716;0;
26251.49;20514.78;138.2567;31034.23;10.80891;-0.5237481;27704.98;16618.25;0.3078395;-0.2470558;0;
25380.29;20043.15;305.1275;29702.06;5.77421;-2.800581;26589.63;15846.66;-0.1472412;-0.2468075;0;
2055.123;2580.657;625.8939;2083.009;4.629333;-2.797766;1586.978;1701.56;-0.2120606;-0.05165753;0;
-18862.46;-12796.44;384.6985;-22724.79;-1.537261;-2.326075;-20393.54;-9120.039;-0.01694545;0.1432964;0;
-13752.13;-7969.551;70.73515;-17894.62;-3.812892;-3.194516;-15055.33;-4939.69;0.04803892;-0.05174961;0;
-21233.25;-15279.58;51.12702;-25181.62;-7.894897;4.712497;-22489.6;-10914.14;-0.08194403;-0.1816323;0;
-15645.37;-11231.85;-185.3992;-19755.83;-12.84346;7.65495;-16687.72;-8276.028;-0.08186169;-0.1164825;0;
16636.06;14204.78;-323.0031;16900.85;5.857319;-0.6584422;17023.82;11150.37;0.4379593;-0.05139806;0;
26655.3;20437.15;-75.34971;31633.5;10.07099;-1.32761;28214.28;16152.72;0.2426172;0.3384576;0;
23486.16;18030.78;162.2785;28248.54;3.630512;-1.862078;24872.71;14235.89;-0.4073;0.5330196;0;
25946.09;20213.54;149.0751;30742.5;7.646328;-4.740412;27400.3;16323.87;-0.2769561;0.01274526;0;
25018.38;19727.09;305.3623;29318.62;-11.45137;4.172837;26214.53;15547.43;0.04815894;-0.1821696;0;
1444.952;2104.506;604.4518;1460.715;-20.68326;6.044105;950.3575;1429.816;0.1130779;-0.05205185;0;
-19520.46;-13411.89;344.5998;-23297.26;3.048258;-3.607266;-21057.91;-9567.813;0.1129643;0.2728372;0;
-14045.48;-8282.53;27.06923;-18089.1;0.03108465;-4.072522;-15356.67;-5157.926;0.2427855;0.467465;0;
-21509.56;-15548.55;18.48383;-25360.46;1.10278;-8.087284;-22775.97;-11126.87;0.3724762;0.07719128;0;
-16182.43;-11717.69;-214.199;-20188.64;4.384202;-10.62445;-17212.71;-8724.184;-0.1476368;-0.1177883;0;
16387.97;14013.52;-369.3745;16684.29;-35.74164;-1.973158;16785.35;11001.47;-0.5372925;0.2721341;0;
26745.83;20524.39;-126.6876;31730.73;-44.8154;-0.2966628;28304.8;16251.74;-0.406818;0.2718607;0;
23533.59;18074.97;128.5927;28329.14;-48.78984;-0.4973135;24919.54;14272.38;-0.2115072;0.07668547;0;
25992.28;20269.32;114.1425;30800.4;-58.78752;1.579596;27441.65;16399.43;-0.08135996;0.01164107;0;
25142.96;19830.13;259.6266;29524.95;-33.94501;0.03746248;26351.55;15639.67;0.2435585;-0.05333797;0;
1669.267;2304.494;583.3122;1857.147;-30.29455;-0.6324045;1195.362;1417.549;0.4382158;0.2715524;0;
-19376.07;-13280.04;358.4951;-23038.07;-27.85224;5.195624;-20911.09;-9528.03;-0.01699592;0.2063121;0;
-14334;-8568.772;49.91477;-18285.34;-20.79166;5.324369;-15635.45;-5252.273;-0.1469135;0.07617015;0;
-21918.23;-15951.13;37.68324;-25685.18;-25.39247;3.577463;-23172.22;-11454.97;0.04813612;0.2709956;0;
-16137.21;-11738.98;-203.9207;-20096.95;-21.81698;4.176715;-17171.93;-8733.321;-0.471651;0.1407887;0;
16525.71;14069.8;-368.8047;16887.98;-27.42113;-7.214275;16920.2;11094.82;-0.3412424;-0.2491569;0;
26622.73;20405.1;-132.6776;31628.61;-30.80983;-10.15421;28179.84;16123.01;0.1788392;-0.3138739;0;
23456.11;18012.54;126.6223;28227.79;-18.32029;-9.340217;24837.96;14231.41;0.04872485;0.1412129;0;
25967.31;20233.12;128.9626;30783.73;-18.10081;-11.13937;27419.98;16348.92;0.04867589;0.2710057;0;
24998.2;19723.77;278.6015;29323.47;-19.95864;-6.506477;26189.12;15576.13;-0.01634036;0.2707334;0;
1291.887;1978.551;598.5043;1389.474;-16.65605;-6.232008;784.3691;1233.248;-0.08129128;0.2704614;0;
-20165.74;-14056.47;369.0492;-23834.63;-37.26957;1.945989;-21706.07;-10023.93;-0.2111443;0.1402549;0;
-15414.05;-9669.701;38.57872;-19395.34;-41.65275;5.762;-16716.99;-5971.465;-0.3408668;0.5299181;0;
-23360.56;-17429.77;11.31926;-27176.96;-30.02297;2.942988;-24619.05;-12756.71;0.1142471;0.3344836;0;
-17872.56;-13277.96;-229.5242;-21913.05;-30.79709;5.68627;-18909.41;-10038.38;0.244067;-0.05565658;0;
15495.68;13301.31;-381.061;15708.61;-15.2261;-3.22799;15872.7;10556.27;-0.1459823;0.3342034;0;
26277.97;20067.63;-103.38;31225.32;-9.116213;-7.042652;27825.9;15756.14;0.3089358;0.2039329;0;
22950.11;17501.44;175.7555;27713.35;-9.240775;5.221996;24331.73;13738.64;0.3735927;-0.1860761;0;
25517.69;19771.26;170.9718;30306.62;-2.466336;6.288415;26969.87;15872.99;-0.3414235;-0.2508564;0;
24428.6;19245.17;320.8184;28706.11;-14.58765;-0.01411648;25597.51;15159.91;-0.2111457;0.07423234;0;
-21.9035;910.4893;611.2561;-29.58212;-16.18058;-0.01410229;-570.09;331.2776;0.1788705;0.2690598;0;
-21906.29;-15746.97;348.9922;-25666.49;-3.504668;-5.037686;-23456.64;-11386.49;-0.01621126;0.1388548;0;
-17352.65;-11669.93;14.59068;-21385.48;-2.094627;-6.975068;-18649.52;-7343.048;0.1137397;0.2686499;0;
-25609.96;-19713.79;-28.10565;-29438.33;-2.762108;-1.67653;-26876.06;-14793.03;0.1785928;-0.1214241;0;
-19868.24;-15105.74;-278.8888;-23992.61;-3.161474;-0.3352477;-20948.13;-11774.46;0.04847863;-0.1862694;0;
14430.43;12501.39;-421.8647;14480.58;-0.9474946;-1.741491;14759.56;9984.192;-0.2764068;0.2686892;0;
25901.08;19707.64;-158.6667;30809.2;-1.616128;-1.00299;27444.53;15372.06;-0.4060637;0.1384845;0;
22594.84;17128.22;116.0579;27387.93;-7.37528;3.284864;23978.67;13361.85;-0.470623;0.008410634;0;
25108.99;19364.48;135.3378;29905.45;-10.78412;4.420212;26560.89;15446.8;-0.6000848;-0.3164345;0;
23972.21;18851.45;292.9975;28207.1;-11.57659;9.104454;25121.96;14810.84;-0.2096778;-0.3161166;0;
-1069.005;21.31976;598.1745;-1129.265;-11.9671;11.84155;-1650.932;-311.6149;-0.1444998;0.009037774;0;
-23392.47;-17216.16;353.3993;-27119.32;-29.23643;5.466451;-24942.97;-12608.28;-0.3392566;0.07399604;0;
-18441.56;-12787.6;13.10571;-22458.58;-34.83313;4.992078;-19744.27;-8157.823;0.180823;0.008954342;0;
-26607.47;-20716.72;-27.59013;-30437.6;-22.47327;4.317233;-27888.72;-15644.83;0.2456086;-0.1209893;0;
-21152.76;-16305.58;-288.7436;-25327.34;-21.64738;3.174246;-22242.57;-12858.97;-0.2094095;0.1390016;0;
13744.26;11972.86;-466.7233;13659.29;-12.98544;5.247466;14044.88;9623.174;0.1806049;0.333764;0;
25859.29;19685.59;-202.6056;30716.94;-6.139892;5.644091;27384.63;15325.34;0.4402928;0.2684613;0;
22437.88;16953.81;99.4619;27229.11;-15.04233;4.633676;23819.1;13179.26;-0.07988834;0.07328947;0;
25052.67;19312.52;124.5993;29819.39;-15.76415;4.495054;26495.98;15404.27;-0.2097428;-0.3165882;0;
23920.16;18822.29;282.3947;28112.63;4.279708;8.844306;25056.19;14775.78;-0.01462997;0.2034686;0;
-1504.401;-347.8887;572.262;-1657.468;9.700416;9.974129;-2106.268;-582.7574;-0.07958262;0.4631335;0;
-23623.27;-17445.48;309.7717;-27467.64;-0.8919026;9.495227;-25200.12;-12854.61;-0.4693067;-0.1220379;0;
-18466.89;-12840.69;-13.08051;-22600.58;0.4481642;9.619652;-19795.53;-8337.616;-0.4038678;-0.2518499;0;
-26582.61;-20691.27;-42.97421;-30559.6;-7.522889;8.069439;-27894.66;-15683.31;-0.1435926;-0.2515969;0;
-20631;-15825.93;-304.4402;-24928.6;-9.859855;7.056587;-21748.2;-12464.17;-0.1434483;-0.05644206;0;
14093.49;12262.86;-462.7265;13992.53;-8.644499;3.968343;14398.82;9848.983;0.05159782;0.2684514;0;
25698.58;19514.98;-184.4949;30547.76;-11.85099;1.887945;27233.52;15170.67;0.1814807;-0.1216224;0;
22460.14;16975.9;111.4012;27194.8;3.433511;-0.3913104;23835.85;13190.73;0.3762003;-0.2514349;0;
25046.82;19314.3;141.3211;29789.47;7.3812;-2.735259;26493.36;15403.47;0.310855;-0.05628024;0;
23795.43;18663.13;321.2604;27920.73;2.149847;-2.866476;24932.53;14614.08;0.1156406;-0.1861584;0;
-1263.963;-183.3428;622.989;-1594.412;4.291141;-3.801357;-1879.497;-467.187;0.1155244;0.008930705;0;
-23430.77;-17269.98;347.9384;-27454.98;-1.675018;-3.797538;-25010.87;-12663.07;-0.01452635;0.1388564;0;
-18533.25;-12911.63;-15.82231;-22800.66;-4.01786;-2.454063;-19842.33;-8375.402;-0.07947909;0.1387169;0;
-26465.06;-20562.46;-75.10473;-30574.92;2.550261;-6.671461;-27757.06;-15520.13;0.1155028;0.5283816;0;
-20352.46;-15670.55;-320.078;-24778.62;3.083562;-6.865645;-21459.04;-12330.02;-0.01454795;0.1380466;0;
14455.61;12462.17;-470.0402;14251.1;-2.947757;0.7771246;14753.27;10040.81;-0.07950068;-0.1869288;0;
26130.32;19953.46;-202.2335;30946.52;-3.748102;2.651805;27657.47;15624.2;0.05051389;0.07312836;0;
23105.59;17591.46;117.2155;27841.83;-6.088861;8.141619;24487.65;13738.44;0.1803978;-0.1868145;0;
25834.04;20172.09;151.7053;30531.33;-8.359918;11.75039;27269.7;16400.68;0.2451839;-0.1216594;0;
25265.79;19859.59;291.2014;29544.74;-0.9167784;9.528212;26452.99;15535.29;0.1799702;0.2032995;0;
2974.139;3395.809;595.4432;2859.191;0.08852068;11.3941;2437.248;2273.445;0.5695934;0.33303;0;
-16692.64;-10670.14;372.2849;-20797.93;-0.3127338;7.22983;-18309.73;-7734.311;0.4390864;0.00785859;0;
-11701.69;-5905.953;78.68326;-16123.41;1.831034;5.347105;-13084.26;-3801.778;0.1138085;0.07281803;0;
-19502.98;-13524.86;79.54122;-23828.36;-6.409828;11.23605;-20853.95;-9565.105;0.1136941;0.3975816;0;
-13893.91;-9789.186;-152.0786;-18250.36;-8.1447;10.95689;-14971.46;-7157.965;-0.2112568;0.1373127;0;
17607.77;14800.97;-302.5532;17884.28;-2.175645;10.27605;18035.71;11474.26;-0.2760119;-0.187662;0;
26883.53;20668.86;-68.7103;31826.34;-1.838666;10.46667;28448.79;16469.65;0.1790368;-0.3823754;0;
24015.45;18555.14;151.3888;28658.06;-0.02815766;4.896692;25383.75;14729.26;0.4387263;-0.5119259;0;
26613.7;20949.42;129.0134;31309.32;1.244668;2.882345;28052.76;17145.35;0.3083508;-0.3165095;0;
25943.94;20407.9;279.3082;30263.15;-0.4978945;4.486978;27167.15;16112.41;0.2430736;-0.2512241;0;
4480.554;4426.371;590.1993;4474.224;-0.765814;3.81264;4025.86;3052.624;0.177862;-0.05606966;0;
-14566.21;-8768.087;392.7989;-18693.38;2.517485;1.866365;-16170.1;-6276.865;-0.1471534;0.07392137;0;
-9601.307;-3859.927;122.9303;-14058.09;3.519334;1.194661;-11011.7;-2563.265;0.0478965;-0.1210549;0;
-17539.66;-11607.25;121.0733;-21795.36;-2.043908;2.265187;-18909.58;-8086.459;0.3077177;0.1389361;0;
-12299.92;-8392.896;-114.8673;-16515.9;-3.649445;2.128945;-13388.07;-5916.577;0.1125065;0.2687311;0;
18318.36;15245.58;-289.5391;18761.06;-2.574051;3.734335;18764.36;11733.8;-0.08250855;0.2034938;0;
27062.19;20863.15;-65.87605;32055.82;-3.910635;4.467395;28631.48;16703.53;-0.4072624;0.3981914;0;
24107.51;18660.64;182.253;28768.46;-2.098044;2.989343;25467.51;14851.94;-0.4718205;0.2678566;0;
26562.46;20886.26;179.3212;31291.54;-1.158907;2.785391;28003.63;17072.38;0.04839234;0.07268538;0;
25928.86;20404.29;324.7553;30259.37;-7.921921;2.581643;27144.99;16132.5;0.1133111;0.2675144;0;
4676.024;4536.597;621.9357;4699.776;-9.923693;1.976203;4202.593;3161.627;-0.01673748;0.2022782;0;
-14146.82;-8419.498;414.2118;-18253.85;-3.618058;0.1657388;-15759.52;-5995.355;0.04824668;0.0721403;0;
-9341.971;-3682.321;151.7398;-13806.92;-3.479725;-1.375035;-10759.33;-2475.222;0.0481982;-0.1228342;0;
-17832.44;-11936.38;158.5526;-22064.84;-2.137058;0.3009197;-19212.42;-8394.618;0.3729865;-0.5125148;0;
-12739.48;-8736.345;-82.57936;-16896.07;-0.6610416;0.5685491;-13823.42;-6231.204;-0.2770617;-0.5769672;0;
18049.23;15027.2;-262.8276;18522.94;-3.674487;-4.9245;18498.65;11517.81;-0.60162;-0.1865834;0;
26872.76;20659.57;-51.91941;31876.5;-1.862134;-6.125245;28440.99;16523.75;0.1785926;0.3983102;0;
24078.43;18652.81;176.518;28763.23;-9.362351;-5.047364;25444.06;14853.57;0.04847845;0.2679752;0;
26585.46;20895.63;154.8046;31339.79;-11.76482;-5.980053;28027.68;17088.68;-0.2114396;-0.5119021;0;
25683.16;20201.93;292.892;30054.23;2.581595;-1.687259;26900.56;15957.48;0.1136095;-0.4464204;0;
4136.264;4153.296;594.8521;4268.911;5.927904;-0.7478023;3680.92;2803.456;0.04852803;0.2037016;0;
-15005.07;-9111.57;389.0918;-18914.46;4.515428;-1.684812;-16593.68;-6499.92;-0.01648807;0.07356219;0;
-10457.3;-4600.413;122.9126;-14687.56;6.654345;-1.214238;-11845.11;-3045.591;0.04849584;-0.3163158;0;
-18575.1;-12588.54;129.3483;-22618.51;7.183522;-1.01207;-19919.39;-8895.151;-0.08148757;-0.3159979;0;
-12931.54;-8952.242;-88.59407;-16980.57;7.108955;0.5295548;-14001.75;-6428.871;-0.2113404;0.009156284;0;
17975.17;14986.12;-253.9844;18497.21;8.441958;-6.972883;18421.91;11526.38;0.178676;0.07411443;0;
26836.37;20641.68;-64.63672;31852.79;7.562819;-8.774416;28405.99;16503.29;0.1135292;-0.2507968;0;
24044.74;18611.1;154.1152;28741.31;5.746559;-3.94295;25412.25;14821.62;-0.2114216;-0.05564273;0;
26551.81;20879.53;144.4651;31319.82;5.807158;-5.345569;27994.85;17093.27;0.1136275;-0.1205542;0;
25829.06;20351.87;280.6889;30234.61;-8.130151;3.568289;27053.14;16098.71;0.243448;-0.510237;0;
4265.525;4261.529;584.5508;4513.506;-13.88276;5.641174;3826.248;2940.92;0.4381054;-0.249855;0;
-14824.89;-9007.585;390.2952;-18626.03;-3.955822;0.8127958;-16397.65;-6510.489;0.3726979;-0.1196693;0;
-9829.462;-4094.312;115.8845;-14038.65;-4.621433;1.950689;-11222.94;-2814.146;-0.2123827;-0.2494837;0;
-18080.06;-12122.57;104.1333;-22083.62;-4.080926;-8.299416;-19437.98;-8529.568;-0.342104;0.01063633;0;
-12893.21;-8906.168;-135.6009;-16827.03;-2.000721;-11.30525;-13932.88;-6384.962;-0.4067276;-0.119309;0;
18073.89;15030.61;-308.5182;18681.83;-8.562794;-7.475922;18564.53;11540.43;-0.2763842;-0.05422182;0;
26923.32;20724.27;-95.14348;31944.29;-9.89336;-7.602376;28497.95;16608.83;-0.2111391;0.4006041;0;
24180.24;18753.03;136.6169;28861.95;-3.118265;-8.197583;25547.06;14977.09;-0.1459596;0.2702669;0;
26800.37;21139.49;120.8157;31558.19;-2.445546;-8.390295;28246.73;17361.91;0.04908904;0.07509325;0;
25861.96;20345.38;264.0284;30254.87;-5.189755;0.3257338;27081.14;16113.42;-0.275797;0.4648219;0;
4647.7;4426.144;573.0608;4857.465;-6.59106;2.334833;4201.833;3113.361;-0.4054545;0.2044854;0;
-14183.54;-8439.636;380.8938;-18026.04;-4.909498;7.155137;-15765.84;-5898.895;-0.0152431;-0.3154588;0;
-10102.6;-4231.407;118.0649;-14312.82;-5.306707;10.96591;-11484.95;-2888.65;0.2446416;0.00969491;0;
-18693.31;-12725.4;109.1226;-22740.13;-10.12415;0.572784;-20033.83;-9116.756;0.3743305;0.3345219;0;
-13061.29;-9037.241;-116.9673;-17107.55;-9.644483;-0.6334843;-14131.08;-6472.076;0.04911761;0.1392837;0;
17824.2;14894.38;-273.2399;18361.46;-22.83031;-4.517736;18279.85;11429.56;0.1140356;0.009209086;0;
26610.98;20414.8;-69.59879;31626.64;-28.23335;-8.800043;28186.86;16306.51;0.2438557;0.1391345;0;
23858.57;18447.48;164.338;28529.36;-9.851902;-1.155329;25225.68;14700.06;-0.08122604;0.07402737;0;
26414.66;20725.79;152.9285;31163.23;-7.095337;-1.355117;27862.63;16923.53;-0.01617707;0.008985647;0;
25525.39;20104.99;285.9423;29873.63;-5.749037;-5.104678;26744.25;15945.82;0.3736432;0.2038787;0;
3436.29;3590.516;594.203;3526.604;-0.6520692;-5.032566;2984.696;2267.879;0.3083004;0.0737391;0;
-16589.02;-10579.69;380.1507;-20501.11;-7.684988;-8.778492;-18157.21;-7641.077;0.0481213;-0.121237;0;
-12589.1;-6695.538;87.47816;-16787.26;-7.074054;-9.841337;-13951.3;-4278.429;0.04807295;-0.05614785;0;
-21570.5;-15615.59;64.04263;-25574.59;-0.3017914;-8.6928;-22867.97;-11416.02;0.112992;0.008875904;0;
-16274.46;-11866.63;-188.5042;-20391.85;1.238753;-9.755732;-17312.19;-8929.392;-0.08202358;-0.05610036;0;
16185.24;13687;-349.718;16529.47;4.050548;-6.664836;16613.69;10597.61;-0.4067779;-0.250946;0;
26169.23;19955.28;-122.8555;31120.5;6.05621;-6.591156;27728.96;15785.77;-0.01656508;-0.1857265;0;
23197.09;17794.85;123.1131;27877.58;5.245841;-7.120336;24568.72;14063.16;0.5681576;0.009362125;0;
25840.52;20125.72;136.4514;30575.61;6.178575;-6.711345;27289.47;16322.79;0.3077174;0.2042548;0;
24629.86;19372.98;305.5417;28898.54;5.502781;-11.3263;25819.46;15250.22;0.1774735;0.6588209;0;
1399.085;2075.9;616.3908;1337.903;4.626596;-11.85072;887.3789;1021.728;0.2422625;0.3333222;0;
-19061.63;-12932.71;375.6734;-23018.92;9.712162;-14.11623;-20642.18;-9393.282;0.1120844;-0.3166861;0;
-15017.84;-9243.604;54.44159;-19219.23;11.10892;-14.36992;-16366.39;-5978.649;-0.0179629;-0.05649856;0;
-23955.33;-18018.68;15.10976;-28015.41;3.127158;-12.74795;-25257.45;-13523.05;-0.1478795;0.07349289;0;
-17940.05;-13381.48;-241.1985;-22211.04;0.6457691;-11.86437;-19014.93;-10259.33;-0.1477309;-0.4463197;0;
15374.33;13124.89;-387.3669;15537.92;7.678694;-4.886403;15754.76;10314.11;0.1122869;-0.1210345;0;
25728.65;19530.38;-117.3788;30636.9;9.143871;-1.733356;27280.42;15312.21;-0.01776064;0.3988259;0;
22642.9;17228.84;139.9692;27327.48;2.369529;2.220257;24010.78;13532.14;-0.08271014;0.3334578;0;
25243.27;19513.73;109.5157;29985.78;2.367148;5.031248;26692.15;15664.15;0.2422097;0.39809;0;
23999.98;18855.33;265.5147;28185.25;1.963604;8.107347;25154.58;14849.94;0.1120316;0.07285332;0;
-652.8292;302.6877;593.2705;-818.4628;0.8225552;10.64449;-1237.835;-221.5262;0.3068211;-0.1221219;0;
-22384.81;-16227.03;342.7531;-26312.64;10.80206;3.935624;-23968.45;-11884.43;0.4364475;-0.1219992;0;
-17874.29;-12192.19;14.18308;-22061.1;13.47053;1.855259;-19205.17;-7897.076;0.04620487;-0.381746;0;
-26999.96;-21111.39;-21.09469;-30974.07;9.772321;3.126071;-28293.73;-16144.44;-0.0188089;-0.316395;0;
-21378.62;-16566.7;-287.2054;-25662.24;9.361336;1.582322;-22460.36;-13096.59;-0.2786594;-0.1861425;0;
13541.55;11692.59;-443.1039;13471.87;13.50414;-2.438122;13868.92;9320.417;-0.3433467;0.008946602;0;
25243.77;19081.33;-174.3248;30090.33;14.42857;-4.177167;26777.02;14811.49;-0.2780344;0.1388723;0;
22105.66;16662.41;98.94749;26836.65;4.0316;-4.708833;23485.44;12963.79;-0.1478203;0.008798073;0;
24845.42;19122.7;110.4828;29594.76;1.01344;-5.440914;26295.21;15277.24;-0.1476718;0.4635606;0;
23352.08;18295.73;283.7534;27488;-1.532198;-3.024122;24481.06;14336.07;-0.2774581;0.3981275;0;
-2054.012;-854.3764;593.8904;-2277.185;-5.683844;-2.083323;-2672.257;-1126.364;0.1126247;-0.1869786;0;
-23903.61;-17700.38;338.0157;-27709;-1.056433;-1.813298;-25468.53;-13090.78;0.3074136;0.008111281;0;
-19425.79;-13786.38;-2.793403;-23450.24;-1.792306;-1.811476;-20717.94;-9094.456;0.3071047;-0.1218316;0;
-28258.2;-22351.54;-66.77406;-32113.89;-6.077412;4.687506;-29527.81;-17220.6;0.3067961;0.008225548;0;
-21694.44;-16907.53;-334.6973;-25870.85;-7.878991;7.228086;-22759.56;-13377.05;-0.01834884;0.8527927;0;
13476.82;11607.87;-466.3883;13428.56;-3.852586;1.259465;13816.9;9411.176;-0.08329774;0.7220011;0;
25022.31;18856.78;-174.4412;29874.42;-1.77261;1.794062;26565.37;14578.98;0.111688;0.3314717;0;
21940.08;16497.9;113.6206;26693.98;-13.09033;-3.298321;23323.43;12790.8;0.04660841;0.2012039;0;
24655.75;18937.94;119.1911;29405.24;-14.61742;-5.4384;26107.79;15106.82;-0.01840576;-0.1888023;0;
23341.72;18267.35;275.7269;27521.84;-9.847313;0.3274749;24488.95;14315.45;0.1115474;-0.448482;0;
-2170.062;-1024.113;579.0473;-2333.976;-10.17221;0.4611117;-2757.675;-1184.069;-0.01849935;-0.383064;0;
-24423.04;-18246.29;322.0319;-28269.08;-5.071775;2.871973;-25968.83;-13578.91;0.04648658;-0.1228097;0;
-19578.86;-13927.5;-6.907794;-23710.31;-5.334123;4.141702;-20852.01;-9225.279;0.3712766;0.07221568;0;
-28192.8;-22293.19;-49.80116;-32157.16;7.329913;4.874352;-29437.77;-17143.99;0.2409688;-0.3176609;0;
-22158.86;-17310;-320.6931;-26472.02;13.75291;6.476984;-23210.68;-13811.59;0.04582468;-0.4472764;0;
13135.7;11367.6;-477.3544;12968.11;-7.628098;2.116707;13476.83;9112.382;-0.08415604;-0.05702295;0;
25061.8;18908.42;-198.4991;29866.13;-9.83026;0.9758707;26599.66;14621.42;-0.01910414;0.2029037;0;
21827.93;16379.59;89.16526;26548.78;-10.69104;1.912651;23210.21;12696.02;0.0458824;0.3976019;0;
24581.98;18860.32;95.90036;29312.98;-15.70414;-0.2326635;26037;14994.99;-0.1490657;0.137333;0;
23096.54;18061.66;259.5498;27169.11;0.1191248;3.719441;24222.52;14171.92;0.04598607;-0.2526091;0;
-2945.49;-1699.763;563.9016;-3305.01;3.200464;4.251567;-3558.417;-1710.529;0.3058092;-0.1224206;0;
-25312.41;-19111.63;293.7205;-29268.78;-1.893943;-4.661191;-26850.62;-14189.71;0.1105999;-0.1222975;0;
-20974.05;-15354.48;-43.62402;-25189.73;0.9883484;-6.398063;-22239.77;-10233.46;-0.1493806;-0.187142;0;
-30123.99;-24242.93;-84.54397;-34148.81;-4.371279;-9.53971;-31381;-18928.95;-0.1492305;0.00794806;0;
-23459.63;-18590.57;-341.9546;-27956.92;-4.90275;-12.67826;-24540.02;-14891.32;0.1107888;-0.05702727;0;
12514.29;10782.43;-473.6384;12035.5;2.336821;-7.173044;12827.66;8842.063;0.1756449;0.007997374;0;
24598.27;18448.52;-184.948;29302.15;3.271502;-7.500751;26134.55;14146.68;-0.01943365;0.2028914;0;
21369.37;15923.22;92.87957;26109.03;6.952886;-6.354565;22755.01;12241.24;0.04555322;-0.2520839;0;
24188.46;18466.3;92.84872;28913.56;8.954656;-4.74059;25641.8;14569.81;0.1754421;-0.3167979;0;
22557.6;17557.89;251.8161;26462.27;7.472765;-10.69719;23684.78;13794.53;0.3701679;-0.1865449;0;
-4488.28;-3193.844;549.0073;-5089.957;8.738054;-11.28928;-5098.943;-2700.285;0.1748939;-0.3812595;0;
-27308.86;-21099.73;269.8769;-31256.97;4.307669;-9.536384;-28819.88;-15875.28;-0.2150859;-0.1859744;0;
-22091.31;-16455.15;-86.24661;-26261.7;3.298962;-9.459819;-23311.91;-11190.86;0.0449996;-0.1857875;0;
-30937.17;-25048.47;-124.1721;-34943.34;0.6836791;-8.44563;-32168.8;-19641.44;0.04495439;-0.1856009;0;
-24534.49;-19618.41;-360.8033;-28990.81;-4.273501;-7.834298;-25601.84;-15876.65;-0.3448948;0.2043897;0;
11992.38;10338.69;-508.4601;11429.22;12.47531;-6.352862;12307.72;8493.86;-0.2146136;0.139217;0;
24562.63;18419.28;-230.4481;29222.71;16.28116;-5.4757;26092.43;14116.57;0.2403734;-0.1857596;0;
21274.82;15820.35;76.27003;26050.22;-4.432799;-1.853181;22661.14;12108.16;0.3700666;-0.05563829;0;
24102.96;18381.8;110.1138;28831.85;-7.709899;1.095808;25554.95;14520.79;-0.2150113;0.0743523;0;
22538.91;17539.86;292.349;26488.59;-8.036944;-3.460011;23658.22;13695.45;-0.1498279;-0.1206244;0;
-4054.631;-2742.441;580.6758;-4594.646;-11.44512;-3.188602;-4676.887;-2475.489;0.4350287;-0.05553589;0;
-26715.82;-20498.35;271.4662;-30610.47;-7.012991;1.704234;-28226.58;-15343.13;0.3046569;0.0744546;0;
-22089.71;-16448.72;-87.54807;-26162.29;-6.603803;2.841231;-23299.81;-11116.59;-0.2803553;0.009412446;0;
-30694.1;-24801.02;-123.9886;-34640.4;-7.869965;5.986513;-31925.49;-19398.24;-0.2151063;-0.05556436;0;
-23669.88;-18757.37;-382.4372;-28012.06;-6.991401;7.588027;-24733.51;-15111.77;0.1099466;0.07442616;0;
12415.92;10763.49;-520.0929;12060.85;-5.243064;7.915318;12743.82;8816.82;-0.1500333;0.07435138;0;
24581.46;18437.14;-208.4142;29322.86;-4.835654;8.845064;26113.75;14129.22;-0.2148499;0.009309327;0;
21477.62;16021.01;92.65961;26241.07;1.398496;7.898477;22864.31;12312.42;0.2401374;0.3341367;0;
24329.53;18613.71;99.11008;29052.82;4.076408;7.957523;25784.42;14755.59;0.3048635;0.2038663;0;
22843.29;17828.42;275.5468;26895.7;-2.156979;5.136305;23961.94;13945.82;0.1746225;0.008759385;0;
-3606.537;-2306.427;570.762;-3971.136;-2.02109;3.322666;-4218.279;-2146.391;0.1094797;0.26862;0;
-26032.09;-19823.02;270.0737;-29919.72;-6.104896;6.199471;-27552.14;-14839.54;-0.08553237;0.07344802;0;
-20815.08;-15196.25;-71.40115;-24951.3;-8.9118;5.590456;-22065.74;-10074.17;0.04448825;-0.05656047;0;
-29587.13;-23687.25;-100.7053;-33557.97;-0.7985213;4.379147;-30833.14;-18345.22;0.4342476;0.4632351;0;
-23330.89;-18490.27;-361.2387;-27691.88;0.6088006;3.7719;-24378.63;-14895.54;0.4987786;0.3978023;0;
12673.45;10894.08;-503.1479;12344.83;-5.085238;0.2851195;13022.57;8845.299;0.1084734;-0.1223362;0;
24835.31;18675.95;-207.1347;29578.1;-5.682365;-1.523706;26376.61;14371.14;-0.346407;-0.05724589;0;
21451.11;16007.36;97.93584;26188.24;-2.997338;-1.65608;22834;12317.51;-0.4110263;0.2676484;0;
24314.7;18589.36;124.4022;29043.48;-3.128048;-3.262006;25773.77;14699.93;-0.3456459;0.2024121;0;
22789.43;17778.74;281.4638;26780.7;-1.584664;-2.856831;23906.08;13966.04;-0.2153639;0.267176;0;
-3961.565;-2684.349;556.6207;-4436.453;-0.8461372;-2.452063;-4579.634;-2319.895;0.1096892;0.2669076;0;
-26563.72;-20371.67;279.4192;-30514.59;-2.520226;-8.477941;-28076.05;-15203.04;-0.2152578;0.2666394;0;
-21722.07;-16110.7;-62.20562;-25916.22;-1.378618;-9.608071;-22965.75;-10852.4;0.1097952;0.4612735;0;
-30719.29;-24849.64;-115.0696;-34731.64;-8.544529;-5.110682;-31952.41;-19448.18;0.5644563;0.3308753;0;
-24027.93;-19102.66;-375.4637;-28500.02;-11.28261;-3.297069;-25066.7;-15423.9;-0.215719;0.005706131;0;
12231.5;10588.04;-512.0488;11727.76;-0.01813981;-4.968268;12563.55;8639.57;-0.02060018;0.07066774;0;
24404.87;18262.41;-220.1183;29101.17;1.523096;-4.896293;25937.13;13946.67;0.3042572;-0.25424;0;
21136.1;15687.4;71.78438;25883.44;0.9183531;6.830335;22525.84;11999.83;-0.3457219;-0.5788212;0;
24007.19;18269.45;100.0886;28731.49;2.792464;10.7754;25466.2;14367.5;-0.2804072;-0.1884356;0;
22162.43;17240.46;275.0407;26070.46;-2.903769;7.549457;23264.19;13483.77;0.04471128;0.1365905;0;
-5164.969;-3705.685;555.8105;-5767.967;-4.708536;9.551298;-5800.23;-3176.775;0.2395684;0.006518548;0;
-28151.19;-21900.41;261.431;-32085.21;-1.153832;3.781291;-29625.55;-16604.02;0.3692623;0.07147934;0;
-23399.84;-17756.55;-119.2498;-27551.17;-1.755885;0.9643298;-24564.34;-12423.3;0.303924;0.3312769;0;
-32394.64;-26500.01;-190.7971;-36383.93;-1.955191;6.991642;-33596.4;-21118.4;0.3685859;0.2659767;0;
-25496.03;-20539.97;-444.5559;-30053.57;-0.479358;6.180821;-26547.09;-16735.15;0.1083462;0.005840052;0;
11550.23;9989.11;-567.9688;10793.53;-12.60266;2.557654;11875.56;8240.385;-0.4115014;-0.2540352;0;
24397.84;18266.27;-241.2495;28986.35;-17.27905;2.086204;25928.29;13936.97;-0.2811532;-0.3187473;0;
21001.22;15541.27;68.13435;25786.46;-1.788998;-4.881934;22390.94;11845.87;-0.02100137;-0.1884923;0;
23886.64;18160.37;89.0241;28612.33;-0.3133316;-7.422319;25345.5;14242.76;0.04398708;-0.2532702;0;
22068.07;17131.08;271.4054;25850.91;-3.661919;-5.740349;23154.8;13422.4;0.04394288;-0.1880484;0;
-5703.262;-4268.325;543.5583;-6485.419;-2.787584;-7.810991;-6365.166;-3497.185;0.1738334;-0.1228921;0;
-28658.07;-22415.63;223.8757;-32604.6;-6.201034;-3.181442;-30136.54;-17023.29;0.4335281;-0.0578013;0;
-23682.35;-18023.41;-154.9559;-27781.7;-6.061081;-3.51316;-24825.86;-12728.9;0.3681251;-0.1227106;0;
-32610.21;-26700.42;-212.3494;-36601.46;-13.02024;-2.571869;-33803.88;-21296.89;0.2378206;-0.3174893;0;
-25365.04;-20430.23;-455.9041;-29818.37;-16.02127;-1.698506;-26402.83;-16600.71;-0.2171898;-0.2522029;0;
11788.88;10189.62;-567.6083;11213.92;-9.843227;-11.14121;12141.91;8460.61;-0.2819389;0.007919847;0;
24532.15;18393.69;-231.8471;29181.21;-10.16813;-13.20643;26068.86;14067.49;0.2380831;0.07287923;0;
21294.88;15840.36;82.08752;26058.47;-7.277524;-17.54692;22680;12135.68;-0.2169275;0.007838659;0;
24223.47;18492.6;103.1507;28950.71;-5.261456;-20.67743;25683.17;14588.2;-0.3466442;0.007830783;0;
22236.77;17305.92;282.9254;26124.12;-8.47135;-17.64248;23335.05;13567.89;0.1734429;0.07279026;0;
-5421.257;-3971.656;550.7719;-6054.044;-7.658555;-18.36157;-6066.348;-3273.676;0.1083012;-0.05721757;0;
-28189.86;-21940.74;229.083;-32103.79;-8.722587;-13.45349;-29666.21;-16583.32;0.2381271;0.007807267;0;
-23425.96;-17765.8;-146.8802;-27506.82;-9.182337;-10.35881;-24574.01;-12473.76;0.1729205;-0.1221353;0;
-32516.84;-26607.2;-201.6112;-36471.13;-6.694863;-14.0324;-33716;-21214.16;0.1077794;-0.3818819;0;
-25140.21;-20206.41;-459.3727;-29612.57;-7.358698;-13.01356;-26193.26;-16479.16;0.1726384;0.0732732;0;
11952.59;10351.45;-594.1401;11366.38;-2.863325;-7.240075;12286.91;8501.349;-0.1523717;0.4630036;0;
24526.45;18387.39;-256.8217;29180.47;-0.8507162;-5.15639;26056.71;14053.79;-0.0872513;0.2676364;0;
21248.58;15795.52;70.78743;26015.79;-10.02689;-3.208765;22633.97;12089.98;-0.02219629;0.07246543;0;
24105.09;18369.44;98.88964;28831.98;-11.69078;-0.928182;25561.15;14461.09;-0.08714133;0.2023273;0;
22226.22;17322.34;294.9885;26121.35;-8.196406;-3.807454;23319.66;13560;-0.08705376;0.4619934;0;
-5400.732;-3894.031;588.2477;-5996.443;-7.652307;-3.803629;-6051.037;-3288.99;-0.1519336;0.3315945;0;
-28382.89;-22121.75;280.0456;-32256.7;-10.52501;-2.192216;-29859.3;-16808.54;-0.08681363;0.006424571;0;
-23295.74;-17646.9;-99.18591;-27360.2;-11.25039;-2.725877;-24442.27;-12345.76;-0.2166611;0.006418116;0;
-31891.22;-25975.24;-173.0959;-35853.77;-4.541279;1.764596;-33094.33;-20586.2;0.04342599;0.1363464;0;
-24640.13;-19721.91;-444.3949;-29012.49;-2.861776;3.705328;-25683.29;-16061.62;0.04338235;-0.12366;0;
12145.93;10519.07;-560.7178;11758.76;-2.256665;-2.929583;12503.4;8605.052;0.04333876;0.00639892;0;
24627.35;18484.06;-222.699;29347.28;-1.115321;-3.864401;26165.8;14158.06;0.3681319;0.3312292;0;
21426.95;15973.8;79.65412;26183.96;-1.918484;-0.5784149;22814.42;12265.83;0.2378273;0.07102701;0;
24315.08;18582.54;100.1263;29068.05;-1.916556;-0.5778337;25777.93;14685.86;0.04268634;0.005988301;0;
22368.76;17438.53;283.777;26275.26;-4.058084;0.293525;23465.62;13637.45;0.1076108;0.330819;0;
-4866.618;-3402.497;563.1326;-5448.549;-4.924663;-0.1086675;-5505.473;-2915.564;0.3024047;0.3954539;0;
-27633.98;-21376.15;262.6394;-31459.22;-11.21538;2.905613;-29090.57;-16089.53;0.04223147;0.07021987;0;
-23225.56;-17572.96;-107.7978;-27186.72;-15.55836;3.77341;-24352.81;-12241.49;-0.02277831;-0.2546874;0;
-31772.7;-25851.86;-175.7491;-35632.08;-7.638502;-0.2492353;-32947.9;-20441.58;0.3670486;0.07040522;0;
-23916.08;-19019.55;-427.2428;-28258.36;-7.630827;-0.3829507;-24932.04;-15355.24;0.2367451;0.2652365;0;
12505.75;10825.52;-535.6182;12109.76;-13.85245;-4.736334;12871.55;8878.969;-0.08832946;-0.1248341;0;
24594.84;18444.25;-222.8463;29324.07;-14.50909;-6.138217;26135.26;14113.47;-0.153208;-0.2546433;0;
21395.2;15949.8;54.87871;26165.52;-18.24458;-4.725408;22786.32;12250;-0.08808676;-0.1894201;0;
24215.79;18477.2;75.64123;28967.12;-19.36533;-5.658421;25681.41;14572.33;0.2368385;-0.2541971;0;
22325.02;17417.35;278.1197;26284.57;-18.40786;1.112419;23431.96;13633.08;0.1716331;0.07089501;0;
-4911.262;-3417.098;573.0668;-5419.106;-18.45671;3.991446;-5537.035;-2888.901;0.1064933;0.005856435;0;
-27629.14;-21375.36;273.9067;-31463.72;-14.75447;1.174274;-29090.68;-16079.51;0.041419;-0.5788555;0;
-22841.74;-17214.22;-89.5922;-26865.14;-13.33313;2.847606;-23993.65;-11883.33;0.1063447;-0.3184045;0;
-31449.54;-25543.61;-142.7567;-35386.64;-8.831754;3.64854;-32643.82;-20137.42;0.3011399;0.1366868;0;
-24078.6;-19193.28;-399.1093;-28434.81;-5.339279;4.314642;-25106.76;-15631.44;-0.02399941;-0.05835256;0;
12429.05;10734.21;-530.5951;12111.14;-10.55883;6.319734;12783.28;8692.065;-0.4137793;0.07164075;0;
24653.58;18499.44;-219.0308;29408.77;-11.08408;5.844564;26190;14169.43;-0.2184615;0.07156876;0;
21347.13;15902.63;80.83555;26093.97;-2.83392;10.05849;22734.58;12203.75;-0.08830736;-0.2533399;0;
24345.87;18605.54;101.2284;29090.35;-0.4875242;10.98615;25806.34;14692.45;-0.2831207;0.07175141;0;
22407.21;17499.92;287.8922;26319.95;-8.189218;5.214699;23501.71;13708.93;-0.1529015;0.201614;0;
-4722.771;-3232.972;585.9842;-5325.662;-9.855928;4.606613;-5377.324;-2708.898;0.1720889;0.006509391;0;
-27026.09;-20772.98;294.0418;-30924.46;-6.094981;-0.4216134;-28512.37;-15487.22;0.1069486;-0.3833012;0;
-22640.86;-17000.17;-88.21788;-26672.36;-7.160583;-2.095702;-23797.57;-11688.62;-0.1530282;-0.577818;0;
-31259.38;-25337.53;-171.7747;-35223.58;-8.091393;-2.495494;-32459.73;-19931.93;0.2369296;0.07243593;0;
-23289.15;-18392.19;-426.0836;-27628.71;-9.824575;-4.435431;-24324.05;-14831.97;0.4315935;0.1373305;0;
12748.98;11064.67;-537.5367;12516.95;-9.345213;5.080359;13113.76;9029.631;-0.2834809;-0.1876442;0;
24608.75;18454.91;-219.2813;29385.09;-9.671592;7.419596;26149.27;14132.44;-0.4780981;0.007446359;0;
21518.42;16071.07;88.81557;26251.11;-16.76182;6.742311;22900.8;12356.97;-0.2177483;-0.1224958;0;
24367.08;18634.89;109.216;29111.99;-17.88308;8.878929;25829.25;14735.04;-0.3474642;-0.1873401;0;
22607.31;17665.08;286.5015;26575.78;-21.34871;5.855897;23699.55;13822.83;-0.02227835;-0.1221845;0;
-4145.707;-2704.206;581.3153;-4635.892;-22.46536;5.983979;-4802.992;-2333.84;0.4325154;-0.3819311;0;
-26302.98;-20069.3;288.2376;-30171.8;-16.88308;4.303393;-27815.28;-14857.26;0.04227678;-0.0567106;0;
-21712.25;-16104.15;-51.78754;-25747.22;-15.32587;2.892489;-22928.39;-10802.63;-0.2826024;0.2032158;0;
-31021.87;-25103.81;-78.56577;-34919.87;-8.679042;5.032975;-32248.78;-19684.68;-0.1523838;0.1380442;0;
-23899.04;-19041.86;-351.1779;-28188.34;-5.120347;4.492054;-24926.26;-15428.26;-0.02229596;0.2028729;0;
12664.09;10903.28;-516.5073;12417.14;0.7119464;4.822455;13023.7;8891.818;-0.0872409;0.1377017;0;
24932.52;18776.67;-220.6212;29712.77;6.069866;5.152524;26470.97;14446.88;-0.1521206;0.3974327;0;
21714.93;16272.93;87.27395;26474.95;0.5714101;2.602057;23097.79;12549.66;-0.4768044;0.2670987;0;
24716.45;18991.92;108.4724;29449.68;2.111077;1.795647;26173.6;15110.94;-0.7361947;-0.1229738;0;
22997.94;18017.88;278.6685;27078.68;0.9698803;3.669304;24111.01;14130.09;-0.2157162;-0.1228502;0;
-3569.815;-2215.937;573.6931;-3887.512;-1.107199;3.665617;-4205.932;-1935.324;0.3042392;-0.2526615;0;
-25466.31;-19238.82;302.7057;-29320.85;6.864516;0.7817897;-26988.16;-14170.87;0.3039335;-0.3173749;0;
-21160.02;-15525.85;-34.72584;-25213.91;5.986963;-1.295467;-22380.13;-10407.14;0.6934322;0.26765;0;
-29987.85;-24054.8;-81.13635;-33970.35;7.387466;4.533228;-31214.9;-18702.37;0.4978334;0.4622831;0;
-21797.39;-17003.94;-341.9549;-26069.18;7.915907;6.069281;-22818.98;-13688.98;-0.4771769;0.1369819;0;
13947.4;12066.82;-478.3239;13978.94;-3.746345;-2.443467;14333.3;9719.004;-0.6066322;0.2018116;0;
24997.09;18823.69;-177.5879;29867.98;-6.154454;-2.641961;26542.66;14514.68;-0.2162186;0.3315435;0;
21887.96;16458.36;102.9652;26571.17;-13.44929;-6.926092;23267.06;12744.25;0.04386806;0.07134101;0;
24757.02;19022.24;107.422;29499.36;-17.45426;-9.39744;26218.8;15138.07;-0.02114336;0.1362367;0;
22917.82;17950.13;294.4699;26907.84;-13.14982;-0.2115798;24014.89;14025.79;0.04384523;0.1360998;0;
-3144.479;-1757.779;589.7443;-3655.083;-14.20833;0.1235475;-3802.206;-1613.183;-0.3460029;-0.1888737;0;
-24636.56;-18399.97;300.6717;-28635.96;-6.02238;7.022482;-26170.56;-13437.12;-0.6704919;0.006218122;0;
-19990.9;-14371.66;-53.2808;-24150.02;-2.868497;10.76641;-21235.33;-9385.506;-0.1500795;0.1361466;0;
-28918.31;-22979.4;-122.0208;-32991.85;-3.401478;2.114976;-30169.47;-17680.62;-0.2798634;0.006075073;0;
-21318.56;-16639.61;-389.3575;-25660.05;-1.79047;2.112851;-22336.16;-13375.38;-0.5394515;0.3309057;0;
14208.59;12160.19;-504.4551;14188.79;3.502615;-2.377007;14610.82;9710.646;-0.1491054;-0.05923087;0;
25174.5;18983.88;-180.7513;30031.03;7.853352;-5.656721;26723.78;14682.63;-0.08398826;-0.4489754;0;
21885.35;16468.56;107.2388;26560.76;-6.01964;0.9131684;23259.37;12758.58;-0.08390386;0.2011492;0;
24796.13;19052.11;109.7391;29515.06;-7.621181;1.247104;26256.53;15154.06;-0.2787216;0.3308817;0;
23058.76;18068.76;285.759;27075.27;-4.599414;-2.103173;24169.32;14163.26;-0.2784415;0.005712535;0;
-3087.385;-1779.785;580.308;-3563.098;-7.27411;-1.699162;-3732.185;-1706.797;0.3065443;0.07067414;0;
-24858.71;-18648.34;319.0123;-28911.71;7.066815;-3.372028;-26395.32;-13691.59;0.241269;-0.1242989;0;
-20480.69;-14848.63;-4.177236;-24715.3;9.471588;-3.904504;-21715.81;-9796.47;-0.08381017;-0.4490107;0;
-29568.7;-23654.64;-57.03709;-33671.25;9.127278;1.323966;-30799.7;-18358.83;0.04620874;-0.2536575;0;
-22138.96;-17343.26;-327.2502;-26610.26;11.73007;2.32738;-23172.07;-13832.2;0.2410643;-0.05850062;0;
13492.92;11620.24;-473.6757;13273.86;-0.1370802;6.076025;13862.49;9444.179;0.1758548;0.07149284;0;
24897.79;18725.45;-192.0911;29686.35;-3.419472;9.619893;26442.79;14403.83;0.3705801;0.1363884;0;
21789.09;16364.63;87.35221;26458.45;-0.2682045;1.371509;23170.24;12654.81;0.4351751;0.3311533;0;
24649.2;18898.11;96.55664;29357.46;0.1342066;0.9013115;26114.56;14990.73;-0.08500093;0.6556573;0;
22700.13;17794.87;259.6745;26610.54;-12.72568;6.526789;23780.08;13940.75;0.04501916;0.3951291;0;
-4069.138;-2585.265;555.9832;-4697.922;-17.40194;7.123077;-4752.611;-2315.364;0.3698106;0.1998301;0;
-26417.38;-20154.22;293.9154;-30470.31;1.236071;11.46969;-27905.82;-14977.81;-0.020365;0.134662;0;
-22197.67;-16548.14;-61.96684;-26424.65;5.053222;13.33369;-23357.74;-11237.12;-0.1502792;-0.1253427;0;
-31514.04;-25585.55;-124.1389;-35634.09;3.976418;14.92782;-32715.82;-20202.86;-0.02019354;-0.2551515;0;
-24012.61;-19142.37;-381.2443;-28518.74;7.723466;17.39119;-25037.55;-15604.33;-0.08514059;-0.3198625;0;
12699.2;10962.67;-523.3208;12371.05;8.317943;12.48402;13064.21;8864.493;-0.2149897;-0.1896064;0;
24755.47;18599.71;-216.0585;29510.69;10.85518;11.86863;26293.15;14258.57;0.110063;-0.2543832;0;
21291.96;15856.33;89.64562;25982.04;8.567097;16.07657;22672.99;12151.2;0.3698218;-0.5139969;0;
24254.34;18506.28;105.3445;28956.6;8.156347;16.66326;25717.62;14577.99;-0.02035386;-0.1236764;0;
22350.6;17493.84;292.3946;26210.51;13.30572;15.84272;23411.66;13696.46;-0.02033341;0.07134987;0;
-5070.51;-3477.456;594.9017;-5771.731;14.96729;15.75982;-5782.438;-2994.838;0.1096217;-0.1236238;0;
-27287.54;-21026.12;293.1897;-31390.43;8.789328;18.3562;-28811.5;-15760.35;-0.02042313;0.006435051;0;
-22652.75;-17060.81;-93.61378;-26924.07;7.039184;18.9406;-23862.84;-11760.67;0.2394668;-0.1884734;0;
-32025.39;-26103.08;-158.6432;-36153.75;14.46685;17.18013;-33265.07;-20730.31;0.4341282;-0.3182187;0;
-24049.63;-19217.52;-412.6217;-28624.27;15.32297;16.56002;-25086.53;-15631.22;0.0438879;-0.3828663;0;
12812.33;11017.81;-542.3604;12344.87;12.29346;16.4764;13172.77;9000.333;-0.08609088;-0.2525469;0;
24551.93;18388.07;-214.7299;29274.48;11.87995;15.52208;26087.46;14039.39;-0.02103703;0.1375109;0;
21296.82;15863.78;91.5664;26017.28;12.13545;13.96588;22676.28;12150.62;0.3687882;0.1373727;0;
24306.6;18559.43;109.1999;29015.76;11.92219;12.94716;25763.51;14627.77;0.4333849;0.397104;0;
22199.05;17315.82;300.9468;26110.94;8.360235;10.85774;23280.28;13538.28;-0.3466586;0.7215418;0;
-5071.856;-3545.292;587.9063;-5681.097;7.413829;10.177;-5759.497;-2937.515;-0.4112777;0.006175953;0;
-27290.37;-21044.65;297.8361;-31238.71;4.727063;5.478096;-28805.2;-15717.62;0.1738417;-0.318667;0;
-22709.02;-17072.37;-77.52468;-26750.48;1.976623;2.190489;-23870.35;-11776.52;0.04373232;-0.3183468;0;
-31420.64;-25464.98;-171.1965;-35379.04;9.208305;12.63738;-32618.36;-20057.18;0.1086557;-0.2530595;0;
-23097.38;-18319.63;-428.8481;-27387.8;9.601194;14.63411;-24124.24;-14887.69;-0.08635549;0.3319008;0;
13359.19;11489.27;-539.0334;13264.97;5.304639;9.19391;13738.55;9297.871;-0.6060075;0.461502;0;
24937.49;18767.33;-204.5815;29769.08;4.227582;10.99315;26478.34;14434.64;-0.1506271;0.006266883;0;
21689.69;16257.71;101.5016;26408.74;2.013508;5.824541;23067.9;12525.78;0.2393283;-0.1236741;0;
24689.96;18951.49;91.82626;29426.37;1.073479;6.019637;26152.32;15072.21;0.04418576;-0.05858249;0;
22900.66;17976.07;264.038;26945.65;-4.085163;8.893793;23998.72;14046.65;0.04414136;0.07141106;0;
-3449.164;-1959.511;574.0074;-3832.978;-5.622276;9.085806;-4103.032;-1795.621;0.1090643;-0.1885301;0;
-24630.81;-18371.06;317.6685;-28514.5;-4.879692;19.32482;-26155.13;-13452.11;0.2388894;-0.3832426;0;
-19924.87;-14317.59;3.179156;-23952.8;-4.941162;21.24791;-21146.05;-9421.521;0.3036168;0.006946484;0;
-28736.94;-22778.51;-54.63873;-32692.23;-5.137268;28.05857;-29965.26;-17506.55;-0.08649237;0.07190684;0;
-20325.89;-15755.3;-333.6311;-24538.42;-7.409282;31.37953;-21339.5;-12570.52;-0.4762095;0.1368019;0;
14937.83;12756.6;-460.6381;15065.39;9.142582;21.97063;15337.4;10227.22;-0.4107637;0.5264685;0;
25306.34;19114.22;-178.7229;30212.3;13.7551;20.87683;26858.4;14818.89;0.04442045;0.07116813;0;
22301.5;16889.11;81.90385;26999.2;8.31529;12.21523;23681.21;13146.48;0.1743105;-0.2537401;0;
25248.65;19513.79;93.33139;29988.79;15.07209;8.184045;26705.99;15679.1;-0.02076667;-0.0585831;0;
23462.6;18436.91;274.5059;27590.22;-7.649415;4.89378;24597.19;14381.92;0.1091889;-0.2534263;0;
-1640.588;-347.9057;576.8904;-1925.068;-9.584112;0.6020162;-2237.018;-646.4026;0.5638506;-0.1882043;0;
-21883.37;-15636.2;325.6399;-25828.46;-0.1973591;7.031651;-23424.51;-11363.23;0.4333493;0.2017889;0;
-17041.28;-11392.64;24.26087;-21151.75;-4.484068;6.421739;-18311.27;-7345.93;-0.02185751;0.1366188;0;
-25730.45;-19744.74;-19.9288;-29773.01;43.01024;12.1757;-26986.7;-14827.19;0.1730665;0.2014489;0;
-17904.89;-13505.9;-292.9903;-22024.57;58.70813;15.3116;-18891.42;-10568.89;-0.2169115;0.2662138;0;
16048.59;13595.02;-411.5424;16471.86;34.26784;8.330111;16520.63;10718.69;-0.6064976;0.4608483;0;
25738.93;19530.82;-125.9285;30699.2;37.24752;8.120792;27304.9;15291.24;0.2386873;0.3304506;0;
22709.89;17318.21;122.5888;27342.13;32.85584;8.715479;24076.37;13575.23;0.3683821;0.005281816;0;
25603.43;19862.56;121.9347;30338.54;28.26847;8.170857;27062.32;16035.14;-0.2816614;0.3301132;0;
23957.24;18902.03;299.4104;28076.99;28.44114;5.215521;25086.9;14800.91;-0.02150905;0.2648142;0;
-714.7723;495.4998;601.2389;-1020.154;23.38872;3.535707;-1318.434;-108.2134;0.433284;0.06964607;0;
-20709.58;-14460.61;347.8868;-24771.49;18.07393;4.001035;-22279.24;-10525.7;0.4978159;0.3294455;0;
-16094.05;-10410.21;28.33835;-20329.71;13.83524;2.322502;-17394.15;-6728.211;0.4323484;0.2641471;0;
-25028.66;-19017.91;-19.40052;-29160.44;7.726742;5.401322;-26299.93;-14251.42;0.1070772;0.133947;0;
-17148.35;-12851.81;-273.2534;-21346.77;4.637519;5.797731;-18139.22;-9963.557;-0.1528997;0.3287144;0;
16465.98;13860.87;-405.4747;16867.67;4.364439;1.170206;16944.33;10893.32;-0.0228114;0.3933515;0;
25713.49;19506.13;-133.7974;30667.34;3.489398;0.5661835;27278;15285.93;0.1721136;0.3929562;0;
22823.8;17443.57;117.0079;27445.55;3.553241;-2.180564;24185.72;13700.79;0.2369079;0.4575287;0;
25693.05;19953.34;99.89886;30431.08;0.8030044;-3.71898;27151.87;16126.89;0.1717026;0.1322323;0;
23922.04;18841.15;272.7115;28061.51;20.227;-2.174636;25053.46;14734.69;0.3014647;-0.2577046;0;
-364.1038;748.3824;575.8319;-600.6705;27.44132;-3.043229;-960.2643;112.2627;0.2361945;-0.127511;0;
-20178.23;-13940.72;322.2399;-24120.15;3.233523;0.1749488;-21744.35;-10066.61;-0.02391223;-0.1273829;0;
-15644.29;-9940.092;29.6255;-19754.72;0.8184001;1.581354;-16951.35;-6412.169;0.2359812;0.002679795;0;
-24463.21;-18445.82;2.093932;-28473.74;0.7502288;-2.640038;-25737.54;-13753.71;0.1707767;0.1975791;0;
-16805.9;-12426.9;-271.2552;-20864.65;-3.737527;-2.704368;-17787.58;-9605.057;-0.02429692;0.3273153;0;
16520.6;14004.04;-429.6372;17017.79;7.653082;-2.098866;17005.52;10974.61;0.3005642;0.1320844;0;
25896.47;19698.13;-154.1875;30883.16;9.788847;-2.632559;27464.12;15499.49;0.04039283;-0.3877871;0;
23023.4;17625.01;117.1124;27679.22;3.2813;-0.01764048;24390.47;13870.42;-0.4793865;0.002406617;0;
25876.58;20176.09;101.3463;30633.66;3.881216;0.3172919;27334.04;16397.28;-0.3489701;0.1323389;0;
24430.64;19231.91;270.2689;28643.65;3.475174;1.522605;25589.84;15050.55;0.2360866;0.002271224;0;
761.8193;1642.008;594.6779;649.6427;1.73037;3.530502;215.3838;747.1124;0.7555881;0.2621383;0;
-18303.58;-12097.91;360.479;-22173.9;8.158993;-2.903224;-19851.11;-8837.134;0.4299922;0.002005544;0;
-13509.28;-7716.245;66.48315;-17544.9;6.810648;-3.637119;-14812.51;-5042.063;-0.0901786;-0.3228332;0;
-22323.31;-16274.05;37.44654;-26269.75;10.28741;-0.08343012;-23604.06;-11896.63;-0.2200227;-0.4524435;0;
-14643.64;-10617.65;-222.8353;-18577.43;13.09011;-0.7531756;-15614.53;-8029.689;-0.2198016;-0.5819235;0;
17736.45;14797.07;-376.3934;18415.01;-6.749994;6.481555;18261.37;11490.45;-0.1546134;-0.4514041;0;
26145.34;19949.48;-141.8673;31174.65;-8.283453;8.283521;27721.68;15817.08;-0.2843927;-0.5159179;0;
23433.59;18052.65;86.80099;28074.8;-17.38481;5.930855;24795.67;14302.61;-0.2191396;-0.3854648;0;
26346.24;20651.6;84.69917;31101.53;-23.59663;6.795674;27804.28;16886.37;-0.08898474;-0.2551428;0;
24760.98;19485.44;276.8612;29001.43;0.1387935;0.626538;25928.52;15284.7;-0.3487647;-0.1899191;0;
2000.165;2620.077;598.9834;1909.169;1.276754;-1.450501;1472.981;1589.141;-0.2184796;-0.1247609;0;
-16147.29;-9994.216;366.0609;-20078.59;18.55682;-2.52071;-17699.91;-7192.98;0.2365113;-0.2545703;0;
-11825.1;-5971.878;64.70369;-15902.24;27.78158;-4.862519;-13143.59;-4029.12;0.1713064;-0.3192818;0;
-20918.33;-14848.15;33.31067;-24918.22;8.396206;-3.718984;-22214.46;-10753.21;0.1061669;-0.1890263;0;
-13144.55;-9263.777;-196.8415;-17063.24;10.53122;-5.054845;-14114.53;-6843.954;-0.2187765;0.1360003;0;
18440.57;15308.39;-337.9789;19241.45;-5.286843;-3.30827;18988.22;11814.94;-0.1535893;0.200831;0;
26314.51;20126.76;-112.2526;31358;-10.77389;-2.568134;27893.94;16053.77;0.1714017;-0.1242075;0;
23668.7;18292.45;123.398;28277.85;-5.471776;-8.058032;25024.84;14525.4;-0.3485093;0.2657214;0;
26467.98;20798.55;117.4488;31211.49;-10.95863;-9.925396;27923.16;17057.11;-0.5430611;0.3304217;0;
25153.21;19766.47;285.6369;29400.95;12.49567;-4.824842;26330.75;15543.73;-0.08774403;0.005252988;0;
2986.841;3310.891;601.2535;2923.714;17.50696;-4.01626;2468.182;2074.582;0.2371808;-0.1896543;0;
-14871.44;-8882.262;381.3065;-18922.99;10.99166;-9.236772;-16451.3;-6470.506;0.1070078;-0.2544311;0;
-10125.53;-4319.407;115.588;-14421.12;14.46421;-9.763292;-11482.03;-2991.89;-0.3478711;0.2655633;0;
-19008.95;-12950.41;119.626;-23154.8;0.6509504;-9.418629;-20346.86;-9160.938;-0.08765217;0.3952312;0;
-11920.76;-8279.556;-121.9978;-15880.01;-3.23447;-9.409164;-12912.33;-5894.229;0.3672073;0.1349647;0;
18832.5;15443.05;-283.1379;19664.11;-0.1497608;-8.863847;19392.96;11877.28;0.04200162;0.004894346;0;
26432.36;20274.34;-72.20925;31473.96;-1.355059;-8.720975;28013.93;16214.85;0.1069268;-0.1250453;0;
23900.7;18520.78;141.5996;28481.83;-8.252574;-4.425426;25253.01;14778.61;0.431656;0.3298518;0;
26655.15;20999.15;122.7168;31397.39;-10.45508;-3.081321;28109.04;17253.79;0.3012876;0.264553;0;
25217.2;19780.18;275.0325;29478.74;-1.535971;0.4718097;26398.42;15569.7;0.4958869;-0.3204189;0;
3594.997;3703.457;590.9409;3547.608;0.5416774;3.954326;3089.048;2520.292;0.560356;-0.1901623;0;
-13787.4;-8003.131;386.7151;-17854.4;7.038844;-3.48457;-15357.69;-5644.856;-0.02491315;0.1998329;0;
-9462.209;-3887.904;118.6017;-13805.83;11.71984;-4.083915;-10807.16;-2586.437;-0.02488812;0.5894361;0;
-18271.47;-12308.09;126.9783;-22432.2;7.354787;2.283445;-19595.45;-8550.808;0.3649409;0.1990398;0;
-10782.74;-7214.903;-106.3602;-14627.29;6.0746;3.486783;-11729.62;-5219.402;0.1047049;-0.1909642;0;
19421.53;15904.59;-282.9145;20395.44;18.45973;5.760638;20034.33;12117.32;0.169567;0.1990317;0;
26587.77;20439.26;-74.65665;31653.96;21.38892;7.764338;28174.94;16465.56;0.234364;0.2637991;0;
24080.34;18708.14;146.5884;28659.51;5.291522;8.359322;25429.73;14953.19;-0.09070823;-0.06130273;0;
26771.9;21128.98;115.4567;31520.02;2.875307;10.36041;28229.91;17403.69;0.1042849;0.003726215;0;
25479.45;20001.02;265.0311;29762.05;-4.161156;9.747153;26668.82;15808.51;0.2990822;-0.06124487;0;
3867.103;3861.028;591.9128;3888.834;-8.376534;10.07227;3381.152;2634.148;0.0389123;-0.3210527;0;
-13539.54;-7875.626;397.3999;-17594.15;-3.612695;14.81782;-15110.37;-5571.563;0.2987426;-0.1907954;0;
-8832.742;-3451.698;137.6935;-13234.41;-4.479721;16.00862;-10200.67;-2303.245;0.5583118;0.004298318;0;
-17791.33;-11923.99;146.2539;-21996.18;4.901903;15.99254;-19143.2;-8169.028;0.3628487;-0.2555754;0;
-10923.27;-7404.051;-87.35387;-14811.62;8.982815;16.6463;-11911.82;-5139.963;-0.02731991;-0.5151879;0;
19208.8;15610.84;-270.221;20140.83;9.577001;12.87859;19788.14;11959.44;-0.1572271;-0.3197682;0;
26496.09;20361.54;-85.46409;31549.91;12.64884;10.78918;28079.17;16359.89;0.2327349;0.00538977;0;
23975.14;18623.33;127.1556;28541.23;16.45354;15.13216;25324.61;14892.84;0.1025664;-0.1245503;0;
26711.56;21046.6;118.657;31441.35;19.38475;15.51886;28167.32;17328.66;-0.09243873;-0.3842945;0;
25175.43;19756.65;281.4871;29426.63;11.46104;7.532479;26355.83;15573.34;0.3624255;0.005895644;0;
3372.297;3478.392;587.2692;3316.343;8.435414;5.649388;2853.868;2292.309;0.4270287;-0.05907762;0;
-13852.93;-8035.911;384.7337;-17941.63;13.45078;6.648455;-15452.52;-5709.176;0.296665;-0.1239856;0;
-9532.117;-3914.03;133.4108;-13871.28;11.6286;5.704014;-10903.22;-2675.009;0.2313995;0.2659431;0;
-18502.32;-12521.22;109.9916;-22698.88;13.35823;8.377539;-19846.33;-8792.339;-0.2236044;0.07077378;0;
-10777.67;-7188.658;-145.4125;-14701.3;16.76106;9.440847;-11735.25;-5203.819;-0.1584124;0.005735328;0;
19335.52;15843.82;-294.0822;20289.17;-7.168565;10.16817;19951.42;12058.95;-0.09328584;0.3955336;0;
26326.75;20187.37;-83.20506;31381.12;-14.19396;11.76549;27912.06;16239.46;-0.2880941;0.07029948;0;
23914.82;18567.45;130.2088;28463.08;6.718001;13.89706;25258.8;14834.63;-0.2878047;-0.1896405;0;
26570.59;20903.37;127.4074;31298.64;6.175387;16.29448;28026.81;17194;-0.3524828;-0.0595153;0;
25032.73;19667.7;293.8363;29276.55;20.10163;13.86672;26208.24;15501.98;0.1026428;0.005511847;0;
3011.506;3250.147;596.4045;2945.789;28.45418;13.31692;2501.123;2094.497;0.1025396;0.07047365;0;
-14491.6;-8646.5;384.6145;-18621.04;6.187742;21.9441;-16069.21;-6242.231;-0.2873675;0.2003375;0;
-9690.959;-4065.938;126.7325;-14095.17;5.511939;24.13248;-11049.36;-2853.534;-0.09217668;0.005234196;0;
-18587.53;-12585.27;134.9603;-22813.46;2.492291;19.75447;-19916.56;-8795.116;-0.02711673;0.1351636;0;
-11520.47;-7850.203;-99.97917;-15448.8;-3.337363;20.06953;-12455.26;-5521.545;-0.02708948;0.1350278;0;
18829.44;15425.79;-278.414;19758.23;15.28651;17.37005;19453.97;11807.39;-0.1569969;-0.2549119;0;
26258.1;20113.23;-73.44024;31296.45;17.48098;16.14702;27846.34;16131.89;-0.2218065;-0.1896884;0;
23631.1;18296.79;143.79;28181.48;13.11014;17.6043;24983.23;14601.23;0.2331877;-0.1245305;0;
26301.41;20616.65;130.9957;31036.27;16.84801;17.11773;27766.33;16899.36;-0.09188329;0.07049666;0;
24678.88;19382.54;304.9796;28885.77;-0.1154827;16.76562;25849.49;15261.37;-0.1567583;0.3302952;0;
2057.468;2519.55;585.2509;1928.469;-4.535996;16.01208;1552.23;1421.153;0.2332033;0.3299633;0;
-16034.72;-9893.557;343.2217;-20071.82;8.060864;18.60821;-17570.03;-7157.308;-0.1568351;0.2646644;0;
-11893.3;-5989.213;87.72384;-16076.02;7.182109;18.72347;-13195.77;-4057.186;-0.02674284;-0.2553402;0;
-21028.11;-14977.69;69.30116;-25130.04;13.40418;19.30751;-22318.76;-10858.67;-0.02671597;-0.320051;0;
-12997.16;-9176.455;-188.795;-17006.24;15.46682;20.8957;-13962.85;-6809.526;-0.3515258;-0.05986008;0;
18294.12;15117.98;-329.2534;19083.51;13.50889;13.03782;18863.39;11595.54;0.2985008;-0.1247673;0;
25861.23;19701.09;-86.35697;30881.98;17.0453;11.88607;27447.44;15711.89;0.03833149;0.2651622;0;
23330.68;18003.76;125.0455;27892.23;1.421755;12.94579;24686.95;14318.7;-0.5464131;0.1999284;0;
26114.5;20411.94;102.0407;30837.16;-1.727506;11.05732;27574.43;16703.31;-0.02612532;-0.06014189;0;
24314.38;19131.32;287.3606;28506.01;4.637242;21.76318;25479.48;15034.43;-0.02609907;-0.06008146;0;
1068.06;1845.592;578.8939;904.0659;1.685822;24.82253;541.9794;803.942;-0.09104019;-0.1899558;0;
-17393.06;-11146.73;329.3124;-21438.67;20.2373;20.71175;-18942.22;-8240.758;0.233888;-0.4496343;0;
-12822;-6955.727;58.71109;-17022.4;26.51361;22.96823;-14128.13;-4775.434;0.1037183;-0.5141498;0;
-22218.39;-16150.94;40.05207;-26345.89;16.17184;16.84983;-23495.81;-11852.9;-0.0263206;0.006105539;0;
-14742.92;-10679.22;-222.8404;-18771.32;19.83928;14.68957;-15674.38;-7942.406;-0.2861635;0.1360341;0;
17431.65;14501.69;-377.1951;18178.15;8.90101;22.04268;18015.37;11219.76;-0.4158107;-0.1889393;0;
25763.69;19584.88;-122.8656;30763.32;4.337715;21.41781;27342.3;15547.2;-0.4803602;0.006152564;0;
23031.76;17701.64;114.4199;27594.83;21.41364;23.94152;24385.47;14042.37;-0.02510614;0.07111372;0;
25857.59;20155.67;99.37495;30579.95;21.45947;25.05617;27318.53;16441.87;0.4946578;0.006074926;0;
23996.59;18850.16;290.6633;28161.71;21.7727;17.32808;25145.46;14786.79;0.1043567;0.3309056;0;
301.1448;1202.112;594.2966;121.2951;21.88454;16.30593;-250.1804;248.3689;-0.3505195;0.2006384;0;
-18526.8;-12280.6;334.3298;-22533.97;18.51365;11.13204;-20091.81;-9001.263;-0.3501673;0.4603061;0;
-14405.31;-8591.281;26.91383;-18560.19;21.04065;7.972718;-15725.41;-5706.12;-0.2198808;0.5897783;0;
-23734.41;-17691.43;-36.28458;-27816.94;-5.237805;13.45718;-25021.42;-13134.24;0.3000789;-0.3203571;0;
-15428.44;-11299;-291.12;-19487.88;-13.33687;13.24271;-16403.91;-8588.152;0.4297121;-0.4499699;0;
17158.14;14333.21;-405.7229;17821.85;3.890537;15.50683;17682.49;11131.27;-0.2203931;0.07022096;0;
25541.84;19367.99;-156.9869;30534.98;2.011594;17.76855;27111.71;15315.13;-0.4800411;-0.3196536;0;
22874.22;17541.19;96.3717;27454.5;14.66825;14.2677;24227.9;13894.28;-0.4145914;-0.3842998;0;
25675.97;19972.3;121.1686;30399.89;19.67735;15.25811;27131.45;16259.62;-0.2842401;0.005890401;0;
23818.7;18716.15;298.5826;27965.83;11.75433;16.31438;24958.78;14675.39;-0.02408512;-0.05908286;0;
-376.6443;615.3387;573.1757;-569.0322;12.61317;16.03018;-952.0381;-86.83701;0.1708411;0.07091119;0;
-19452.43;-13197.82;306.4679;-23428.7;11.99728;21.57341;-21015.01;-9668.84;-0.08919992;0.265742;0;
-14573.78;-8772.09;26.58173;-18705.21;13.19068;21.88665;-15882.22;-5818.602;-0.608849;0.005605578;0;
-23800.29;-17741.86;-5.834946;-27835.83;0.3840509;23.87414;-25093.26;-13153.64;-0.2184332;-0.1893021;0;
-15967.34;-11782.72;-285.9383;-19907.65;-3.232681;25.32378;-16924.59;-9004.599;0.106623;0.2006922;0;
16954.55;14194.68;-418.2718;17708.3;4.137958;16.05481;17508.89;11046.47;-0.1533535;0.5253273;0;
25633.49;19459.98;-143.3645;30639.23;3.799007;14.43121;27207.21;15406.23;0.1066699;0.1349953;0;
22872.36;17536.18;104.8424;27458.76;9.957131;10.79969;24225.72;13890.37;0.1065628;-0.1250097;0;
25778.73;20088.49;102.2539;30511.59;11.15355;7.97562;27236.45;16402.41;-0.08844634;0.005050615;0;
23876.96;18748.84;284.9655;28059.11;20.25105;12.52232;25023.27;14678.91;0.4313813;0.3298823;0;
-108.5358;858.3909;576.2357;-254.2449;24.31654;11.97394;-666.4387;97.19973;0.5608825;0.4594855;0;
-18571.9;-12301.78;328.2655;-22529.9;14.78126;17.18639;-20127.66;-9061.997;-0.02438716;0.2641218;0;
-13841.31;-8005.962;81.94989;-17939.22;13.89575;19.44654;-15146.72;-5508.501;-0.08933;0.3288237;0;
-23122.4;-17049.1;74.4494;-27157.19;9.393808;15.87703;-24409.9;-12667.43;0.04069445;0.3284933;0;
-14921.07;-10796.96;-207.3432;-18864.93;6.838774;15.59315;-15880.01;-8177.731;0.1056209;0.1982286;0;
17297.33;14463.04;-368.6161;18117.82;2.277551;18.72555;17857.49;11155.4;0.3653841;-0.1917747;0;
25364.8;19194.6;-118.6369;30390.55;-0.6051257;19.77846;26943.18;15178.14;0.365017;-0.2565493;0;
22814.79;17491.57;120.0968;27374.4;4.419324;13.46232;24165.11;13860.64;0.2347155;0.06854516;0;
25611.37;19908.14;96.48791;30351.04;5.754055;12.77896;27072.2;16186.63;-0.1553244;-0.3213278;0;
23553.42;18472.87;265.0874;27649.7;5.6819;8.881232;24683.17;14479.09;-0.3500703;-0.2560376;0;
-596.6479;438.674;567.294;-880.9589;6.345776;6.193052;-1182.156;-214.5456;-0.2197839;0.2639585;0;
-19664.35;-13408.96;312.836;-23681.22;17.25774;16.76983;-21228.34;-9731.905;-0.08962835;-0.1261108;0;
-15127.71;-9344.979;23.30764;-19290.2;20.52195;19.23135;-16441.63;-6105.007;0.2352984;-0.06101678;0;
-24389.22;-18338.92;-4.217581;-28476.64;23.38172;17.06857;-25678.58;-13611.16;0.235062;0.1989139;0;
-16413.16;-12201.4;-256.6177;-20476.01;28.85058;18.85996;-17389.09;-9318.587;-0.1549782;0.003812007;0;
16450.16;13722.41;-378.8139;17067.71;13.3489;20.38161;16967.11;10675.14;-0.2847572;0.1337429;0;
25135.12;18965.31;-112.7075;30109.56;12.6659;22.10257;26701.53;14895.14;-0.4144058;0.3934779;0;
22285.19;16960.32;126.4262;26863.11;13.52383;22.01338;23637.1;13348.59;-0.543924;0.1981805;0;
25152.78;19441.6;112.4468;29867.82;11.29944;23.19695;26605.07;15712.95;-0.2185408;0.00307929;0;
23159.12;18124.21;288.261;27254.24;24.61732;23.10666;24290.86;14178.22;-0.1533539;-0.06189115;0;
-1703.04;-571.89;580.7929;-1993.445;24.19142;22.94948;-2294.134;-963.2971;-0.1531998;-0.256731;0;
-21299.59;-15046.2;309.2049;-25327.99;37.7638;28.08398;-22871.7;-10987.02;0.1068235;-0.5163423;0;
-16850.86;-11122.09;1.002115;-20999.61;40.94103;29.59637;-18155.06;-7392.552;0.2366509;-0.3858889;0;
-26046.88;-20013.53;-50.11382;-30114.08;21.40872;29.43266;-27327.73;-15116.85;0.2364131;0.394107;0;
-17472;-13096.62;-311.2447;-21494.09;13.41563;31.41245;-18440.67;-10260.31;-0.1536285;0.4586783;0;
16053.76;13519.27;-415.192;16725.5;7.909789;27.16109;16580.1;10532.16;-0.4133435;0.06841338;0;
24960.61;18790.06;-132.8541;29936.59;0.132309;27.20078;26525.65;14718.3;-0.08809149;0.133312;0;
22195.06;16858.11;116.0138;26761.24;-23.11005;29.24992;23546.06;13243.79;0.04193171;0.1981454;0;
25116.52;19417.93;110.7436;29838.53;-31.79436;28.68467;26569.98;15707.38;-0.02307776;0.3278809;0;
23039.51;18017.66;295.5237;27139.33;-48.44056;35.421;24166.58;14066.02;0.1718474;0.1976168;0;
-1898.614;-700.5482;585.3778;-2152.686;-58.50692;36.72495;-2496.185;-1030.826;0.3016095;0.06748356;0;
-21021.36;-14755.62;295.1696;-25008.94;-34.93748;38.69753;-22598.24;-10846.37;-0.0235303;0.3922525;0;
-16042.74;-10289.25;-9.067999;-20165.97;-31.82092;41.80672;-17347.99;-6918.005;-0.08847401;0.326891;0;
-25096.63;-19026.69;-32.14103;-29144.76;-17.38798;29.57419;-26383.88;-14241.35;0.2364516;0.1316605;0;
-16388.23;-12253.98;-273.4718;-20418.02;-7.390176;26.73119;-17363.46;-9469.764;0.3661487;-0.06337383;0;
16762.57;13960.77;-384.3443;17435.87;-8.454477;33.26853;17295.33;10881.04;0.2358461;0.06662454;0;
25118.13;18951.29;-123.589;30112.72;-1.680828;32.76622;26685.67;14899.04;-0.08922758;0.001590252;0;
22368.88;17045.6;119.9129;26937.86;-8.779086;33.00123;23716.92;13421.4;-0.1541053;-0.3882154;0;
25313.88;19615.47;112.6241;30039.61;-9.105057;32.70014;26769.54;15934.58;-0.02401574;-0.06298861;0;
23308.61;18245.38;278.6775;27399.69;-6.282869;33.47108;24433.25;14220.39;0.1059431;0.06700937;0;
-949.3132;145.1802;568.3455;-1246.707;-5.67432;32.63365;-1547.562;-422.7498;0.365706;-0.322862;0;
-19529.52;-13247.73;314.4954;-23526.19;-13.43815;34.14147;-21107.71;-9745.264;0.3003712;-0.2575703;0;
-14560.71;-8757.454;47.64152;-18671.65;-15.29968;34.44208;-15881.46;-5931.196;0.1701347;-0.2573115;0;
-23444.09;-17361.53;43.37702;-27514.09;-8.117989;25.76679;-24747.75;-12801.61;0.1049964;-0.1271182;0;
-15059.18;-10988.03;-201.9808;-19020.45;-8.377275;23.39662;-16037.02;-8333.609;0.1048909;0.2628136;0;
17087.57;14215.15;-328.2455;17879.67;5.629965;18.95236;17624.89;10991.24;0.2996875;0.1326148;0;
25181.76;19025.19;-88.95765;30192.58;10.5808;14.64653;26753.22;15019.76;0.2993864;-0.1923552;0;
22657.59;17324.67;118.3088;27214.38;4.340878;21.73176;24006.96;13693.86;0.1041835;0.002740143;0;
25492.04;19822.92;97.57533;30219.15;5.006102;22.04484;26944.14;16161.27;0.1040789;0.00273739;0;
23641.59;18462.59;272.0614;27777.39;0.5140696;20.61605;24791.96;14417.59;0.2988763;-0.2571347;0;
-78.81182;742.1277;563.8131;-305.6046;-2.83535;23.20767;-633.8191;55.56627;0.1686413;-0.1269417;0;
-18491.24;-12280.81;321.54;-22485.34;-1.895472;16.15126;-20061.18;-9005.389;-0.2213322;0.003120561;0;
-13451.73;-7595.769;61.64424;-17569.87;-2.294733;15.93409;-14773.41;-5191.19;-0.4809791;-0.06184991;0;
-22140.91;-16059.82;41.04574;-26213.35;-19.30634;22.95116;-23440.95;-11683.16;-0.2855938;-0.1267551;0;
-14032.33;-10151.16;-221.7697;-18008.89;-25.51623;23.66491;-15003.81;-7512.153;-0.3502742;-0.3864971;0;
17548.38;14461.91;-354.7767;18346.46;-13.63424;34.55911;18102.46;11155.45;-0.3499223;-0.4510761;0;
25295.91;19148.39;-112.7917;30309.21;-14.02269;39.0791;26871.82;15162.4;0.1701681;-0.1257862;0;
22706.03;17388.59;112.7552;27254.8;-8.44889;35.6237;24054.85;13769.62;-0.08987228;-0.1906271;0;
25533.14;19854.18;116.4681;30255.24;-4.154469;38.33421;26989.38;16196.71;-0.284684;-0.06050088;0;
23693.57;18526.62;316.1569;27815.11;-10.71438;31.86545;24835.66;14477.64;0.04043876;0.2643966;0;
258.7204;1075.083;626.3394;-8.476444;-9.430814;30.09188;-305.8773;239.2716;0.04039813;0.06922893;0;
-17905.68;-11660.32;380.5208;-21951.75;-6.875742;33.61174;-19468.33;-8606.054;0.04035754;0.06915937;0;
-13159.61;-7281.091;100.7008;-17311.47;-6.199248;32.10434;-14473.13;-4999.309;0.1702517;0.06908988;0;
-22289.01;-16196.95;71.22372;-26388.14;-3.982217;37.63154;-23582.92;-11840.78;0.3649826;0.1339878;0;
-14230.24;-10304.75;-188.8265;-18264.6;-3.844493;39.73718;-15190.57;-7709.392;0.4295832;0.3287552;0;
17452.42;14391.26;-339.8577;18194.06;2.12024;31.45848;18010.06;11056.67;-0.1555545;-0.06137919;0;
25167.88;19016.78;-100.4332;30164.37;5.668084;30.22117;26741.53;15053.46;-0.4802349;0.3284866;0;
22520.48;17208.87;127.1939;27059.39;-7.063637;32.33426;23869.3;13593.15;-0.0899483;0.5230585;0;
25436.04;19752.26;83.55676;30141.2;-9.668508;30.49323;26893.76;16092.76;-0.02489058;-0.1271405;0;
23567.36;18420.24;252.4504;27652.95;-2.156704;36.15602;24707.19;14405.27;0.04010177;0.00292194;0;
-179.6262;688.8386;579.9382;-474.026;-3.562033;36.92348;-748.9031;-82.53406;0.4298655;-0.06204834;0;
-18535.95;-12288;343.9582;-22569.33;3.742564;30.85804;-20098.78;-9026.924;0.2994989;-0.1269533;0;
-13926.23;-8068.083;66.97038;-18056.69;6.820262;29.95626;-15233.23;-5503.354;0.3641653;0.06807625;0;
-23014.66;-16937.84;51.72321;-27103.65;-3.033204;25.57239;-24303.28;-12468.31;0.4937341;-0.2568288;0;
-14555.17;-10610.68;-199.0777;-18611.5;-2.225873;23.80526;-15528.61;-7960.724;-0.1564354;0.1982006;0;
17312.76;14309.27;-345.2885;18029;-9.658376;22.17375;17855.95;11027.31;-0.286213;0.4578708;0;
25040.08;18898.67;-116.4782;30037.62;-13.93558;20.54388;26614.57;14925.39;-0.3508927;0.06760669;0;
22501.31;17182.01;113.086;27041.83;3.828291;23.60445;23850.03;13575.8;-0.4804748;0.06753876;0;
25393.73;19717.6;110.8953;30107;6.972276;23.51375;26849.87;16072.68;-0.5449594;0.1974056;0;
23503.79;18351.63;292.5987;27594.43;4.21958;27.30803;24639.83;14331.69;-0.4144771;0.002305201;0;
-65.64223;811.8144;595.8396;-372.3629;7.22945;28.48628;-642.3685;14.23163;0.04071077;-0.1276318;0;
-18333.66;-12098.78;336.3398;-22378.83;1.46141;27.85481;-19909.77;-8888.073;-0.08926482;0.00243113;0;
-13699.5;-7864.587;45.52286;-17856.95;0.7230071;28.22872;-15033.55;-5337.501;-0.1541425;0.06739603;0;
-22634.76;-16564.04;29.28213;-26767.46;3.602669;24.44931;-23945.46;-12121.9;0.3007838;-0.1275737;0;
-14185.91;-10339.97;-214.2655;-18254.44;2.795742;23.01822;-15156.02;-7737.18;0.2355142;-0.1924129;0;
17495.38;14376.87;-349.7476;18222.69;7.279935;19.8469;18051.74;11065.02;-0.2844611;0.1975845;0;
25092.44;18954.29;-125.7586;30089.06;9.617145;17.54966;26669.11;14991.07;-0.41411;0.2623533;0;
22503.72;17199.37;88.43202;27030.38;3.110747;17.66599;23852.54;13604.96;-0.1538245;0.002220343;0;
25401.97;19711.86;81.9089;30096.63;3.576136;17.11238;26859.73;16064.98;-0.2836047;-0.1277166;0;
23452.8;18352.59;269.5291;27540.51;6.184511;12.87538;24586.67;14343.35;-0.02345032;-0.2575229;0;
-229.9818;739.0232;574.4642;-569.4894;7.250023;10.51804;-808.6863;-39.02545;0.5612793;-0.2572642;0;
-18570.11;-12293.87;316.7975;-22692.41;10.59262;20.08579;-20144.78;-9040.867;0.300846;-0.06210364;0;
-13955.12;-8115.785;35.839;-18173.02;10.17983;22.14207;-15278.65;-5456.315;-0.4790644;0.2627955;0;
-22851.7;-16757.77;29.77477;-27027;22.69456;17.96701;-24146.28;-12238.19;-0.4136157;-0.06230529;0;
-14380.9;-10476.22;-205.9335;-18456.17;26.22173;19.08754;-15336.15;-7904.999;-0.02339606;-0.2571447;0;
17343.9;14258.69;-331.8039;18091.28;14.47373;15.18347;17909.16;10957.53;-0.1533072;-0.06198431;0;
24989.08;18841.73;-91.49736;29979.47;12.24936;14.43141;26563.45;14888.9;-0.08818585;-0.06192203;0;
22360;17060.48;120.3788;26884.44;8.21759;15.75656;23703.84;13470.55;-0.2180319;0.06807487;0;
25316.53;19628.72;97.09756;30022.44;5.329921;15.13788;26773.5;15986.76;-0.2827802;-0.06192821;0;
23362.09;18263.97;269.7881;27433.72;-3.316599;18.8736;24487.04;14275.73;0.3671774;0.003101357;0;
-485.4987;490.0309;545.0817;-835.7623;-7.465476;19.99334;-1080.426;-158.7538;0.4967431;0.2629676;0;
-18581.35;-12321.66;297.3457;-22669.73;-6.118804;19.50437;-20159.91;-9014.189;-0.2183968;-0.38697;0;
-13769.64;-7939.431;59.55695;-17933.02;-8.658251;20.22159;-15090.13;-5376.487;-0.4130794;-0.6464506;0;
-23055.75;-16957.87;44.77013;-27162.57;-0.4105286;20.4692;-24350.41;-12450.81;0.04210711;-0.450899;0;
-14637.88;-10743.45;-213.7075;-18639.25;0.3931911;20.9845;-15590.83;-8099.65;0.1719995;-0.3205113;0;
17400.87;14317.62;-341.038;18185.35;4.41226;18.68599;17965.93;11045.65;-0.08804271;0.004647512;0;
25064.05;18926.28;-109.6864;30066.35;7.087144;17.52863;26636.7;14979.15;-0.2828563;0.1345775;0;
22449.45;17143.09;105.7531;26983.81;-2.097005;19.58736;23796.11;13554.74;-0.2176047;0.1994097;0;
25412.99;19740.28;100.1652;30118.43;-2.965554;18.62992;26871.16;16116.62;0.2373853;-0.1905948;0;
23411.17;18274.86;294.1232;27526.07;-9.325587;18.27641;24545.77;14270.04;0.4970162;-0.320338;0;
-2.710511;878.5791;599.2211;-289.4033;-12.06288;17.6552;-573.9247;75.07725;-0.02322197;-0.0601467;0;
-17966.69;-11702.98;348.9007;-22038.27;-13.591;14.28831;-19529.6;-8544.229;-0.283068;-0.1900209;0;
-13805.79;-7941.293;75.1251;-17955.78;-16.39039;13.40318;-15114.26;-5349.932;0.3019225;-0.05989533;0;
-22997.29;-16912.49;39.72362;-27112.5;-6.728375;9.571802;-24275.65;-12386.64;0.1716844;0.07009953;0;
-14164.33;-10282.41;-218.3585;-18180.44;-4.912953;8.021638;-15109.71;-7763.341;-0.4781615;-0.05990559;0;
17473;14375.69;-342.6702;18284.7;-3.166704;9.554124;18043.87;11039.96;0.04205771;-0.3197148;0;
24980.19;18839.22;-104.1644;29985.06;-0.2167612;9.276653;26559.64;14917.81;0.3668522;-0.3843608;0;
22459.09;17156.62;117.5633;26982.5;-4.235031;12.75038;23806.6;13575.91;0.1715815;0.2656988;0;
25306.14;19631.08;94.89399;30013.2;-4.298125;14.14409;26766.84;16012.58;0.3013438;0.2004645;0;
23397.87;18257.5;273.3339;27472.74;-0.8102056;14.0629;24529.43;14270.05;-0.02379571;-0.189541;0;
-207.415;653.871;575.8602;-531.5844;1.065643;14.45066;-788.4408;-46.21187;-0.2836412;0.0705188;0;
-18198.72;-11977.8;316.5835;-22306.45;-8.982136;19.45974;-19767.81;-8791.504;0.1064479;0.26535;0;
-13400.86;-7565.332;60.17532;-17639.7;-12.25564;22.18649;-14728.71;-5186.587;0.04137359;0.1351487;0;
-22896.47;-16819.15;46.12189;-27058.06;0.3489774;14.3943;-24192.03;-12329.16;-0.2835047;-0.1898239;0;
-14761.15;-10881.64;-233.9712;-18791.32;2.49208;14.44682;-15706.31;-8089.566;-0.2182525;0.00526891;0;
17257.7;14165.65;-364.4829;18027.81;-1.59626;13.76247;17821.3;10958.2;-0.02313115;0.3950677;0;
24966.73;18831.69;-118.943;29963.23;-1.192515;13.07881;26539.1;14884.96;-0.2829773;-0.4499047;0;
22240.2;16942.79;77.18737;26760.96;2.023864;20.76859;23588.31;13376.51;-0.6075296;-0.709322;0;
25259.48;19575.18;59.36873;29957.23;3.15993;23.22597;26718.29;15954.05;-0.1521478;-0.3188052;0;
23263.37;18170.08;269.7658;27327.43;1.08065;24.67625;24391.3;14193.42;0.1078744;-0.4484196;0;
-577.0768;393.4228;586.679;-949.108;1.414357;25.92413;-1164.828;-317.5444;0.1727334;0.006802358;0;
-18620.8;-12338.89;337.4958;-22725.82;-1.868618;31.72548;-20189.5;-9043.214;0.3024945;0.1367302;0;
-14297.68;-8459.446;67.68271;-18454.46;-3.74275;33.569;-15606.77;-5746.624;0.1072885;0.2015602;0;
-23847.1;-17758.22;43.65799;-27944.53;1.619645;28.51167;-25128.44;-13168.54;-0.217656;0.266325;0;
-15041.16;-11052.49;-211.2109;-19034.77;2.086532;27.4784;-15993.25;-8414.563;-0.0875026;-0.3836161;0;
17079.93;14092.81;-331.3757;17882.29;-0.4601837;21.42245;17639.4;10852.09;-0.152382;-0.3182632;0;
24703.86;18563.79;-90.3512;29704.78;-0.8618629;17.78397;26277.14;14634.28;-0.2821636;0.2017953;0;
22136.36;16834.07;116.9792;26663.57;-0.7272751;16.02454;23482.68;13270.36;0.04295664;0.07165783;0;
25042.6;19376.59;93.84195;29765.44;-0.6591953;13.06119;26503.04;15761.66;0.3027828;-0.1233162;0;
23073.71;17956.09;275.5625;27115.49;-2.333472;11.23965;24190.74;13992.86;0.04260924;-0.1881596;0;
-543.6443;368.5497;581.1631;-902.2057;-1.996335;8.817031;-1145.342;-254.2066;0.04256643;0.0718988;0;
-18614.59;-12372.76;335.3275;-22623.62;-5.879095;13.0949;-20183.37;-9013.501;0.107491;-0.1230755;0;
-13975.46;-8135.295;59.9725;-18093.13;-8.016642;14.22045;-15286.51;-5438.893;-0.2174537;-0.05798446;0;
-23138.87;-17066.61;31.67644;-27234.99;2.641334;9.718425;-24434.79;-12426.54;-0.2172352;0.4618126;0;
-14705.64;-10840.16;-223.3054;-18705.57;5.452695;9.641677;-15686.67;-8069.782;0.1078198;0.1365118;0;
17139.95;14044.95;-347.0187;17911.31;-1.787429;12.57924;17680.84;10863.44;-0.08719059;-0.5132987;0;
24810.17;18680.51;-100.0752;29815.48;-2.790011;14.17407;26388.27;14748.89;-0.3469723;-0.2529137;0;
22111.07;16817.79;118.1032;26648.41;3.709527;11.54761;23459.32;13265.84;-0.021787;0.3320466;0;
25027.74;19353.83;104.3976;29742.35;5.448088;11.73696;26487.62;15744.42;0.3030716;-0.05809115;0;
23099.64;17993.45;286.3731;27146.35;-4.939863;15.14117;24225.36;14039.52;0.107865;-0.3828695;0;
-596.6406;321.5541;567.6625;-970.6703;-9.020736;15.52786;-1188.717;-336.1772;-0.08714537;-0.1226154;0;
-18831.98;-12577.5;308.7377;-22880.65;0.7675923;20.80378;-20391.42;-9160.841;0.1078442;-0.3173942;0;
-14629.48;-8789.576;51.25983;-18755.49;1.637477;23.39509;-15926.65;-5862.586;-0.02219882;-0.252108;0;
-23890.47;-17811.71;39.1675;-27980.6;-2.918519;18.01307;-25162.1;-13096.57;0.04279083;0.3328514;0;
-15077.79;-11080.82;-207.5916;-19091.9;0.4333155;17.86101;-16027.16;-8379.512;0.1077152;0.2025823;0;
16893.48;13913.13;-335.6623;17639.21;-7.806142;17.77608;17446.79;10728.17;-0.3471645;0.07244405;0;
24579.56;18439.7;-99.58412;29560.23;-4.784189;16.75359;26152.77;14513.29;-0.08694625;0.07237126;0;
21888.81;16606.66;129.7757;26410.35;-4.913104;17.80836;23237.72;13058.81;0.1080431;-0.05763614;0;
24803.28;19111.19;112.2478;29505.73;-6.984272;16.71886;26264.37;15499.48;-0.02200011;0.1373238;0;
22759.28;17754.39;271.4612;26785.59;34.28326;18.64445;23879.96;13823.51;0.2378914;0.2671205;0;
-1623.974;-456.7416;556.3264;-2051.968;45.0998;18.82666;-2222.608;-995.9998;0.2376523;0.3318194;0;
-20064.24;-13745.4;296.6007;-24175;43.51326;15.25777;-21616.69;-10138.23;0.04251151;0.331486;0;
-15260.61;-9443.322;30.0303;-19431.43;51.64122;14.77356;-16545.32;-6373.728;0.1074361;0.1362509;0;
-24530.97;-18425.66;18.28726;-28673.4;29.75362;12.28047;-25796.63;-13676.87;0.2372629;0.07114667;0;
-15808.46;-11769.04;-245.5672;-19843.75;25.10203;11.39735;-16733.19;-9000.626;0.1070898;0.1360425;0;
16691.77;13757.19;-383.5791;17458.51;17.50834;10.58211;17273.37;10634.02;-0.2828219;0.2008732;0;
24574.1;18430.65;-117.2024;29552.75;7.576788;8.762934;26147.45;14490.24;-0.152603;-0.05919803;0;
21799.56;16516.4;135.5228;26304.58;14.66912;16.12213;23144.33;12982.32;0.3672891;-0.2540406;0;
24773.12;19084.99;119.5976;29470.41;11.10441;17.64641;26235.3;15465.61;0.36692;0.006084051;0;
22598.2;17597.6;281.6147;26567.94;4.395446;14.48061;23700.36;13688.4;0.301584;-0.1888241;0;
-1784.28;-604.1317;551.8832;-2294.025;2.113854;15.53778;-2405.843;-1036.604;-0.2184578;-0.318569;0;
-20047.56;-13743.7;287.3989;-24200.68;1.643215;9.761762;-21613.88;-10011.39;-0.348173;-0.2532816;0;
-15603.35;-9800.429;19.11982;-19796.54;1.305795;7.876492;-16901.6;-6577.385;0.1719156;-0.4479291;0;
-25023.75;-18930.21;-21.05108;-29187.64;5.256598;10.6818;-26303.05;-14099.88;-0.08812649;-0.3175444;0;
-15890.41;-11845.63;-272.7003;-20035.13;9.337153;9.666323;-16865.09;-9058.163;-0.28294;0.1375461;0;
16569.96;13659.46;-372.5322;17202.81;-0.1830731;12.67072;17095.73;10572.04;-0.347623;0.4622446;0;
24321.08;18182.61;-117.0049;29288.48;-1.389314;13.72972;25891.08;14245.54;-0.1523717;0.3968128;0;
21646.32;16364.09;115.3709;26170.4;15.09013;11.37164;22994.58;12831.91;0.1726181;0.2015121;0;
24591.78;18895.62;110.9134;29284.42;18.75866;12.36483;26049.46;15287.62;-0.02245735;0.3312443;0;
22417.17;17456.06;286.3856;26408.1;19.4094;7.998703;23525.89;13551.64;-0.08740213;0.4608461;0;
-2226.155;-968.1617;556.1027;-2677.128;21.6007;5.981178;-2839.557;-1372.621;-0.217249;0.265481;0;
-20680.48;-14360.89;276.9809;-24771.96;20.90941;15.95544;-22231.28;-10601.81;-0.3469654;-0.05962245;0;
-15632.89;-9852.238;5.479506;-19811.39;21.62533;18.28369;-16925.52;-6663.502;0.1081546;-0.1894972;0;
-24888;-18795.48;-10.6429;-29012.61;13.16351;14.71535;-26165.47;-13982.56;0.302948;0.07056255;0;
-16304.92;-12177.04;-266.2537;-20333.32;10.13617;16.71005;-17236.89;-9321.41;-0.08716045;0.2004264;0;
16324.6;13501.7;-396.2176;17038.41;11.13037;10.93285;16892.88;10449.32;-0.1520402;0.3301596;0;
24414.62;18270.72;-138.6519;29387.31;10.71802;9.046339;25983.62;14329.3;-0.3467895;0.1349259;0;
21575.99;16289.64;107.8792;26103.23;4.209536;18.74953;22921.26;12765.03;-0.6712777;-0.3849485;0;
24498.02;18811.69;92.51287;29199.18;1.593337;20.13733;25959.06;15204.66;-0.2158318;-0.254627;0;
22390.81;17425.27;268.597;26383.44;16.12642;18.97839;23490.44;13525.09;-0.08568028;-0.1894038;0;
-2258.376;-982.3242;572.4711;-2719.092;19.66019;19.36122;-2886.493;-1399.084;-0.2155289;-0.5140501;0;
-20755.68;-14443.43;318.8824;-24851.83;19.10457;19.07383;-22318.29;-10609.49;0.04455706;-0.188697;0;
-16105.81;-10335.24;42.26339;-20250.58;21.49725;19.38958;-17394.31;-6948.348;0.1094796;0.1363294;0;
-25348.33;-19247.42;-5.551935;-29456.72;21.81044;14.48046;-26618.72;-14382.45;0.174337;0.2011597;0;
-15961.74;-11979.56;-275.0827;-20018.21;22.92663;12.85833;-16905;-9249.481;0.1741618;0.460827;0;
16749.14;13763.21;-372.9757;17453.11;20.22427;12.97937;17311.39;10662.78;-0.1508499;0.3953966;0;
24420.9;18284.51;-105.7351;29401.76;20.73982;12.09555;25994.73;14358.08;-0.475535;0.1351299;0;
21724.35;16446.41;125.1614;26250.43;13.61903;11.27972;23071.54;12917.62;-0.2801552;-0.1248752;0;
24700.94;19017.15;119.2729;29405.27;11.1271;9.928731;26164.6;15425.6;-0.02000434;-0.4495865;0;
22523.54;17535.91;285.3195;26520.19;17.27884;17.48758;23622.28;13619.3;0.1099504;-0.2542327;0;
-1705.938;-499.0097;557.7083;-2175.565;16.59091;20.61821;-2332.941;-976.227;0.304742;0.005892133;0;
-19815.45;-13499.22;304.8059;-23902.52;23.87526;11.95681;-21366.48;-9886.235;-0.02040092;0.07085355;0;
-15231.96;-9427.512;52.09531;-19331.8;25.59258;11.00716;-16509.3;-6370.439;-0.2152824;0.005815019;0;
-24498.8;-18390.31;39.79911;-28554.73;26.63859;13.87625;-25767.82;-13599.82;0.1097706;0.2007112;0;
-15333.64;-11432.62;-221.2191;-19328.4;29.22477;11.98678;-16270.7;-8662.508;-0.08524174;0.7852156;0;
16921.43;13849.43;-360.6454;17660.38;14.32495;18.80687;17492.45;10731.2;-0.2150908;0.4595899;0;
24526.83;18397.88;-124.2141;29506.58;8.951922;20.12763;26100.66;14486.25;-0.1499073;-0.1905453;0;
21874.91;16593.87;95.12862;26403.66;18.78954;9.323402;23220.17;13057.78;-0.2796914;-0.1253865;0;
24792;19124.96;80.7121;29485.72;19.03908;6.567795;26249.36;15557.19;-0.214443;0.06964151;0;
22785.38;17721.32;259.7129;26836.12;10.91465;3.346076;23905.57;13759.39;-0.1492602;0.06957153;0;
-952.4542;90.19246;550.6649;-1344.573;11.77434;-0.8770893;-1543.759;-582.4832;-0.3440122;0.06950162;0;
-18690.97;-12379.1;294.8336;-22796.67;6.739642;2.472878;-20253.1;-9145.516;-0.4736013;0.1343991;0;
-14165.14;-8308.653;34.43377;-18311.78;5.191652;2.135478;-15475;-5692.026;-0.2782233;-0.06063794;0;
-23430.64;-17317.35;38.06921;-27553.27;21.12862;-4.162941;-24724.18;-12752.16;0.04689293;-0.1905117;0;
-14266.89;-10444.04;-210.2193;-18243.61;24.1215;-4.828588;-15207.94;-7939.135;-0.01812153;0.1345165;0;
17443.28;14278.07;-342.0354;18305.44;31.06251;-6.900146;18030.88;10954.63;-0.08307067;0.264316;0;
24649.68;18534.18;-84.74277;29644.09;34.38118;-9.036605;26224.54;14664.78;-0.1479545;0.06914835;0;
22208.1;16924.23;135.7628;26696.21;34.7478;2.426312;23547.67;13391.73;-0.2127732;0.004111528;0;
25131.22;19481.62;114.6838;29816.86;38.53127;4.969165;26588.8;15908.09;0.1772446;-0.255762;0;
23045.96;17924.65;286.2167;27088.16;17.05802;2.887701;24155.65;13980.73;0.4369359;0.06933173;0;
-357.2243;480.0849;559.0106;-746.1389;12.01801;5.363107;-965.5815;-179.1018;0.04669282;0.3940988;0;
-18038.28;-11796.27;315.0087;-22182.05;12.13966;-2.21117;-19612.55;-8659.628;-0.2132235;-0.06106861;0;
-13818.61;-7923.409;56.19715;-18045;6.165614;-3.414581;-15137.79;-5518.079;-0.1480419;0.1988621;0;
-23320.77;-17200.03;15.64542;-27498.16;20.56038;-0.932842;-24622.88;-12653.09;-0.01795844;0.5884663;0;
-14335.7;-10568.4;-236.0407;-18345.74;21.6788;-1.601734;-15273.59;-7933.52;-0.08290774;-0.06179836;0;
17476.35;14225.82;-353.3694;18305.58;21.52329;2.016893;18071.86;10967.8;-0.2777264;-0.581475;0;
24822.79;18701.49;-123.3642;29804.24;23.31033;3.019549;26398.37;14836.88;-0.5373167;0.003815346;0;
22209.62;16943.14;96.38379;26702.29;19.26744;4.691088;23548.79;13409.13;-0.2769075;0.4585829;0;
25099.18;19440.22;87.44763;29781.99;20.05237;6.159938;26557.5;15885.69;0.3730442;-0.06161661;0;
23097.68;17979.59;264.2865;27157.51;8.912807;4.680185;24220.02;14023.26;0.6325387;-0.4513587;0;
-382.9301;492.4731;560.4656;-752.6213;4.818014;4.474534;-973.4128;-227.9849;0.5019684;-0.3209705;0;
-17865.95;-11587.03;314.3853;-22009.05;11.57833;5.943601;-19436.25;-8560.036;0.04669266;-0.06077866;0;
-13522.93;-7628.667;50.21762;-17728.44;12.30363;5.535731;-14842.02;-5350.935;-0.1482563;-0.06071759;0;
-23252.24;-17145.34;15.43463;-27424.21;6.999979;4.391521;-24544.69;-12661.72;0.04679471;0.004310758;0;
-14239.38;-10432.59;-253.0397;-18236.07;5.853869;4.588057;-15162.46;-7871.497;-0.278089;0.3291431;0;
17476.51;14282.54;-361.5276;18359.21;15.6946;-3.85622;18076.85;10946.38;-0.3427769;0.1988777;0;
24556.96;18440.5;-86.47433;29544.77;16.68321;-7.737233;26128.2;14593.04;0.1123389;0.06874321;0;
22042.86;16779.3;133.502;26512.54;26.7805;1.446959;23381.76;13260.65;0.2421607;-0.06126055;0;
24972.04;19296.9;94.6842;29657.06;33.78717;1.847402;26431.1;15726.71;0.04701534;-0.3860357;0;
22672.61;17643.95;267.8457;26666.16;13.32403;-1.97242;23784.97;13727.38;-0.2129013;-0.2557131;0;
-1059.367;-5.647292;557.384;-1553.045;11.70305;-2.037421;-1659.155;-648.8149;-0.08275267;-0.1904888;0;
-18753.69;-12443.92;292.3788;-22945.45;12.36088;-4.111784;-20312.72;-9143.471;-0.1476369;-0.2552648;0;
-14657.02;-8794.839;15.11484;-18868.99;7.659411;-4.710498;-15949.77;-6096.342;-0.3423905;-0.06010626;0;
-24402.36;-18281.49;-17.55581;-28597.28;29.55477;-3.768004;-25673.9;-13626.02;-0.01720979;-0.5797846;0;
-15165.22;-11244.14;-279.1879;-19206.61;35.28585;-2.692491;-16089;-8590.198;0.3076442;-0.3843;0;
17018.01;13937.27;-383.2924;17844.14;21.98753;-5.436025;17611;10729.21;0.1124331;0.6555636;0;
24446.88;18318.34;-99.51846;29423.62;22.5013;-5.36358;26021.3;14453.58;-0.277484;0.5249702;0;
21810.65;16545.72;131.2468;26291.94;22.1439;1.272937;23153.07;13034.92;-0.3421725;-0.06026336;0;
24734.17;19060.75;107.2207;29416.75;19.91182;4.017897;26193.94;15507.37;-0.01699196;-0.3200722;0;
22570.4;17561.61;277.8865;26575.63;26.65697;5.42044;23682.8;13642.84;-0.08194223;-0.2547832;0;
-1423.951;-286.1721;554.515;-1878.872;27.63456;7.692413;-2016.072;-830.2047;-0.1468272;-0.05962519;0;
-19071.23;-12744.45;302.3499;-23229.86;23.18616;10.16299;-20615.16;-9459.907;-0.01674502;-0.3194346;0;
-14310.93;-8467.194;53.92083;-18503.3;25.50739;11.09054;-15600.26;-5923.159;0.1132065;-0.2541463;0;
-23809.71;-17686.31;40.34219;-27974.87;10.67865;13.89256;-25081.73;-13058.29;0.0481254;0.3308151;0;
-14816.65;-10973.42;-222.5506;-18829.81;5.040868;14.74938;-15731.98;-8301.96;-0.08185764;0.2655154;0;
17107.95;13951.83;-367.9257;17953.57;28.41272;8.304317;17705.96;10729.62;0.04815929;0.07034655;0;
24415.36;18292.46;-131.5496;29404.19;31.19721;5.616716;25989.38;14441.59;0.1130782;0.3301452;0;
21897.51;16634.49;96.90531;26384.43;31.97015;6.280902;23240.46;13122.75;-0.2118721;0.2648462;0;
24849.69;19190.86;79.67593;29539.58;35.68907;5.001976;26311.32;15651.04;0.04821017;0.004710672;0;
22644.35;17575.34;263.4878;26657.93;24.73487;-2.036135;23762.49;13643.22;0.4379658;0.199608;0;
-1016.322;-8.659289;565.6179;-1467.437;22.09805;-4.512397;-1602.227;-619.2192;0.307591;0.3943094;0;
-18346.59;-12044.9;310.6931;-22495.84;22.41064;-2.83329;-19892.75;-8894.406;0.04741259;0.3289459;0;
-13846.17;-7977.333;41.78153;-18007.7;19.90987;-3.433289;-15144.62;-5612.567;-0.01760239;0.3935827;0;
-23576.3;-17453.44;26.34104;-27695.56;13.99537;1.459793;-24850.68;-12907.35;0.04738264;0.06835051;0;
-14524.2;-10702.77;-218.1875;-18476.37;10.6324;4.204565;-15434.58;-8115.472;-0.147567;0.1332492;0;
17257.78;14087.23;-354.1498;18150.53;12.69782;1.855999;17856.04;10787.86;-0.4072881;0.0031806;0;
24420.43;18311.37;-120.6612;29417.34;12.61772;2.45698;25992.75;14480.55;-0.3419115;-0.3216593;0;
21886.44;16620.92;101.9576;26376.34;9.658278;9.085639;23230.17;13116.78;-0.1466659;0.003500608;0;
24878.6;19221.06;72.94781;29567.5;9.180058;10.61712;26339.22;15687.07;-0.3414206;0.06846444;0;
22776.78;17723.02;241.243;26808.15;13.99263;10.53947;23896.67;13795.36;-0.4710122;-0.06153904;0;
-894.8647;102.8076;537.2423;-1291.207;13.77847;11.9354;-1482.923;-509.6301;-0.08073487;0.003490132;0;
-18217.96;-11935.09;294.0588;-22341.59;21.60151;4.421558;-19772.16;-8854.517;0.04928093;-0.3213501;0;
-13558.32;-7684.274;36.33027;-17750.1;24.59392;2.541654;-14859.44;-5468.958;-0.1456706;-0.2560599;0;
-23148.87;-17007.44;15.0232;-27307.92;14.58887;3.811715;-24431.49;-12536.3;-0.2104916;-0.1908352;0;
-14191.24;-10379.55;-245.9076;-18129;14.17207;3.071073;-15102.76;-7841.227;-0.2102801;-0.06070878;0;
17338.54;14130.03;-377.8129;18272.24;5.986154;1.192526;17950.95;10788.46;-0.4699382;0.2641889;0;
24413.9;18298.91;-123.5608;29406.9;2.095373;-0.8850824;25986.88;14487.04;-0.469466;0.2639235;0;
21946.23;16697.55;106.2291;26416.49;5.844312;8.493174;23285.21;13195.56;0.0507445;0.06875625;0;
