Fp1;Fp2;O1;O2;POLY3;POLY4;A1;A2;Video;Audio;event;
-7313.667;-5675.472;464.6475;-7803.606;10.59;-10.57917;-7934.707;-5213.392;-0.07523218;-0.4228075;0;13:15:10 Глаза открыты;
-23515.79;-16337.11;225.9566;-27198.82;8.502277;-8.358103;-24820.02;-12582.59;0.1197454;-0.4223826;0;
-16456.58;-10219.59;-27.20575;-20446.28;8.427361;-6.474305;-17590.64;-8174.575;0.3794945;-0.2270562;0;
-23153.59;-16048.25;32.16676;-27053.59;9.959135;-7.740475;-24299.76;-11576.18;0.5740152;-0.3567627;0;
-14025.54;-10504.82;-163.4548;-17294.83;11.62407;-7.3308;-14771.17;-8185.199;0.118667;-0.2264696;0;
13863.76;9690.121;-360.0197;14769.59;-1.382058;-5.380929;14304.6;6740.231;0.05358045;-0.09630732;0;
18815.3;13001.37;-184.1369;22644.87;-4.997991;-5.241556;19867.97;10409.06;0.3783633;-0.2261452;0;
16002.33;10973.65;6.686718;19308.68;-0.7060615;-3.896631;16847.84;8429.079;-0.07678825;-0.03101598;0;
18443.27;12941.49;-35.08026;21991.42;-3.518391;-3.222886;19400.98;10454.9;-0.1416784;0.03398253;0;
15991.83;11138.46;136.3376;18980.05;4.857889;-5.831982;16662.12;8185.327;0.1833006;0.03394838;0;
-8025.922;-6147.923;413.0927;-8543.261;6.728042;-5.491207;-8654.952;-5655.96;-0.2066876;0.2288163;0;
-24167.33;-16916.35;162.7407;-27878.72;0.5593393;-9.504543;-25484.7;-13125.58;-0.2064799;0.1636191;0;
-16854.67;-10556.29;-65.72991;-20865.04;0.8935699;-11.37052;-18002.73;-8348.554;0.1835316;0.0984873;0;
-23407.54;-16248.22;11.95337;-27339.38;-4.465962;-4.593936;-24573.98;-11634.37;0.1183798;-0.03154635;0;
-14024.18;-10554.71;-177.6977;-17357.43;-6.806;-3.785525;-14804.92;-8237.849;-0.07664113;-0.1614493;0;
13873.1;9691.406;-381.7446;14731.61;-2.043739;-2.241236;14293.58;6734.329;-0.1415315;0.423419;0;
18766.21;12958.76;-202.6384;22583.37;-0.9699584;-0.1625129;19816.7;10365.51;-0.1413893;0.2930588;0;
15989.4;10945.13;3.21187;19284.19;-7.398369;-4.516118;16826.91;8394.757;-0.0113125;0.03289499;0;
18325.65;12830.48;-41.89368;21869.8;-8.998526;-4.578563;19277.85;10339.23;0.1186336;0.422666;0;
16003.55;11117.11;130.593;18961.18;1.057224;-3.703185;16664.3;8169.693;0.1185143;0.03243724;0;
-8036.111;-6280.539;436.6047;-8603.996;3.534408;-4.436276;-8691.877;-5705.858;0.3782646;-0.4873341;0;
-24534.46;-17264.77;204.2201;-28309.38;2.994993;1.529541;-25884.15;-13409.2;0.4428519;-0.3569097;0;
-17215.86;-10806.78;-38.75366;-21314.67;5.805023;4.408148;-18383.7;-8641.525;-0.1422992;-0.5514531;0;
-23965.37;-16738.11;7.527659;-27955.19;2.182844;-6.447272;-25140.12;-12141.73;-0.2720909;-0.2260623;0;
-14857.6;-11127.15;-206.0757;-18294.69;2.314372;-9.856802;-15659.38;-8739.207;0.1179866;0.09900156;0;
13531.22;9527.532;-401.1298;14263.39;6.866398;2.81251;13928.56;6599.259;0.31277;-0.5507714;0;
18734.86;12881.91;-217.1784;22535.31;8.199645;3.144599;19781.32;10267.02;0.2474884;-0.3553159;0;
15803.22;10775.22;-18.68485;19102.21;7.856614;0.9981076;16640.45;8225.501;-0.272499;0.09981252;0;
18220.77;12708.06;-55.80365;21748.16;7.982441;1.8009;19170.9;10202.96;-0.2722252;0.03474487;0;
15761.33;10943.61;118.3055;18715.6;11.05588;-11.26234;16421.74;7999.604;0.1178524;0.1646447;0;
-8626.065;-6682.911;415.2249;-9231.009;10.97742;-15.67177;-9287.392;-6091.262;-0.07716803;0.2944139;0;
-25062.18;-17707.84;179.9882;-28872;12.57398;-13.51257;-26416.45;-13816.93;-0.3369598;0.09921605;0;
-17594.91;-11061.56;-51.65445;-21676.37;13.23093;-15.4415;-18749.68;-8730.28;-0.2716539;0.034149;0;
-24027.8;-16772.07;1.730022;-27992.37;5.715549;-17.77032;-25178.86;-12030.58;-0.4013157;0.03411469;0;
-14514.21;-10998.13;-196.8125;-17899.55;3.633702;-18.48928;-15294.91;-8617.185;-0.5308471;-0.03088693;0;
13634.28;9514.553;-375.1344;14437.62;2.424602;-15.79145;14048.23;6572.593;-0.205477;0.0990788;0;
18587.59;12760.81;-207.6696;22406.37;0.948297;-14.83782;19639.99;10160.28;0.3794355;-0.1608901;0;
15822.6;10785.99;0.1690737;19124.03;-1.39718;-9.866295;16661.96;8225.222;0.3790543;-0.3556305;0;
18209.85;12700.54;-21.36715;21749.42;-3.53923;-7.04322;19163.43;10208.85;0.2487387;-0.1603711;0;
15835.69;10998.74;129.2817;18795.02;3.564273;-7.70585;16497.68;8043.125;0.5083582;0.03469203;0;
-8226.318;-6367.136;419.3653;-8797.488;4.498696;-6.626503;-8883.381;-5866.25;0.5728147;0.09962453;0;
-24818.97;-17447.37;181.2509;-28561.3;3.62352;-5.012254;-26168.29;-13574.93;0.05250041;-0.2253123;0;
-17774.86;-11206.62;-66.38493;-21788.57;4.223092;-4.672303;-18924.83;-8895.246;-0.1424544;-0.2900532;0;
-24615.15;-17315.6;-31.38267;-28513.38;0.3331059;-8.083615;-25756.93;-12604.97;0.1825255;0.229977;0;
-15258.98;-11482.43;-256.4567;-18610.82;-1.408541;-10.018;-16031.96;-8988.241;-0.1424946;0.4246479;0;
13473.18;9533.014;-429.9242;14257.85;-0.3353988;-8.400342;13888.37;6652.948;-0.5321555;0.03441714;0;
18793.11;12924.46;-228.6713;22608.13;0.2008016;-8.190952;19847.27;10296.35;-0.1418167;-0.09555212;0;
15901.06;10862.3;-7.818052;19218.59;-11.31998;-16.15357;16744.52;8316.151;0.3130971;0.2293806;0;
18382.36;12884.63;-23.06815;21928.19;-15.127;-17.74487;19340.1;10387.44;0.6376193;0.2941175;0;
15995.83;11114.33;135.7502;18979.65;-7.140216;-14.37795;16665.72;8163.128;0.6369786;0.03395256;0;
-7968.693;-6144.791;432.121;-8499.356;-8.204769;-14.16256;-8611.892;-5584.684;-0.07830223;-0.09601624;0;
-24206.86;-16942.08;204.6447;-27922.72;-0.7617853;-7.048378;-25540.68;-13116.81;-0.4030603;0.09898227;0;
-16994.98;-10543.76;-52.46305;-21005.36;2.386812;-3.223269;-18141.64;-8381.461;-0.01285121;0.09888282;0;
-23670.34;-16434.86;-8.51053;-27578.8;-6.992709;-3.554944;-24822.28;-11802.28;-0.142773;-0.09611858;0;
-14395.5;-10895.07;-210.2599;-17743.49;-8.459551;-1.073126;-15173.19;-8467.471;-0.4024989;-0.290924;0;
13841.34;9699.342;-400.7497;14639.25;-4.901077;3.147755;14256.5;6772.194;0.1176443;-0.09572968;0;
18989.7;13163.57;-216.2052;22808.67;-4.025497;4.953131;20044.9;10557.12;0.1824934;0.4890726;0;
16235.49;11177.18;-13.02747;19550.21;-11.52256;5.551001;17081.54;8612.504;0.05237536;0.4885812;0;
18549.72;13079.81;-47.87186;22095.87;-11.84676;5.612406;19505.97;10597.55;-0.01264461;0.1632535;0;
16265.04;11272.59;120.4667;19277.7;-11.16429;5.271852;16940.54;8291.978;0.1173028;-0.1617472;0;
-7147.483;-5552.491;426.1606;-7673.23;-11.01935;4.864657;-7789.837;-5230.093;0.4420216;-0.226552;0;
-23382.53;-16289.33;207.6545;-27131.89;-0.3583577;-0.9006408;-24729.22;-12626.88;0.05177343;-0.2263244;0;
-16369.26;-10217.16;-35.07283;-20387.96;2.990905;-2.842119;-17530.87;-8091.218;-0.2731153;-0.3560317;0;
-22982.5;-15867.75;16.35845;-26877.64;10.82478;-4.848751;-24146.63;-11373.22;0.05199583;-0.1607719;0;
-13928.31;-10428.38;-183.7293;-17214.33;15.63667;-6.250521;-14688.04;-8143.39;-0.0779911;-0.1606103;0;
14036.19;9815.277;-387.2392;14902.73;12.74057;-5.172513;14478.14;6854.867;0.1169893;-0.09548163;0;
19145.02;13330.36;-207.7838;22970.18;13.39736;-5.569213;20199.07;10731.37;0.4417084;-0.2902877;0;
16350.01;11286.39;9.425255;19664.13;12.91538;1.938349;17190.32;8720.453;0.2463626;-0.6148327;0;
18702.23;13245.2;-24.77016;22246.61;12.83506;5.285426;19657.72;10759.44;0.1161804;-0.3543456;0;
16599.72;11547.94;134.1749;19600.53;4.717834;2.667903;17273.73;8565.307;0.181031;-0.09412017;0;
-6605.628;-5188.596;433.7644;-7136.584;2.904433;4.071742;-7254.504;-4826.775;0.2458164;0.1008764;0;
-22577.12;-15648.11;214.7821;-26327.53;-0.8495297;6.278087;-23925.77;-12039.63;0.1156347;-0.02915962;0;
-15646.37;-9693.415;-31.88793;-19674.87;-4.063857;6.606693;-16813.35;-7813.74;0.05055119;0.03583702;0;
-22724.32;-15690.63;-2.745522;-26637.89;6.523774;9.145285;-23901.72;-11388.18;0.2454024;0.6205071;0;
-13764.76;-10281.13;-209.6544;-17014.18;6.65094;10.00687;-14501.97;-8065.856;-0.01471352;0.03517753;0;
14240.36;9964.979;-403.5649;15159.83;16.08873;3.566579;14712.97;6973.537;-0.4045028;-0.1597598;0;
19247.58;13439.09;-229.7778;23067.16;20.82799;1.285697;20301.65;10846.75;-0.339129;0.1652374;0;
16538.6;11479.47;-14.21765;19843.51;12.09952;3.159806;17379.55;8914.1;0.05101581;-0.02983067;0;
18844.37;13382.54;-45.37519;22396.97;14.76668;2.018043;19802.75;10896.5;0.2458666;0.3600034;0;
16544.19;11492.56;113.7311;19529.31;-0.4524295;1.145237;17215.86;8510.652;0.1806522;0.619511;0;
-6476.92;-5048.206;420.2283;-7054.832;-5.945307;1.545984;-7119.76;-4769.572;0.635242;0.03418243;0;
-22305.94;-15408.14;201.244;-26091.13;5.983385;-1.804716;-23643.92;-11872.85;0.6995711;0.1640828;0;
-15498.37;-9622.186;-24.39173;-19537.42;2.695819;-1.936869;-16655.24;-7642.959;0.3090641;0.3588199;0;
-22190.79;-15192.07;50.17344;-26141.18;16.42449;2.351985;-23364.71;-10936.79;0.1788189;-0.2262467;0;
-13113.15;-9693.61;-149.0893;-16419.87;20.2254;3.95709;-13866.52;-7753.569;-0.2111648;-0.2260194;0;
14260.49;9939.079;-357.5847;15143.62;6.339979;7.637176;14716.43;6872.561;-0.27592;0.2939465;0;
19109.08;13314.06;-195.8221;22921.14;6.46733;9.705851;20166.58;10768.32;0.3090633;0.6184878;0;
16407.82;11347.38;13.9568;19716.24;-5.126117;13.64797;17256.07;8764.142;0.2437854;0.552899;0;
18644.71;13183.09;4.041504;22184.18;-8.604567;15.97866;19604.3;10712.4;-0.1462636;0.2275068;0;
16591.69;11545.03;169.7198;19624.09;-9.533926;14.62294;17283.12;8562.71;-0.2110839;0.09734349;0;
-6715.665;-5261.627;453.0161;-7174.483;-13.61018;15.54601;-7326.306;-4959.04;0.1139648;-0.03268902;0;
-22873.06;-15966.5;216.8045;-26625.68;0.2685934;10.17188;-24200.3;-12338.81;0.1138503;-0.1625909;0;
-15555.33;-9720.014;-21.96536;-19612.27;1.273678;7.41548;-16695.32;-7730.756;0.2436706;-0.03249281;0;
-22116.2;-15112.81;42.83665;-26041.23;10.04631;10.82404;-23254.7;-10807.49;0.3083931;-0.1623948;0;
-13347.82;-9875.736;-167.9286;-16660.62;15.86434;9.473501;-14075.53;-7767.055;-0.1466881;0.1626051;0;
14177.03;9876.045;-390.5229;15036.54;0.1072867;7.253667;14647.75;6858.09;-0.7962142;0.5522457;0;
19109.42;13307.91;-218.7635;22926.39;-0.7634772;5.973703;20169.84;10736.04;-0.7954141;0.1618868;0;
16408.29;11346.26;3.547801;19719.27;-6.388788;2.953469;17257;8789.025;-0.4048108;0.09675676;0;
18739.43;13277.43;-16.19584;22281.16;-10.73663;1.343033;19704.56;10800.29;-0.07956737;-0.09824249;0;
16489.05;11440.56;145.4892;19504.56;-4.094405;0.5378883;17177.05;8472.741;0.1803819;-0.5529152;0;
-6617.255;-5154.213;441.4597;-7112.074;-4.558805;-0.2664474;-7228.652;-4775.227;0.6349721;-0.2924902;0;
-22353.49;-15480.45;215.4421;-26100.82;-5.358508;-1.605838;-23669.12;-11836.96;0.7642687;0.09760772;0;
-15502.76;-9735.854;-25.27852;-19524.35;-5.620567;-2.40802;-16636.81;-7748.517;-0.0161073;0.4873137;0;
-22296.63;-15341.69;38.91775;-26202.2;-1.797503;0.8095804;-23436.11;-11067.89;-0.6007972;0.486824;0;
-13098.19;-9716.605;-160.1932;-16421.25;-1.527277;2.148426;-13832.83;-7728.329;-0.3403241;0.2264655;0;
14351.79;9982.495;-368.6149;15195.35;1.554741;-1.135897;14814.26;6932.196;-0.4049495;0.42114;0;
19093.39;13305.76;-206.5757;22917.56;4.433567;-1.737602;20160.69;10772.38;-0.2096406;0.2258148;0;
16383.03;11325.92;4.557059;19699.88;-9.569711;3.421708;17239.94;8749.703;0.3752761;-0.1642162;0;
18619.74;13154.27;-0.5387109;22166.75;-12.10569;4.356031;19587.66;10700.24;0.3099317;-0.09908382;0;
16552.35;11515.8;153.4469;19590.89;-9.012068;0.9356462;17259.59;8538.85;0.04975092;-0.2938863;0;
-6498.63;-5004.243;435.073;-6962.131;-10.07474;-0.1370208;-7073.636;-4717.899;0.04970093;-0.2286236;0;
-22408.87;-15515.13;224.5227;-26134.78;-5.108123;0.733895;-23693.84;-11885.18;0.244553;-0.1634266;0;
-15167.98;-9458.328;-3.151091;-19184.54;-3.963915;0.1972941;-16286.42;-7558.562;0.1143726;-0.3581644;0;
-22140.16;-15186.24;64.09953;-26033.22;1.264005;-3.285895;-23273.42;-10942.25;-0.01567701;-0.2928372;0;
-13752.15;-10191.39;-138.1289;-17088.12;3.607259;-3.483542;-14499.26;-7978.845;0.04930609;-0.2275756;0;
13930.59;9689.192;-354.7249;14737.34;5.546018;-8.97252;14374.81;6722.864;-0.08067814;-0.2923143;0;
19081.59;13283.24;-192.2937;22910.48;8.08604;-11.44187;20151.91;10705.99;-0.01562973;-0.1620858;0;
16351.95;11296.06;4.628762;19688.39;3.255144;-2.053009;17216.64;8756.789;0.3092227;-0.551727;0;
18585.42;13130.12;-27.96888;22145.52;3.988808;-0.1084415;19557.35;10661.72;0.1140099;-0.61614;0;
16354.09;11314.21;129.7924;19400.7;-2.244491;-1.381008;17068.44;8359.312;-0.2109413;-0.03081482;0;
-6761.529;-5296.627;409.6307;-7219.313;-4.519411;-0.1739278;-7316.528;-4865.507;0.04914001;0.09915084;0;
-22631.05;-15730.53;189.2047;-26312.54;0.5753448;3.175272;-23875.13;-12035.06;0.2439927;-0.03088349;0;
-15487.33;-9685.767;-23.44116;-19443.69;-1.100173;5.315535;-16570;-7729.531;-0.01612188;0.2939843;0;
-22343.84;-15336.22;39.08223;-26160.55;9.886621;1.693237;-23422.15;-10987.84;-0.2110077;0.2936889;0;
-13626.83;-10085.41;-170.6797;-16819.18;12.95717;2.026451;-14275.5;-7916.151;-0.1458283;-0.03144296;0;
14052.16;9802.497;-372.7972;14972.28;5.040897;2.828088;14559.44;6800.831;-0.2106491;0.09852334;0;
19118.52;13323.76;-205.4597;22963.85;4.566341;3.629041;20199.84;10784.88;0.1793666;0.228359;0;
16371.09;11318.41;-6.446889;19726.52;0.744336;1.749995;17253.46;8776.331;0.6339577;0.2930969;0;
18630.4;13190.4;-31.74019;22210.91;-1.065073;0.8104752;19620.6;10751.83;0.308484;0.2278351;0;
16628.16;11578.98;133.4431;19701.71;-5.954123;9.919096;17358.75;8623.417;0.04830468;-0.2921326;0;
-6636.828;-5144.081;433.5643;-6969.062;-8.49276;11.9856;-7142.371;-4707.099;0.1781908;-0.2268717;0;
-22486.38;-15678.24;221.813;-26024.79;-9.824372;10.03105;-23649.52;-11964.42;-0.2117923;-0.03174175;0;
-14634.67;-9092.102;-3.328076;-18515.46;-12.96233;10.15494;-15640.1;-7352.587;-0.3415141;-0.0966772;0;
-21460.37;-14513.16;72.76202;-25189.15;-0.558076;10.41267;-22470.61;-10397.34;-0.2112363;0.09832198;0;
-13329.38;-9805.527;-125.1179;-16421.16;3.193529;10.33522;-13912.67;-7650.78;-0.5358608;0.1631905;0;
14161.29;9821.792;-351.5658;15123.18;-4.511863;2.354111;14704.08;6831.506;-0.5353223;0.2929612;0;
19140.4;13357.89;-206.6134;22996.16;-2.899739;-0.7964525;20230.27;10832.94;-0.5997518;0.5525362;0;
16422.49;11372.91;-13.61203;19785.56;-5.576143;-1.733413;17316.41;8847.641;-0.9239858;0.2271443;0;
18683.55;13250.13;-39.36665;22272.03;-6.642267;-4.879747;19684.56;10822.94;-0.2084167;0.03201406;0;
16529.88;11439.5;127.2298;19619.71;0.4643543;-1.123922;17273.47;8488.89;0.3115315;-0.2928548;0;
-6049.656;-4663.967;434.0414;-6395.204;1.267195;-0.2520145;-6524.265;-4346.567;-0.4683896;-0.6173972;0;
-21539.59;-14770.68;225.8972;-25073.11;3.543097;-6.481052;-22658.47;-11162.24;-0.5328863;0.03289652;0;
-14516.65;-8984.164;-7.790548;-18364.04;5.549269;-6.94342;-15485.24;-7133.138;0.3771919;0.09783082;0;
-21216.61;-14341.97;63.07229;-24961.95;0.9219929;-3.453331;-22200.57;-10121.31;0.4417802;-0.3570389;0;
-12641.9;-9255.563;-120.5395;-15702.66;1.054788;-2.847015;-13191.32;-7173.006;-0.07840241;0.03312392;0;
14283.16;9878.641;-331.203;15321.75;-0.419164;1.375649;14853.3;6850.109;-0.2732257;0.1630253;0;
19102.05;13350.76;-187.2705;22963.05;-1.424097;3.249666;20199.89;10856.41;-0.1430164;0.03292683;0;
16527.99;11478.01;13.27007;19887.79;2.864242;3.179418;17429.27;8953.954;0.1169966;0.3577305;0;
18712.91;13270.54;-12.43347;22310.6;3.73202;4.247951;19722.02;10860.42;0.1168791;0.2924037;0;
16720.24;11678.66;128.2271;19822.58;1.719514;2.10035;17478.49;8744.687;0.2466963;0.1621752;0;
-6389.167;-4959.125;417.1873;-6667.318;0.5787103;1.026513;-6825.163;-4550.39;0.3763831;-0.03288981;0;
-22511.33;-15614.31;190.991;-26008.88;8.347661;2.030226;-23591.51;-11850.6;0.1161356;-0.03285676;0;
-14968.24;-9275.163;-38.46071;-18817.67;10.61645;1.090425;-15903.66;-7468.763;-0.2088178;0.292013;0;
-21963.94;-14995.82;61.82442;-25660.04;0.4253518;-3.197457;-22902.64;-10794.18;-0.40351;-0.03311716;0;
-13937.53;-10294.67;-139.3241;-17058.52;-1.785878;-5.605629;-14476.82;-7985.315;-0.2731699;-0.1630186;0;
13890.54;9660.162;-370.7865;14793.87;-2.587391;-5.466031;14440.9;6729.191;-0.07799341;0.2269493;0;
19108.43;13312.38;-208.7452;22956.33;-6.001043;-6.733214;20209.09;10779.42;0.116987;0.2267213;0;
16303.6;11271.38;-2.826309;19675.17;-2.713459;-9.807542;17214.63;8781.261;-0.01306525;0.1615261;0;
18550.52;13100.85;-8.523729;22146.03;-3.111898;-11.07036;19565.84;10678.04;0.05191522;0.0314291;0;
16334.7;11322.57;162.7894;19418.48;-8.802198;-11.66209;17089.98;8408.042;0.1817977;-0.2284718;0;
-6859.138;-5344.088;449.9657;-7185.158;-8.928052;-12.3202;-7298.755;-4819.637;-0.01328696;-0.1632749;0;
-22895.2;-15885.54;225.548;-26388.89;-13.87557;-10.70023;-23959.65;-12053.81;-0.01327361;0.1617258;0;
-15567.15;-9622.204;-28.01999;-19373.56;-15.2008;-10.15361;-16473.45;-7632.854;0.1816418;0.291498;0;
-22218.82;-15140.43;32.69641;-25893.76;-6.143199;-10.81324;-23125.97;-10744.3;0.1814592;-0.09859893;0;
-13697.38;-10120;-151.1503;-16836.66;-3.055567;-11.27125;-14228.44;-7878.427;-0.07859246;-0.03353252;0;
13828.23;9600.107;-364.7347;14722.36;0.6311982;-7.442024;14372.69;6614.537;0.0514212;0.2913379;0;
18919.52;13131.28;-204.433;22788.4;5.654406;-6.228853;20024.13;10638.43;0.3112389;0.2260778;0;
16286.49;11246.71;-4.078207;19669.07;6.653102;-12.04999;17199.76;8737.25;-0.07887789;0.1608833;0;
18552.73;13111.46;-40.54015;22150.85;9.861598;-13.64535;19567.49;10707.83;0.05113605;-0.09914772;0;
16559.27;11528.24;128.5875;19660.71;15.94726;-12.89482;17324.99;8608.735;-0.01388267;0.03088658;0;
-6670.219;-5169.413;442.894;-6962.788;18.61055;-14.08756;-7090.172;-4726.654;-0.5336074;0.1607902;0;
-22959.81;-15965.06;213.1267;-26430.86;21.73968;-14.74323;-24010.1;-12131.04;-0.4681039;-0.164208;0;
-15488.41;-9648.571;-57.82636;-19301.27;23.19171;-14.86239;-16389.48;-7698.557;0.1170725;0.225761;0;
-22536.43;-15485.36;-10.52638;-26192.85;21.82826;-19.93803;-23436.6;-11058.64;0.1819222;0.2905015;0;
-14450.51;-10687.89;-201.6853;-17511.3;21.73995;-22.53027;-14962.02;-8170.072;-0.3379993;-0.2944965;0;
13700.86;9576.699;-399.227;14643.2;15.55519;-14.7378;14262.71;6700.292;-0.5325617;-0.03433119;0;
19128.13;13321.35;-226.8498;22985.41;12.39173;-13.71825;20234.83;10774.87;-0.4020919;0.3555074;0;
16427.37;11392.61;-24.67653;19807.34;13.451;-16.24981;17343.41;8912.877;-0.1418185;0.1602481;0;
18753.54;13310.44;-49.73287;22351.74;11.8299;-14.96081;19772.01;10893.94;0.248128;0.2250545;0;
16519.22;11508.86;118.545;19623.05;5.186578;-20.90714;17285.62;8594.703;0.1829113;0.4846977;0;
-6698.579;-5227.518;418.8687;-6966.751;0.4259446;-22.76159;-7107.392;-4726.147;-0.01217447;0.159374;0;
-22979.96;-15938.64;202.1815;-26425.45;11.94609;-17.91607;-24010.5;-12094.36;-0.1420969;-0.03568823;0;
-15924.37;-9848.104;-41.72729;-19699.89;13.60903;-18.23298;-16803.49;-7782.014;-0.2718888;0.02931497;0;
-22569.46;-15452.21;13.3807;-26211.73;0.4671877;-16.27216;-23446.69;-10978.65;-0.1416809;0.09425287;0;
-13907.53;-10278.17;-176.4124;-17016.05;-1.811433;-14.91621;-14408.38;-7989.753;-0.07657124;0.1591255;0;
13796.46;9633.745;-375.5099;14705.69;-2.144406;-18.6522;14356.69;6659.182;-0.401331;0.02903092;0;
18997.96;13195.05;-221.0226;22862.46;-3.481422;-18.70044;20106.48;10704.39;-0.4658951;-0.1009329;0;
16389.58;11349.23;-32.83247;19772.19;-3.143131;-18.27976;17309.56;8847.501;-0.01065557;-0.03586417;0;
18615.31;13184.45;-56.35014;22217.84;-2.135595;-18.06044;19637.46;10789.38;-0.0756122;0.09410656;0;
16591.24;11534.02;105.4377;19696.73;-3.874761;-18.10928;17364.88;8618.25;0.05439845;-0.1658574;0;
-6544.026;-5078.24;405.3216;-6825.819;-3.938217;-18.69386;-6944.567;-4625.647;0.1842785;-0.2956254;0;
-22737.68;-15861.93;200.1579;-26175.26;7.922085;-12.84769;-23753.78;-12017.81;-0.1407434;-0.1653937;0;
-14991.22;-9329.552;-33.31664;-18758.18;11.59782;-11.02636;-15864.3;-7434.863;0.05430005;-0.1002602;0;
-21560.5;-14579.94;47.61367;-25185.71;12.65789;-13.89543;-22442.14;-10321.86;0.1841802;-0.3600288;0;
-13681.65;-10000.24;-130.4384;-16683.51;15.32449;-13.07767;-14161.26;-7680.732;-0.2058089;-0.2946997;0;
13813.19;9615.89;-352.1334;14812.85;13.50043;-16.94948;14397.67;6682.691;0.05426722;-0.09950154;0;
19103.23;13305.96;-200.5431;22968.92;14.35752;-19.27679;20213.06;10794.25;0.1841474;-0.2293362;0;
16370.16;11335.03;8.631519;19761.96;9.587675;-11.55463;17292.59;8849.86;0.118995;0.2256656;0;
18604.08;13166.51;-24.03261;22210.99;8.506314;-10.13637;19626.19;10765;0.1838428;0.4203409;0;
16499.92;11466.78;111.564;19621.02;7.559762;-17.42715;17274.32;8550.573;0.05372337;-0.03485288;0;
-6549.8;-5042.352;407.9591;-6773.108;6.480439;-18.41438;-6945.546;-4574.566;0.05366939;-0.1647525;0;
-22636.61;-15725.65;204.2608;-26028.51;9.957528;-19.13263;-23653.82;-11877.44;-0.3361886;-0.09961966;0;
-15131.72;-9384.837;-37.30753;-18858.78;10.14859;-21.12283;-16003.01;-7425.172;-0.2708834;0.03041512;0;
-21309.08;-14343.94;36.33358;-24930.16;17.77421;-14.47048;-22191.42;-10098.38;0.3790621;-0.09955013;0;
-12899.93;-9507.812;-146.3767;-15925.53;20.90418;-12.2455;-13371.53;-7385.872;0.05384457;0.2253866;0;
14146.02;9780.083;-362.1055;15161.42;17.13213;-21.14174;14746.75;6760.239;-0.3360136;0.2901275;0;
19049.65;13297.95;-203.8835;22921.65;16.98119;-22.59412;20159.21;10822.56;-0.1407739;-0.2299028;0;
16430.83;11378.67;-6.949415;19804.14;19.84452;-16.27515;17346.97;8874.719;-0.2055998;0.09516496;0;
18652.16;13233.15;-44.68908;22259.42;20.36044;-15.25411;19673.49;10840.75;-0.01049121;0.419906;0;
16695.26;11602.01;115.822;19808.45;11.36403;-15.84157;17467.85;8680.435;0.119454;-0.03528728;0;
-6070.865;-4784.687;442.9318;-6340.273;8.071055;-14.75399;-6479.579;-4393.205;0.1843013;-0.1002192;0;
-22218.85;-15403.38;240.8069;-25647.38;10.34012;-15.34201;-23249.07;-11655.39;0.4439855;0.3546529;0;
-14768.37;-9079.03;-15.19716;-18516.09;9.258004;-15.39357;-15650.6;-7272.89;0.3136047;0.2243619;0;
-21219.5;-14239.14;61.70134;-24849.59;6.033521;-11.09132;-22106.74;-10069.75;0.05342022;-0.1656676;0;
-13335.77;-9684.284;-122.3151;-16313.46;5.022104;-9.338621;-13783.53;-7492.641;-0.07656813;0.02940088;0;
13884.24;9653.966;-353.1074;14935.61;7.160512;-13.48206;14502.93;6660.418;-0.2064259;0.02937134;0;
19076.08;13284.39;-191.4899;22939.38;6.818524;-14.07136;20179.83;10794.57;-0.01131644;-0.1005929;0;
16316.97;11283.82;23.03232;19694.45;11.367;-11.57897;17232.54;8790.3;0.378499;0.2243449;0;
18519.4;13085.04;-4.024107;22130.02;12.35996;-11.7013;19540.35;10687.62;-0.01168539;-0.1007172;0;
16434.02;11395.99;148.2784;19547.96;11.00837;-10.95273;17205.83;8479.89;-0.07664099;-0.3604854;0;
-6488.839;-5010.85;444.1681;-6742.707;11.39847;-10.40586;-6881.73;-4578.743;0.3782074;0.1596156;0;
-22419.12;-15561.54;220.8338;-25865.97;4.35442;-13.20857;-23444.99;-11724.19;-0.1419113;0.2893899;0;
-14802.11;-9209.464;-29.93401;-18579.76;1.202213;-13.79814;-15690.64;-7322.053;-0.4016381;0.09419709;0;
-21233.53;-14310.47;47.58836;-24877.8;4.951073;-13.18143;-22128.13;-10145.13;-0.0114305;0.02913509;0;
-13312.68;-9703.758;-134.2743;-16418.26;5.750381;-14.03897;-13829.48;-7536.198;-0.206321;-0.03586153;0;
13771.46;9535.218;-353.6853;14676.74;-6.110765;-10.94377;14319.65;6549.111;-0.3360484;0.02914185;0;
18923.56;13154.11;-204.1705;22780.69;-9.454504;-9.995009;20028.01;10667.44;0.0540933;0.02911256;0;
16302.93;11256.26;-12.71773;19688.81;2.612412;-13.80287;17220.27;8759.411;0.3788756;-0.03588403;0;
18526.88;13108.36;-41.28434;22122.71;4.753241;-14.12392;19541.15;10712.56;0.1186256;-0.1657827;0;
16670.89;11595.39;113.8667;19786.06;4.748465;-13.37291;17445.03;8676.689;-0.01142828;-0.4904528;0;
-6293.002;-4993.05;405.3088;-6537.978;6.150213;-13.02456;-6705.621;-4523.945;-0.07638414;-0.5549273;0;
-22722.42;-15886.43;200.067;-26149.81;11.3016;-12.67656;-23770.07;-12051.04;-0.4011441;-0.229533;0;
-14922.04;-9198.773;-24.89601;-18702.19;13.63477;-11.59222;-15815.61;-7450.92;-0.01093698;0.225469;0;
-21401.42;-14385.11;48.93566;-25023.12;8.262431;-10.84376;-22292.54;-10211.64;0.1190087;0.2902098;0;
-13949.89;-10166.38;-141.6271;-16944.85;7.383472;-9.962083;-14423.01;-7799.488;-0.2709149;0.03004883;0;
13601.02;9468.21;-364.1854;14591.38;6.57177;-5.866236;14197.66;6533.242;-0.01077335;0.09498599;0;
19079.56;13276.61;-206.6953;22924.8;6.029304;-4.855597;20182.45;10753.4;0.1841395;0.02992319;0;
16233.58;11199.02;15.8069;19609.02;-0.3397672;-0.09505232;17144.32;8723.044;-0.2058496;-0.1000416;0;
18519.14;13096.96;-0.06038488;22118.95;-2.951394;2.450395;19534.54;10683.46;-0.2706101;-0.09994104;0;
16548.17;11484.23;152.0351;19643.18;2.945093;-3.245495;17312.63;8579.091;-0.07543615;0.03009407;0;
-6478.83;-5104.223;452.3407;-6743.012;3.009483;-3.108268;-6899.557;-4608.108;0.05457434;0.2249659;0;
-22582.07;-15786.3;241.7574;-26027.9;7.695508;-6.521152;-23640.56;-11983.88;-0.01044784;-0.03512956;0;
-15136.17;-9489.735;-11.29593;-18920.79;10.56719;-8.658053;-16034.26;-7593.068;-0.2053394;-0.1000616;0;
-21682.18;-14752.35;41.57948;-25326.88;9.016329;-4.898432;-22570.33;-10477.63;-0.01023102;0.289843;0;
-13415.13;-9896.332;-147.7578;-16500.99;11.68659;-5.965237;-13915.77;-7718.917;-0.1401554;0.2245844;0;
13951.38;9654.336;-366.7023;14884.71;5.847694;-2.208199;14514.45;6650.308;-0.5298187;0.09442408;0;
18978.11;13213.15;-217.7679;22847.04;3.564643;-1.000409;20080.54;10740.86;-0.2694169;0.1592965;0;
16331.04;11289.07;-5.561888;19717.57;14.54577;-4.14748;17245.54;8785.408;-0.009276832;0.4839732;0;
18502.03;13071.09;-16.9412;22097.71;15.20074;-3.071585;19514.43;10684.81;-0.00926751;0.1586502;0;
16526.84;11476.66;143.8075;19665.18;14.78333;-8.15908;17302.37;8559.479;0.1206765;-0.4262153;0;
-6290.336;-4917.012;439.0458;-6495.063;16.04127;-9.088642;-6687.149;-4512.024;0.2504899;0.2238864;0;
-22777.57;-15848.07;217.2316;-26185.43;6.379611;-7.47192;-23816.8;-12004.11;0.3152056;0.7434002;0;
-15167.23;-9344.067;-27.75432;-18948.54;4.096025;-9.272951;-16068.31;-7482.599;0.3798562;0.1579471;0;
-21177.23;-14142.36;55.30996;-24816.73;1.011427;1.118477;-22079.48;-9982.93;0.05463779;-0.296983;0;
-13536.15;-9806.755;-117.5182;-16517.73;-2.606912;3.528738;-14016.06;-7529.486;-0.2052865;0.02815211;0;
13605.89;9450.19;-328.9344;14631.17;0.9456808;-1.431422;14201.64;6507.45;0.1847239;0.1580585;0;
19028.08;13231.04;-167.9346;22880.5;-1.533516;-0.8272594;20128.29;10718.4;0.1845382;-0.3618391;0;
16182.69;11145.15;35.66313;19563.9;5.16583;-6.854648;17090.35;8667.047;-0.4003533;-0.1665734;0;
18297.91;12874.84;-1.713313;21899.62;7.304093;-9.058197;19309.42;10468.57;-0.6598204;0.1584307;0;
16381.74;11328.17;141.5601;19485.69;-4.827034;-9.584959;17144.94;8420.137;-0.1394186;0.1582715;0;
-6552.511;-5183.37;432.7715;-6797.015;-6.429775;-11.45085;-6970.694;-4681.695;0.3804602;0.2880471;0;
-22999.5;-16096.24;216.2577;-26419.43;-8.901561;-9.563822;-24056.93;-12220.7;0.3800779;0.157823;0;
-15469.32;-9633.678;-30.2108;-19250.44;-11.03607;-9.487229;-16379.26;-7689.113;0.2497613;-0.3620743;0;
-21344.38;-14374.45;45.37532;-25012.27;-8.278315;-9.410713;-22254.48;-10133.45;0.3144777;-0.4916452;0;
-13142.98;-9639.258;-108.7803;-16130.89;-8.403718;-8.597463;-13624.15;-7470.541;0.05429234;0.02858754;0;
13915.21;9636.509;-308.1489;14972.65;-5.582235;-6.110577;14515.41;6634.13;-0.465501;-0.03640853;0;
19011.3;13244.87;-175.3433;22861.83;-4.237455;-4.295898;20110.84;10758.47;-0.07522915;-0.426176;0;
16312.48;11270.11;6.101116;19675.59;0.5895734;-5.430292;17218.13;8774.726;-0.01018622;-0.1658784;0;
18419.07;12997.53;-15.25366;22020.92;4.340025;-5.223886;19429.97;10597.25;-0.5299147;-0.1657117;0;
16459.1;11393.93;162.7659;19588.86;1.321554;-1.40061;17224.92;8483.256;0.05532381;-0.4903819;0;
-6358.882;-5038.594;470.0885;-6559.377;3.999544;-0.5955297;-6777.876;-4604.381;0.1202356;-0.2949872;0;
-22762.45;-15879.39;257.5508;-26191.34;-0.3587316;-1.264639;-23837.16;-12019.54;-0.4645913;-0.1647561;0;
-15513.71;-9779.338;15.99146;-19309.57;-2.434476;-0.4596947;-16429.33;-7714.902;-0.1392878;-0.2295579;0;
-22307.7;-15324.3;70.04197;-25951.23;12.57215;-5.951711;-23214.71;-10821.12;-0.07418049;-0.2293272;0;
-14495.49;-10660.63;-124.3526;-17587.85;15.37255;-7.821131;-15026.35;-8168.758;-0.009138614;-0.0991621;0;
13465.09;9380.626;-340.4315;14369.15;12.20928;-4.263299;14010.68;6491.476;0.1208052;0.03087222;0;
19116.91;13314.72;-193.2726;22963.43;13.4698;-4.59393;20215.62;10782.95;-0.2691202;-0.09909348;0;
16316.3;11281.73;14.36422;19695.11;7.22698;-3.316638;17223.95;8800.573;-0.5936865;0.2908101;0;
18546.66;13124.85;5.244985;22128.6;4.941566;-1.772698;19553.53;10716.92;-0.4631553;0.6153547;0;
16612.76;11556.93;158.4752;19719.34;2.057189;-5.387995;17380.17;8645.671;-0.007918485;0.2249323;0;
-6284.615;-4984.764;433.6151;-6540.992;-2.432856;-5.58353;-6705.7;-4495.181;0.05705681;-0.2300651;0;
-22964.49;-16014.93;210.0728;-26412.66;3.129293;-0.9562194;-24028.71;-12146.69;-0.0729352;-0.09989927;0;
-16024.13;-9991.417;-28.8933;-19814;3.0588;0.1164683;-16923.9;-7899.521;0.1870075;0.4199398;0;
-22043.77;-15006.6;39.46076;-25714.51;-5.317018;0.7191976;-22939.04;-10544.52;-0.2029845;0.2895832;0;
-13503.08;-9985.103;-140.5822;-16570.93;-5.713817;0.718475;-14003.25;-7694.254;-0.7225193;0.02942286;0;
13765.4;9515.181;-347.0089;14741.77;-12.94174;3.932812;14341.18;6551.836;-0.3319892;0.2242953;0;
18920.31;13145.74;-203.0606;22777.01;-16.74713;5.06757;20020.51;10648.25;0.3180178;0.09413528;0;
16275.23;11232.97;-5.127801;19640.5;-2.529436;-2.640315;17182.36;8746.941;0.4476329;0.159008;0;
18384.53;12965.26;-8.792679;21974.21;-0.6518605;-5.049048;19395.32;10562.13;0.3822158;0.3537503;0;
16410.74;11342.62;155.0244;19517.85;0.2194506;-2.632589;17176.97;8438.981;0.3168644;0.02855811;0;
-6541.969;-5268.102;445.0197;-6785.846;3.032269;-2.562961;-6951.501;-4627.966;0.1866113;-0.1663726;0;
-23234.91;-16301.87;227.0257;-26684.83;-2.931648;-8.990624;-24282.43;-12280.7;0.1214565;-0.1012381;0;
-15549.63;-9642.969;-18.11062;-19382.07;-3.129774;-10.45522;-16451.15;-7690.115;-0.333437;-0.2310711;0;
-21293.74;-14319.38;72.50267;-24985.17;-6.409159;-5.421112;-22205.21;-10014.67;-0.3331019;-0.2308389;0;
-13580.41;-9892.723;-93.11198;-16682.45;-8.746267;-5.08075;-14108.49;-7578.544;0.1869715;0.0942298;0;
13486.46;9328.374;-335.1311;14398.43;-3.579915;0.6847649;14040.05;6380.479;0.05684895;0.1591025;0;
18898.13;13098.3;-203.907;22743.69;-2.169798;3.229428;19998.53;10594.49;-0.008175511;-0.03595945;0;
16037.86;11020.37;4.271458;19417.71;-9.870777;1.886525;16945.46;8535.69;0.1217674;0.1589787;0;
18199.92;12744.64;-29.38779;21795.01;-11.73687;3.023339;19209.21;10336.81;-0.1382243;0.2887537;0;
16308.29;11347.88;118.8641;19396.31;-0.1371508;1.345728;17071.37;8450.354;0.1217839;0.02859414;0;
-7142.724;-5636.871;415.1894;-7421.306;3.011795;0.8754951;-7568.068;-5063.395;0.2515962;-0.231304;0;
-24236.48;-17092.04;191.5407;-27679.27;-1.74763;0.003837262;-25299.06;-13026.94;-0.3333626;-0.2960389;0;
-16811.37;-10541.01;-58.12013;-20602.16;-1.678525;-0.2640983;-17705.35;-8244.703;-0.2680603;0.02909529;0;
-22688.29;-15557.98;5.312666;-26354.93;4.552453;-6.359036;-23571.93;-10898.19;0.2519477;0.1590008;0;
-14300.67;-10664.21;-162.1866;-17432.86;6.691332;-9.835758;-14818.37;-8172.76;0.3166619;0.158841;0;
13405;9292.464;-359.4244;14288.63;-0.8174797;-0.5154921;13950.33;6382.452;-0.203395;-0.1661553;0;
18769.06;12970.76;-211.5124;22623.95;-2.424249;0.1548552;19866.44;10445.29;-0.3331253;-0.2309557;0;
15996.99;10971.1;-4.060322;19373.92;-0.5458027;-3.596223;16904.26;8497.769;0.05701348;0.1590804;0;
18248.38;12793.25;-34.65024;21839.19;-2.086472;-3.994507;19256.13;10374.08;0.1219235;-0.03598148;0;
16121.54;11180.56;116.6211;19233.07;-1.079021;-6.334774;16881.12;8297.288;0.05683368;-0.4257494;0;
-7284.547;-5755.625;428.5345;-7520.41;-1.88222;-7.467118;-7702.994;-5087.763;0.4465806;-0.4902889;0;
-24187.13;-16992.19;211.291;-27613.94;-1.746607;-10.07195;-25242.28;-12840.63;0.3811646;-0.3598616;0;
-17245.87;-10926.75;-41.06015;-21028.31;-0.6057763;-11.40137;-18139.54;-8502.211;-0.2039245;0.03030404;0;
-24078.72;-16901.31;15.32779;-27700.76;-6.767109;-13.06448;-24958.76;-11973.2;-0.268687;-0.03469375;0;
-15802.63;-11822.11;-184.2279;-18964.97;-6.425517;-14.0561;-16339.52;-9041.793;0.05641973;-0.1645936;0;
12901.89;9080.726;-393.9686;13691.68;-9.299449;-12.30042;13420.09;6261.948;0.1213304;0.03047384;0;
18883.7;13038.54;-233.372;22723.47;-12.03677;-11.7522;19978.96;10483.58;0.1861758;0.09541057;0;
15901.93;10871.07;-39.68784;19294.66;6.730545;-8.793262;16808.48;8396.822;0.5108255;0.2252494;0;
18083.81;12645.08;-72.22533;21667.6;11.4792;-6.640972;19087.31;10235.39;0.3803775;0.1600557;0;
16224.93;11242.78;105.6485;19331.79;6.176384;-5.964592;16991.3;8338.714;0.1201259;-0.09997449;0;
-7300.089;-5747.532;434.3614;-7540.639;8.715774;-4.083076;-7711.798;-5117.843;0.05503787;-0.09987403;0;
-24502.6;-17351.69;225.3423;-27923.41;1.338649;-2.4044;-25558.61;-13215.5;0.1199499;0.1600957;0;
-16807.34;-10559.7;-24.88344;-20602.87;-1.274664;-1.196292;-17713.65;-8296.846;0.1847967;0.2898695;0;
-22474.69;-15331.41;29.55171;-26127.6;3.615761;1.618072;-23380.09;-10776.99;0.2495784;0.02970887;0;
-14371.28;-10655.27;-154.6354;-17492.76;2.80882;3.09007;-14917.09;-8184.695;0.05442558;-0.555027;0;
13243.88;9173.914;-342.7135;14103.79;-0.8786733;2.28317;13770.07;6279.84;-0.1405311;-0.489502;0;
18743.68;12929.88;-170.7992;22595.96;-1.748446;3.352603;19839.61;10397.5;-0.2053573;-0.03423877;0;
15885.57;10859.35;36.54956;19274.75;-4.626101;1.071814;16792.05;8385.048;0.1846531;0.03076297;0;
18071.96;12621.04;-6.387477;21657.08;-6.430115;0.6688399;19077.99;10201.53;0.1195002;0.3555688;0;
16185.02;11216.11;138.2337;19320.14;-2.136746;3.01257;16957.49;8325.111;-0.01055451;0.2252768;0;
-7362.12;-5893.037;447.7829;-7536.078;-1.933528;2.406697;-7757.369;-5195.868;-0.07551125;-0.03481892;0;
-24924.92;-17686.93;212.7946;-28289.45;-1.262;7.360894;-25959.39;-13458.62;-0.3353047;0.1601181;0;
-17528.72;-11024.38;-61.10973;-21293.35;-0.3900757;8.626173;-18417.66;-8586.348;0.05483622;0.1599572;0;
-22960.51;-15755.67;0.2489896;-26603.18;-3.471143;4.799479;-23848.76;-10989.91;0.2496831;0.09482916;0;
-14564.17;-10851.92;-182.2377;-17692.1;-4.003518;4.392758;-15100.54;-8306.855;-0.07540444;0.02976651;0;
13218.65;9225.995;-391.4962;14060.1;-5.338666;2.111047;13737.77;6332.028;0.05460601;-0.03523074;0;
18788.39;12971.13;-238.0703;22623.58;-6.80717;0.8362499;19880.42;10439.6;-0.2053182;-0.16513;0;
15874.39;10837.79;-27.24945;19255.5;-7.738336;0.6344608;16779.51;8349.794;-0.5299487;-0.2948988;0;
18189.11;12761.44;-60.00247;21766.66;-10.27518;0.3658916;19190.04;10351.39;-0.3345141;0.1601689;0;
16420.36;11412.37;78.44139;19528.51;-6.447438;-1.107979;17187.11;8500.668;-0.2042433;0.0300733;0;
-7025.149;-5550.34;405.4482;-7263.138;-6.038818;-0.7720726;-7440.509;-4942.105;0.1207986;-0.03492426;0;
-24043.67;-17031.1;207.8274;-27507.35;-15.14243;1.841038;-25113.22;-12953.74;0.1856446;0.4848496;0;
-16059.66;-10083.31;-49.79891;-19938.23;-17.27067;3.71471;-16992.36;-7970.436;0.05552337;0.1595257;0;
-21773.37;-14739.34;35.89558;-25496.68;-15.71307;7.060002;-22711.7;-10284.81;-0.07446711;0.09439807;0;
-14207.52;-10442.88;-135.9135;-17386.23;-15.42886;9.330206;-14776.71;-7976.752;-0.204327;0.1592706;0;
13180.62;9109.804;-359.5395;13987.45;-19.03068;14.27745;13694.96;6205.247;-0.009219629;-0.2956609;0;
18778.07;12966.13;-208.3478;22607.21;-19.81487;16.67448;19870.54;10434.24;0.250659;0.1594076;0;
15929.24;10906.27;-8.067125;19304.98;-12.02543;18.46627;16834.4;8420.219;0.3803418;0.4840841;0;
18080.28;12630.66;-48.67923;21656.71;-10.80789;20.3901;19081.52;10216.24;0.250025;-0.1011084;0;
16165;11182.88;91.36182;19270.18;-3.56239;16.01584;16926.45;8275.228;-0.1400303;-0.1659741;0;
-7008.77;-5543.803;405.2528;-7267.055;0.5933996;15.3969;-7428.432;-4994.718;-0.009954921;-0.03587266;0;
-24194.02;-16989.55;206.7733;-27627.95;-7.980036;12.8362;-25264.98;-12875.94;0.2499245;-0.100804;0;
-17027.82;-10600.78;-45.91692;-20807.39;-8.57523;10.8808;-17927.38;-8274.12;0.0547713;-0.16567;0;
-22809.68;-15597.88;23.31319;-26451.35;-10.10686;11.80763;-23693.54;-10969.63;0.1846509;-0.2304709;0;
-14563.95;-10811.48;-157.1039;-17705.3;-13.04444;9.987223;-15129.09;-8261.28;0.1194981;-0.165272;0;
13160.26;9158.401;-372.291;13988.62;-11.08895;13.4603;13657.62;6279.763;0.05441066;0.3546329;0;
18776.82;12966.7;-212.2471;22615.67;-13.35498;13.31281;19872.49;10425.69;0.249258;0.4842112;0;
15910.58;10876.19;-4.591269;19293.04;-11.93504;12.42865;16814.04;8395.998;-0.3356985;0.09392061;0;
18191.58;12744.14;-32.55697;21768.03;-10.5829;13.42091;19189.39;10325.87;-0.4003285;0.09382623;0;
16476.88;11497.8;128.676;19612;-24.0362;6.441322;17245.6;8598.497;0.3796818;0.0287646;0;
-7119.453;-5673.847;427.662;-7303.613;-27.29361;5.631054;-7525.814;-5104.618;-0.0754711;-0.03623164;0;
-24649.83;-17464.84;189.7422;-28052.86;-20.7021;3.749996;-25713.81;-13311.6;-0.595134;0.1587068;0;
-17417.26;-11096.59;-70.08354;-21186.54;-21.68567;1.468808;-18321.56;-8644.091;-0.1397646;-0.03635471;0;
-24264.34;-17077.73;-14.8065;-27854.89;-11.08131;13.72497;-25153.81;-12138.13;-0.009689495;-0.1662529;0;
-16634.38;-12395.63;-214.738;-19795;-5.309402;17.66305;-17215.55;-9445.343;-0.2695491;0.1587509;0;
12434.56;8814.59;-418.6852;13185.15;-15.68654;13.62644;12909.19;6058.547;-0.1393436;-0.03631064;0;
18865.33;13004.2;-241.7439;22697.38;-14.19691;16.42591;19955.51;10408.44;0.1206658;-0.2311762;0;
15925.65;10889.96;-26.7027;19317.51;-11.10217;15.20372;16830.21;8425.522;-0.07435749;-0.03604187;0;
18301.09;12865.7;-59.33133;21861.67;-11.89432;14.98749;19296.69;10430.12;-0.3991195;0.09392904;0;
16586.26;11580.82;111.4394;19712.96;2.384877;24.015;17349.52;8684.483;-0.008914395;0.02886731;0;
-7066.512;-5692.89;442.6296;-7237.329;5.998827;25.66533;-7483.627;-5110.267;0.445866;-0.2959984;0;
-25096.81;-17767.52;220.6868;-28471.32;0.09830125;23.36224;-26169.73;-13553.09;0.1855486;-0.2307336;0;
-18577.55;-11810.64;-58.50409;-22318.46;0.7687638;22.93687;-19468.88;-9132.576;-0.009539886;0.289237;0;
-25257.95;-17931.45;-32.9425;-28853.71;-5.796092;20.90433;-26128.55;-12874.95;-0.139465;0.1590116;0;
-16870.49;-12725.54;-233.3243;-20164.33;-8.268515;20.01255;-17482.68;-9807.534;-0.4641615;-0.2959195;0;
12456.88;8821.796;-412.5621;13065.64;-8.461277;12.82551;12891.57;6077.762;-0.07389112;-0.2956222;0;
18702.77;12827.12;-221.103;22521.79;-9.323431;10.40124;19793.03;10234.63;0.05611781;-0.1653905;0;
15731.5;10707.63;-9.955593;19123.29;-12.99873;9.386042;16636.53;8232.515;-0.1388406;-0.295159;0;
18087.11;12621.72;-41.80458;21643.95;-14.32484;7.970091;19080.71;10194.16;-0.07373375;-0.4247971;0;
16194.13;11280.28;119.2346;19307.17;-6.67464;11.44507;16956.18;8375.762;0.05627502;-0.03456619;0;
-7651.49;-6037.839;412.0145;-7892.791;-5.596206;11.56754;-8074.832;-5441.994;0.3160878;0.1603706;0;
-25657.09;-18230.89;166.2082;-29079.81;1.375642;20.0625;-26722.7;-13970.02;0.1208682;-0.1646273;0;
-18572.81;-11758.43;-94.32793;-22342.03;4.38837;23.59244;-19460.38;-9105.403;-0.07415526;-0.3593639;0;
-24760.25;-17398.63;-39.15146;-28374.16;2.575299;20.9564;-25632.45;-12352.15;0.05585393;-0.4239701;0;
-16723.52;-12564.57;-234.2484;-19949.19;4.447745;22.47595;-17314.75;-9551.436;-0.2040716;-0.1636748;0;
12268;8674.794;-422.4496;12955.56;-4.397983;19.975;12724.23;5962.259;-0.2688338;-0.03357562;0;
18654.25;12775.4;-224.3588;22468.76;-6.335947;19.21811;19745.35;10158.63;-0.07366169;-0.03354189;0;
15605.69;10582.3;11.95107;18986.2;-6.999166;17.85927;16510.81;8116.532;-0.008620338;-0.09847552;0;
17821.68;12348.9;-9.878098;21391.17;-8.264931;16.30072;18817.26;9906.691;0.05635567;-0.2283113;0;
15892.27;11023.06;140.8373;18981.22;-7.252248;14.81071;16651.13;8123.332;-0.138603;-0.09814717;0;
-8034.901;-6303.767;436.5315;-8315.561;-7.847197;12.98741;-8461.751;-5668.168;-0.1384637;-0.03308121;0;
-26154.51;-18641.29;209.2381;-29592.57;3.882335;14.98373;-27222.03;-14334.61;0.05657744;0.09688673;0;
-19056.21;-12126.79;-45.65659;-22841.62;8.968649;14.49979;-19934.3;-9359.578;-0.1383814;0.2916914;0;
-24684.66;-17240.06;-4.318972;-28328.23;3.668351;13.88238;-25543.52;-12207.33;-0.1382424;-0.03343841;0;
-16294.97;-12163.72;-202.4494;-19585.78;4.937463;14.06938;-16892.39;-9350.636;0.05679854;-0.09837215;0;
12350.3;8733.02;-406.2684;12971.18;10.96072;11.30906;12795.56;5957.429;0.1866761;-0.03330597;0;
18622.28;12738.63;-252.7653;22432.76;12.35623;10.82882;19713.27;10152.78;0.3813906;-0.1632072;0;
15659.67;10626.67;-15.16187;19049.61;8.793839;11.48777;16565.03;8136.825;0.4459747;0.2267609;0;
17859.82;12407.67;3.453388;21426.49;6.775271;11.74415;18856.37;9979.204;0.05572256;0.226533;0;
16162.31;11210.84;169.6789;19264.03;9.849922;10.32571;16921.01;8299.734;-0.2691701;-0.03356398;0;
-7743.624;-6161.256;460.0654;-8001.721;10.10747;9.377577;-8177.09;-5565.359;-0.07399765;0.09640444;0;
-25746.93;-18388.45;209.1978;-29158.65;-1.088471;16.20029;-26821.62;-14134.99;-0.0739233;-0.1635618;0;
-18290.81;-11612.9;-63.3599;-22044.79;-3.364553;18.26048;-19182.58;-9081.442;-0.1388164;-0.2283648;0;
-24677.2;-17345.65;-23.22263;-28274.5;-6.04049;15.6298;-25551.12;-12454.54;0.1211925;-0.09820066;0;
-16824.41;-12680.02;-232.5159;-20035.12;-9.584394;17.75755;-17418.29;-9743.881;-0.1387987;-0.6178407;0;
12471.57;8844.318;-412.5511;13157.32;3.352333;12.04628;12923;6109.071;-0.2685939;-0.2923832;0;
18884.01;13007.27;-214.2673;22709;6.028281;10.96245;19973.79;10398.45;0.2514147;0.5524861;0;
15883.57;10834.8;6.712071;19280.73;3.477605;18.72121;16788.46;8355.034;0.3161295;0.03219216;0;
18212.76;12773.86;-11.83223;21779.3;4.813281;19.70714;19203.47;10343.76;0.05594245;-0.1627422;0;
16419.32;11403.97;137.6046;19554.99;5.411657;22.83554;17183.98;8477.315;0.1208536;0.4221274;0;
-6958.795;-5481.256;423.4632;-7162.551;6.343248;23.8842;-7377.979;-4995.529;0.2506668;0.1618339;0;
-24485.97;-17280.13;201.4771;-27880.48;2.586807;24.53003;-25564.78;-13171.47;-0.07442175;-0.2281328;0;
-17382.79;-10956.64;-37.54276;-21137.14;2.717929;24.77331;-18300.21;-8500.815;-0.1393143;0.2268678;0;
-23507.03;-16304.89;30.88247;-27141.72;-4.049956;21.39939;-24419.32;-11563.37;-0.009239648;0.1616725;0;
-15386.51;-11507;-159.7246;-18574.05;-7.462138;20.976;-15988.76;-8847.58;-0.2041324;-0.03339196;0;
13036.2;9157.492;-371.2859;13807.11;1.922482;9.501081;13503.65;6311.007;-0.009025251;-0.09832574;0;
19013.65;13177.86;-219.4264;22840.6;1.9879;4.133023;20100.93;10606.88;0.1858858;-0.4230637;0;
16193.17;11128.42;-12.76284;19572.14;3.660841;12.1667;17090.22;8626.305;-0.0741703;-0.2277365;0;
18329.35;12913.28;-31.14702;21898.68;4.527819;11.88654;19318.99;10489.35;-0.07409578;0.09732902;0;
16680.21;11568.27;122.5258;19812.45;0.3700837;6.583069;17447.75;8629.398;0.2508154;-0.2276055;0;
-6048.714;-4877.081;439.5089;-6246.697;-0.769364;4.63395;-6471.801;-4475.065;0.1206287;-0.09744212;0;
-23432.74;-16420.14;243.8061;-26858.88;-5.18922;10.7916;-24523.27;-12445.76;-0.2043292;0.2274925;0;
-16481.5;-10306.08;-7.906262;-20304.68;-7.795975;11.45059;-17426.46;-8105.323;-0.0092219;0.09732924;0;
-22848.67;-15773.91;43.23223;-26526.9;-11.40546;8.357866;-23793.21;-11250.47;0.120722;0.1621988;0;
-15250.32;-11292.59;-160.6463;-18462.93;-14.13969;8.483435;-15838.53;-8717.104;-0.009333936;0.3569378;0;
13064.2;9172.4;-379.1718;13806.97;-16.33629;2.915449;13556.89;6289.507;-0.1392592;-0.1631596;0;
19136.53;13285.85;-208.7513;22957.9;-18.86547;1.372034;20223.44;10724.05;-0.2040866;-0.2929303;0;
16198.87;11143.55;15.22102;19579.85;-15.49663;-0.5048667;17097.72;8639.597;-0.463751;0.1621354;0;
18408.58;12992.62;-12.96761;21968.96;-16.08428;-2.312777;19399.38;10568.55;-0.3983176;0.2919072;0;
16861.3;11726.29;128.9741;20013.33;-12.98666;1.306504;17630.41;8785.136;-0.008113351;0.09671187;0;
-5857.494;-4731.663;445.7633;-6030.748;-10.69643;1.238208;-6275.941;-4426.915;-0.1380399;-0.2931894;0;
-23042.97;-16158.49;247.7116;-26496.01;-19.2595;6.461511;-24140.65;-12269.6;-0.5277053;-0.1629601;0;
-16012.16;-10020.28;-18.32557;-19870.9;-20.17815;9.804043;-16957.49;-7870.602;-0.3972403;0.3569424;0;
-22499.76;-15482.56;16.36291;-26186.97;-17.61228;4.301713;-23435.97;-11022.06;-0.007037106;0.1616817;0;
-14954.81;-11090.81;-184.209;-18179.87;-17.52724;5.168169;-15563.49;-8509.303;-0.1369647;0.09655192;0;
13177.51;9200.748;-387.2498;13902.5;-14.49551;8.177086;13642.75;6342.786;-0.2667618;0.5512263;0;
19129.89;13303.44;-202.1098;22949;-12.47219;9.173614;20215.58;10734.26;-0.2015264;0.290803;0;
16302.07;11238.49;27.41546;19686.06;-12.79445;11.44182;17203.55;8737.289;-0.1363566;-0.03432586;0;
18509.88;13101.93;4.649339;22064.15;-11.77624;12.23411;19499.13;10680.61;0.3185518;0.225578;0;
16852.51;11698.43;150.3839;20013.54;-6.272054;15.97274;17625.89;8752.808;0.5131338;0.2903187;0;
-5809.678;-4684.673;439.5717;-5972.778;-4.72551;17.4973;-6217.138;-4362.024;0.1877815;0.03015759;0;
-22793.52;-15993.25;221.9892;-26248.07;-1.974096;15.67118;-23868.52;-12085.15;0.3824948;0.2899967;0;
-15424.9;-9672.378;-22.8765;-19308.23;0.1039929;16.05733;-16361.17;-7587.728;0.3171431;0.5495747;0;
-21407.39;-14501.73;44.33146;-25149.02;-5.589539;12.82614;-22355.5;-10297.41;-0.3328489;0.1592184;0;
-13911.15;-10176.54;-132.7803;-17093.53;-5.986064;11.27264;-14484.03;-7931.325;-0.2675472;-0.100811;0;
13525.71;9386.122;-350.9278;14355.74;-8.92681;13.53861;14047.08;6419.154;-0.3322456;-0.03574234;0;
19126.97;13320.6;-212.1916;22951.32;-11.12864;13.59199;20216.54;10794.28;-0.2019771;0.09422827;0;
16297.36;11242.72;-1.584182;19659.59;-6.160968;10.69819;17194.21;8728.922;0.5128666;-0.2307031;0;
18410.31;12982.62;-15.37253;21969.6;-5.819985;9.883647;19403.58;10567.63;0.3824165;-0.360406;0;
16863.37;11749.55;129.2421;19986.2;-7.890242;12.82084;17632.93;8807.53;0.1221629;0.1596949;0;
-5761.324;-4645.99;419.8723;-5977.422;-8.954041;13.41081;-6173.473;-4360.345;0.3819095;0.2245018;0;
-23171.75;-16229.42;209.9308;-26668.45;-3.988551;12.52668;-24264.1;-12345.96;0.2515911;-0.2304952;0;
-15941.21;-9917.76;-36.06288;-19855.46;-2.912816;12.24616;-16884.9;-7839.239;0.0564363;-0.3601983;0;
-22072.73;-15044.9;35.17194;-25819.84;-9.13918;15.04701;-23008.78;-10672.31;0.1213469;0.02996767;0;
-14917.04;-10937.25;-139.713;-18211.13;-9.933304;15.90267;-15522.26;-8405.048;0.1861923;0.2248396;0;
12998.87;9094.118;-343.4701;13666.64;-15.01451;10.8631;13470.06;6202.715;-0.008896761;-0.4250598;0;
19075.42;13230.38;-171.555;22879.27;-18.4147;9.110623;20161.7;10666;0.05607952;-0.7494693;0;
16160.52;11111.9;24.28465;19532.01;-13.57343;10.37414;17060.77;8612.624;0.3808599;-0.1640102;0;
18281.05;12856.55;-31.80532;21827.89;-14.163;9.024062;19269.82;10430.02;0.1855752;0.03105661;0;
16614.81;11517.69;99.84798;19759.32;-14.81836;6.067868;17386.02;8578.888;-0.07448067;-0.228844;0;
-6124.165;-4822.489;389.4926;-6319.561;-13.93281;3.650385;-6528.438;-4514.062;0.1204962;-0.1636467;0;
-23279.35;-16310.38;190.1544;-26737.16;-17.7372;5.522239;-24356.93;-12382.12;0.2503098;0.09638713;0;
-15904.7;-10000.92;-47.1831;-19768.99;-17.45096;5.382725;-16838.86;-7801.939;-0.1397458;-0.2935138;0;
-22082.95;-15094.04;26.343;-25797.37;-17.83557;-1.789736;-23017.64;-10638.67;-0.074638;-0.3581862;0;
-14803.6;-10954.95;-135.6958;-18044.08;-18.35351;-3.462389;-15416.98;-8420.402;-0.009595661;0.2268798;0;
13107.13;9091.004;-353.5749;13826.51;-11.63726;-2.521271;13570.01;6211.614;-0.3344227;0.03174979;0;
19068.69;13251.16;-213.5554;22886.07;-10.35277;-2.451754;20154.44;10690.12;0.05571735;-0.1631841;0;
16194.57;11140.56;-12.06699;19579.63;-7.864124;-2.047393;17092.7;8635.232;0.1206287;0.2267839;0;
18414.82;13000.96;-53.0655;21968.81;-5.779141;-1.44249;19401.85;10580.75;-0.1393619;0.226556;0;
16881.26;11758.37;98.55226;20031.59;-11.53411;4.922216;17653.43;8812.186;0.2505822;-0.03354101;0;
-5740.962;-4566.995;433.0351;-5914.477;-12.79532;7.797415;-6159.487;-4238.614;0.3802651;0.03146004;0;
-22813.83;-15960.74;247.0994;-26253.79;-12.44767;9.732084;-23911.39;-12078.46;0.2499483;-0.09850626;0;
-15462.21;-9625.175;-1.133578;-19308.73;-13.43954;12.60257;-16415.46;-7637.189;0.1847298;-0.1633746;0;
-21724.57;-14740.63;71.40923;-25401.26;-16.50749;12.25499;-22670.03;-10452.24;0.1845442;0.1616263;0;
-14522.07;-10693.78;-106.1983;-17659.15;-17.9638;13.31429;-15087.19;-8197.394;-0.1404779;0.03152917;0;
13267.53;9195.407;-338.5529;14090.6;-17.74566;14.5066;13785.32;6297.295;-0.4651735;-0.0984372;0;
19150.57;13333.18;-203.8583;22980.73;-18.59848;15.09487;20236.31;10772.95;-0.009934667;0.09656375;0;
16273.78;11224.16;-6.580686;19656.72;-13.42223;14.6778;17171.41;8726.507;0.2499447;-0.03346797;0;
18380.39;12956.93;-39.22953;21951.95;-10.46101;14.79702;19371.7;10529.64;-0.01017583;-0.3582711;0;
16671.17;11553.45;105.5496;19817.75;-16.0102;13.77741;17443.4;8616.454;0.05480174;-0.2929437;0;
-5811.971;-4655.125;407.573;-6001.836;-15.5256;13.16072;-6218.523;-4372.57;0.119714;-0.09774734;0;
-23050.82;-16041.22;201.5324;-26498.17;-9.347079;17.36742;-24142.78;-12155.29;-0.0753083;-0.2275838;0;
-16197.3;-10026.79;-47.06086;-20032.53;-7.529027;18.95744;-17126.41;-7780.46;-0.2701347;-0.09742045;0;
-21977.86;-14895.59;24.04446;-25668.64;-4.775771;16.66109;-22891.43;-10468.83;-0.1399285;-0.1622899;0;
-14187.55;-10460.19;-147.8152;-17430.74;-3.832967;17.78294;-14791.09;-8117.319;-0.009853256;-0.2920615;0;
13284.49;9192.339;-350.4866;14003.08;-0.0780718;16.69347;13749.31;6241.046;-0.009843355;-0.291768;0;
19049.63;13240.45;-184.9206;22876.57;0.9937336;15.73893;20136.44;10717.1;0.05513388;-0.3564422;0;
16311.65;11255.13;20.6932;19697.67;-3.696314;24.83255;17211.9;8730.512;-0.2047909;0.03371998;0;
18304.42;12891.02;-6.969951;21861.56;-4.362185;27.152;19291.52;10480.54;-0.1396178;0.3585228;0;
16797.17;11658.32;151.3013;19961.05;-6.634978;20.96241;17576.77;8713.082;0.5101959;0.2282279;0;
-5680.823;-4556.719;457.4952;-5850.789;-4.552206;19.60169;-6085.572;-4342.286;0.3797486;0.2279986;0;
-23251.75;-16345.68;234.2725;-26701.66;-9.973616;21.05562;-24351.43;-12454.33;-0.4002411;0.03286744;0;
-15763.31;-9866.942;-31.28264;-19642.93;-5.475616;19.62782;-16723.85;-7763.899;-0.2049369;-0.1620676;0;
-21569.96;-14591.84;55.39274;-25286.59;-5.135321;15.85718;-22529.19;-10241.71;0.1850731;-0.09693743;0;
-14851.77;-10927.55;-112.5473;-18051.87;-3.522571;14.16667;-15459.85;-8267.795;-0.2698843;-0.1618074;0;
12920.77;8930.62;-355.3434;13660.05;27.42635;7.990127;13404.61;6128.234;-0.3345804;-0.09667744;0;
19175.55;13347.09;-212.3236;22987.12;31.88677;5.168937;20259.61;10749.28;0.1205272;0.4231584;0;
16315.14;11263.55;3.500086;19703.93;70.43593;5.76659;17210.84;8779.621;0.05543871;0.2927986;0;
18580.94;13167.65;-10.96491;22135.27;89.99103;4.354154;19569.83;10734.95;-0.009584339;-0.0972997;0;
16937.7;11790.93;158.0861;20101.32;36.24789;6.962113;17707.11;8855.652;0.315262;0.4225368;0;
-5661.41;-4597.827;458.5731;-5811.363;30.98753;7.089084;-6081.952;-4275.416;0.4448799;0.3571449;0;
-22836.96;-15937.01;239.5034;-26273.95;19.56954;9.694173;-23943.25;-12057.77;0.05462884;-0.22792;0;
-16200.82;-10218.37;-9.596535;-20031.83;5.015186;11.09107;-17151.33;-7938.701;-0.01039339;0.03217834;0;
-22924.4;-15921.56;47.96231;-26587.31;22.62629;6.860126;-23858.95;-11291.24;0.1845191;0.03214601;0;
-15384.99;-11392.85;-138.3204;-18627.39;18.78516;5.379609;-15985.9;-8822.878;-0.3354051;-0.4226577;0;
12911.33;9021.125;-356.3218;13602.91;17.22605;7.785467;13381.44;6121.886;-0.5949374;-0.227331;0;
19100.02;13263.39;-208.288;22909.7;16.87395;7.710661;20182.08;10712.39;0.1203011;0.09773418;0;
16382.95;11334.11;5.454618;19756.72;19.8711;1.272796;17279.33;8819.794;0.5099843;0.03266862;0;
18552.44;13137.96;-22.7242;22103.57;23.80227;0.1997901;19536.71;10720.63;0.1846352;0.1625705;0;
16958.65;11838.09;116.9472;20106;7.435009;-4.221162;17733.23;8890.708;0.05451496;0.0974398;0;
-5987.429;-4773.144;416.882;-6166.166;2.604767;-6.695289;-6402.622;-4487.49;0.1843949;-0.09756015;0;
-23532.4;-16602.31;213.3152;-26974.84;18.14219;-0.3922881;-24645.05;-12682.64;0.1192422;0.09743991;0;
-15792.43;-9898.735;-20.11003;-19667.97;19.7989;-1.061723;-16762.29;-7840.809;0.3789918;-0.2924621;0;
-21792.57;-14792.15;63.35261;-25515.63;9.865044;6.776225;-22760.71;-10493.97;0.4435783;-0.6170049;0;
-15000.86;-11042.74;-114.9652;-18282.37;8.448611;10.05146;-15636.43;-8479.603;-0.3364755;-0.03167885;0;
12922.58;8955.117;-338.6278;13579.36;10.04771;2.606374;13377.12;6101.031;-0.5310394;-0.03164702;0;
19057.14;13227.03;-187.8476;22862.74;10.7072;3.407551;20137.69;10649.3;-0.01076709;-0.09658256;0;
16160.21;11114.37;30.68456;19537.3;5.003016;-4.231684;17054.48;8619.254;0.1191784;0.2933185;0;
18245.91;12819.81;22.95447;21800.53;3.324026;-7.911493;19230.18;10386.26;0.3139607;0.09812179;0;
16568.99;11471.88;169.2173;19692.98;11.62608;0.3352353;17331.62;8536.518;0.1837105;-0.3567482;0;
-5947.365;-4805.938;452.561;-6184.637;12.41868;0.6028302;-6376.814;-4485.457;-0.07634343;-0.7461938;0;
-23418.42;-16385.8;232.2168;-26874.32;15.95618;-2.01011;-24517.86;-12433.11;-0.4011034;-0.8104113;0;
-16687.59;-10448.84;-24.70005;-20534.02;18.0836;-2.343005;-17629.38;-8148.014;-0.7255371;-0.224891;0;
-23131.49;-16031.96;34.545;-26837.25;11.90251;-0.934009;-24065.59;-11426.94;0.05480002;0.2301064;0;
-15739.58;-11706.11;-157.6744;-19072.94;10.01552;-0.7991046;-16359.93;-9063.733;0.5095164;-0.09496153;0;
12627.42;8807.57;-373.9853;13214.69;12.14891;-1.66908;13074.38;5938.665;-0.140669;0.03506857;0;
18866.72;13019.27;-224.6531;22661.25;12.06935;-1.60042;19947.86;10448.79;-0.1405277;0.5547721;0;
15991.87;10951.25;-24.01247;19368.67;1.273581;-1.464846;16889.07;8449.944;-0.2053538;0.09944325;0;
18121.14;12677.45;-39.04327;21672.95;-2.211299;0.3451653;19107.75;10246.81;-0.3350822;-0.09555871;0;
16559.49;11513.09;122.9927;19660.48;4.288633;-7.89396;17320.03;8588.563;-0.00990877;0.03447199;0;
-6658.142;-5360.798;436.4458;-6926.011;5.891915;-9.962378;-7094.516;-4989.012;-0.07486615;0.03443735;0;
-24891;-17687.23;206.2165;-28367.74;0.1925672;-0.03913699;-25991.99;-13561.75;0.1201111;0.1643375;0;
-17516.67;-11026;-84.61021;-21374.99;-1.347868;0.0948682;-18439.19;-8649.383;0.2499251;-0.2905991;0;
-23759.67;-16495.7;-25.2425;-27413.85;13.45562;8.936275;-24663.92;-11840.13;-0.07516275;-0.4202418;0;
-16833.64;-12587.08;-190.103;-20150.65;16.05504;12.47727;-17475.69;-9630.572;-0.1400546;-0.2249175;0;
12154.63;8522.294;-391.9198;12688.67;18.7846;4.226076;12561.97;5820.25;-0.2048812;-0.2896588;0;
18896.35;13015.2;-230.5288;22689.21;22.78519;4.288813;19978.32;10388.09;-0.139708;-0.1594331;0;
15869.83;10829.34;-2.583518;19263.19;7.959187;-2.212719;16771.8;8353.479;-0.009632906;0.1005965;0;
18103.92;12660.6;-20.5875;21653.74;5.338245;-4.889691;19090.99;10220.42;-0.1395579;0.2304301;0;
16452.6;11423.24;129.4047;19558.19;2.118677;-5.487624;17215.55;8500.919;-0.07445034;0.1002639;0;
-6948.661;-5578.759;438.4161;-7204.383;-3.041016;-7.558581;-7383.422;-5167.397;0.1205265;-0.3546083;0;
-25158.72;-17886.43;201.0947;-28601.88;5.937021;-4.134857;-26257.98;-13710.16;-0.2044313;-0.4192193;0;
-18173.21;-11562.4;-70.51782;-21970.04;5.863706;-3.86277;-19092.59;-8951.548;-0.1392586;0.03597331;0;
-24355.35;-17070.91;-22.86151;-27978.87;3.514266;1.901521;-25253.83;-12299.73;0.1857181;0.1658719;0;
-16689.11;-12473;-232.4988;-20074.91;4.716183;5.650533;-17352.99;-9720.11;0.1205641;0.1007379;0;
12250.41;8665.292;-435.2256;12708.73;1.563613;1.82695;12626.05;5866.967;0.05547563;0.165604;0;
18760.94;12885.43;-270.9644;22555.35;2.700141;3.097668;19842.13;10291.34;0.2503219;0.2953722;0;
15896.65;10844.84;-53.69186;19299.02;1.69305;7.046548;16800.74;8344.649;0.3150377;0.1001734;0;
18092.87;12659.84;-56.77695;21636.02;2.026142;8.445988;19074.55;10230.03;0.05485182;-0.419666;0;
16520.12;11488.39;102.6687;19663.93;8.990331;8.169569;17290.55;8553.793;0.1847314;-0.744081;0;
-6854.149;-5428.702;421.8894;-7027.609;10.72261;7.960412;-7281.309;-5023.95;0.1195784;-0.2885619;0;
-24928.06;-17752.78;205.9957;-28319.5;12.5205;11.97139;-26024.54;-13620.78;-0.4002805;0.1664994;0;
-17206.99;-10935.71;-67.4958;-21031.75;11.43619;13.49985;-18145.57;-8605.063;-0.07504155;0.03639742;0;
-23416.76;-16268.74;-3.382046;-27070.23;23.21369;5.113658;-24347.43;-11646.48;0.1849032;-0.1585412;0;
-16597.04;-12362.41;-176.6978;-19875.29;28.07951;2.496186;-17221.94;-9459.961;-0.2050866;-0.2233492;0;
12254.44;8606.216;-372.1094;12843.96;1.861338;6.244722;12692.09;5860.27;-0.4647499;-0.1581575;0;
18941.67;13059.42;-207.6617;22739.9;-3.298096;4.630857;20022.43;10436.84;-0.2044136;0.1668382;0;
15965.6;10918.02;-1.681515;19351.5;-0.3470453;5.831896;16864.63;8435.342;0.3155306;0.2966052;0;
18185.27;12749.92;-32.60178;21729.54;-2.356429;6.3619;19169.54;10310.11;-0.009623196;0.3612745;0;
16628.7;11570.7;99.92688;19757.48;-4.966029;-2.017237;17395.23;8637.333;-0.2694829;0.2959442;0;
-6539.836;-5198.989;393.6631;-6736.894;-7.841427;-4.225525;-6967.35;-4792.928;0.1205919;-0.09415724;0;
-24399.86;-17239.79;187.824;-27825.04;9.916319;-2.613811;-25505.67;-13189.51;0.1854381;-0.09406263;0;
-17019.46;-10677.51;-59.67793;-20844.46;12.92046;-4.084687;-17951.48;-8412.483;-0.2695196;0.03596656;0;
-23310.26;-16121.33;-1.881362;-26946.77;12.77376;0.206203;-24223.72;-11590.87;-0.4641508;-0.3538736;0;
-16236.05;-12068.68;-180.9457;-19534.67;13.16307;1.813586;-16869.61;-9379.216;-0.3337498;-0.4834527;0;
12362.74;8635.673;-372.8705;12925.68;5.781474;-2.408161;12786.77;5799.068;-0.2684471;-0.3530323;0;
18817.63;12942.89;-221.478;22612.01;1.355035;-1.936861;19897.59;10353.87;0.1216267;-0.2227429;0;
15945.52;10904.87;-17.3579;19328.39;-7.957076;-0.5282728;16843.2;8405.566;0.4463412;0.362187;0;
18172.1;12716.84;-23.2906;21713.01;-10.82947;0.008121463;19154.42;10275.07;0.3159581;0.2318884;0;
16595.13;11584.89;132.0454;19729.4;-43.50528;4.026967;17360.18;8654.849;0.2506732;-0.418018;0;
-6700.91;-5313.168;431.762;-6895.565;-57.52774;6.099392;-7128.64;-4923.465;-0.07441536;0.1671081;0;
-24964.21;-17704.55;219.6689;-28401.51;-32.68649;5.021536;-26069.42;-13569.15;-0.3991773;0.4268096;0;
-17676.54;-11173.58;-36.7668;-21549.04;-33.52431;6.1552;-18622.57;-8766.286;-0.2688415;-0.0283907;0;
-24068.22;-16841.63;17.93017;-27746.19;-22.37219;6.48393;-25001.03;-12079.28;-0.1386367;0.03660517;0;
-17232.77;-12916.18;-163.8871;-20514.97;-13.17268;5.807586;-17870.81;-9843.163;-0.1384974;-0.02839896;0;
11970.98;8424.918;-369.6345;12549.48;-28.16362;12.76773;12395.85;5745.849;-0.2033256;-0.1583051;0;
18903.71;13007.44;-223.2428;22694.58;-27.19732;15.09931;19982.64;10356.02;0.1866828;-0.158146;0;
15822.46;10779.11;-16.9814;19213.67;-13.57331;5.773749;16719.85;8302.346;0.1215279;-0.4828238;0;
18078.78;12623.27;-37.25101;21628.64;-10.34449;3.892426;19062.73;10172.03;-0.07349627;-0.4823387;0;
16457.08;11458.02;121.3161;19579.15;-7.788498;5.563088;17223.9;8537.312;0.1214796;-0.1570173;0;
-7050.15;-5638.776;433.7559;-7256.86;-3.02525;3.681976;-7478.294;-5130.636;-0.00857715;-0.09189222;0;
-25399.76;-18079.88;206.4809;-28793.29;-16.08303;5.888713;-26506.62;-13830.17;0.05639881;-0.1567672;0;
-18251.99;-11552.3;-70.89974;-22043.69;-18.41139;5.74883;-19190.13;-8997.771;0.3811789;0.03829232;0;
-24366.46;-17061.09;-33.22241;-28009.67;-8.145114;1.054371;-25281.22;-12275.03;0.1858938;0.4280579;0;
-17055.81;-12749.59;-231.7923;-20427.95;-8.672793;-0.6212621;-17701.33;-9868.26;-0.204097;0.2327258;0;
11962.7;8455.77;-423.6816;12425.16;1.048812;1.455833;12365.68;5689.637;-0.788598;-0.2222795;0;
18714.6;12813.16;-224.4496;22500.79;4.664105;1.789285;19794.48;10199.07;-0.9177403;-0.1570888;0;
15802.06;10758.14;29.66398;19206.03;-2.707972;-3.43706;16704.04;8262.168;-0.3321121;0.03797108;0;
18028.18;12569.58;7.551519;21569.89;-2.30311;-4.505333;19011.7;10122.65;-0.266811;0.1678676;0;
16423.49;11441.12;116.2237;19558.79;-7.860501;-1.888594;17190.94;8520.993;-0.3964776;0.2326663;0;
-7048.148;-5574.56;411.8645;-7258.856;-11.40258;-1.75273;-7477.801;-5137.552;-0.006275201;0.3623672;0;
-25601.46;-18226.99;213.4564;-29002.52;-5.832389;-0.4113104;-26708.8;-13971.12;-0.07123624;0.2320684;0;
-18325.53;-11575.65;-53.56146;-22091.17;-6.161322;-0.2099483;-19261.31;-9050.563;0.1887047;-0.2229362;0;
-24413.47;-17063.55;-6.593723;-28028.47;-9.169241;3.742134;-25330.49;-12310.09;0.4483845;-0.2876795;0;
-17542.52;-13131.79;-200.3803;-20949.6;-8.020951;5.680879;-18210.91;-10033.48;-0.3966415;-0.09248845;0;
11699.54;8263.062;-411.4322;12096.41;-13.03673;0.5845895;12078.59;5624.107;-0.4612103;0.03753917;0;
18820.82;12902.24;-236.4346;22586.85;-13.02363;0.4500363;19897.18;10239.76;0.5137632;0.1024688;0;
15728.21;10688.31;-4.126209;19128.87;-7.518192;-1.961802;16628.19;8204.971;0.5782143;-0.02756885;0;
17975.83;12501.92;-14.42938;21503.58;-6.840076;-4.639026;18954.62;10041.19;0.122862;-0.2874105;0;
16427.25;11475.57;146.0513;19554.05;5.960171;3.269378;17188.96;8553.483;-0.2670655;-0.4170564;0;
-7410.231;-5897.136;455.5927;-7624.333;10.97705;4.672734;-7852.056;-5429.696;-0.2018299;-0.2867027;0;
-26395.54;-18914.8;223.798;-29801.93;5.407289;-2.632978;-27515.45;-14558.88;0.05824232;0.2333242;0;
-19435.31;-12435.91;-53.52193;-23224.35;6.004092;-3.701938;-20376.6;-9645.841;0.1231511;0.5579264;0;
-25753.02;-18329.64;-26.84091;-29393.86;4.390469;-1.956784;-26664.83;-13314.83;0.05806005;0.1025944;0;
-18447.35;-13985.42;-236.6616;-21817.22;1.841438;-1.351971;-19102.63;-10753.34;-0.1369003;-0.4172474;0;
11451.29;8155.342;-418.7696;11922.72;2.441824;-3.159152;11840.31;5538.873;-0.07179541;-0.2219261;0;
18643.56;12719.66;-242.3592;22426.7;1.769785;-2.084251;19719.75;10032.92;0.2531134;-0.09176845;0;
15621.26;10567.97;-23.63173;19013.65;-13.30254;-1.278361;16518.78;8092.497;0.05795708;-0.0267089;0;
17947.02;12476.11;-33.97777;21489.53;-19.25102;-0.6072475;18926.45;10006.13;0.1228662;0.4930567;0;
16276.29;11331.22;117.3553;19377.92;-11.06001;9.038661;17032.42;8417.795;0.4475794;0.4275939;0;
-7613.019;-6051.326;423.5053;-7875.232;-11.8522;13.04843;-8067.256;-5486.741;0.1872603;-0.02760714;0;
-26662.88;-19183.06;186.3394;-30069.16;-13.5816;11.96372;-27789.78;-14718.29;-0.07279718;0.2972573;0;
-19611.7;-12626.65;-92.16105;-23369.39;-13.70265;13.15727;-20549.17;-9769.261;-0.2026587;0.4268933;0;
-25700.43;-18252.94;-40.73487;-29314.71;-11.27701;17.76575;-26605;-13252.17;-0.2674224;0.2965297;0;
-18392.53;-13916.76;-235.0962;-21808.63;-10.66344;19.35549;-19054.13;-10734.63;-0.2021864;0.1662971;0;
11482.21;8162.76;-429.6527;11866.07;-8.77672;12.63787;11857.96;5551.614;-0.2669505;-0.1587068;0;
18769.1;12828.54;-260.384;22534.93;-6.423377;11.08468;19843.01;10149.66;-0.201715;0.1662894;0;
15695.09;10642.33;-32.81474;19094.52;-13.31677;8.059312;16592.76;8151.257;-0.07157762;0.2310897;0;
17940.28;12466.75;-30.09561;21473.69;-12.96762;5.439002;18917.08;10006.61;-0.006538356;-0.1589466;0;
16374.25;11414.21;129.8542;19488.85;-16.30447;5.500519;17132.12;8480.104;-0.1364665;-0.09381953;0;
-7437.73;-5885.566;453.5298;-7677.492;-19.3022;3.686453;-7890.232;-5431.522;-0.006394664;0.03620942;0;
-26504.61;-19041.04;243.2264;-29905.35;-4.881842;4.62051;-27633.03;-14709.82;0.1235464;0.1661077;0;
-19353.7;-12411.9;-46.76298;-23135.35;-3.201997;3.611123;-20297.53;-9643.579;-0.07147972;0.1009735;0;
-25331.83;-17929.4;-27.77239;-28977.38;0.283845;6.219829;-26252.4;-12957.63;-0.2013426;0.4257087;0;
-18086.05;-13704.68;-215.447;-21462.47;5.240053;7.151218;-18751.31;-10538.44;0.0587291;0.5552157;0;
11636.6;8249.886;-384.333;12098.44;-12.51508;2.321384;12027.37;5615.582;-0.006297257;-0.0300483;0;
18798.13;12872.14;-209.5658;22579.1;-15.51661;1.917154;19877.61;10184.23;-0.1362256;0.2298513;0;
15725.51;10663.34;1.304558;19119.39;-9.673874;-1.835695;16621.78;8178.098;-0.07112139;0.4894897;0;
18015.2;12548.18;-23.12197;21557.29;-10.93598;-4.178131;18993.56;10077.97;-0.006082586;-0.09570825;0;
16384.52;11388.69;116.8934;19497.01;-6.83915;-0.3560276;17140.2;8456.87;0.3837276;-0.03064474;0;
-7219.881;-5779.502;434.9597;-7470.125;-5.8279;-1.360414;-7671.842;-5214.01;0.2534073;-0.09558129;0;
-25885.15;-18490.82;223.8005;-29310.21;-3.94701;-0.2203371;-27007.21;-14150.57;-0.2016187;-0.03051791;0;
-18766.36;-11901.93;-56.26809;-22581.83;-2.803968;0.1817819;-19715.54;-9286.964;-0.07148142;0.1644148;0;
-24867.64;-17507.99;-10.96867;-28529.14;1.418408;-4.64105;-25795.72;-12610.89;-0.1363769;-0.1605871;0;
-17737.42;-13330.55;-199.9408;-21109.77;4.765885;-5.306216;-18390.74;-10220.65;-0.3961093;-0.09545843;0;
11693.86;8296.758;-394.923;12154.08;-5.620404;-7.377355;12093.53;5621.925;-0.525646;0.03457217;0;
18800.4;12860.75;-212.7894;22577.48;-7.154998;-8.039771;19876.46;10188.62;-0.1353137;-0.1603646;0;
15720.67;10659.94;6.907813;19115.75;-1.990245;-7.160915;16616.4;8165.252;0.1246916;-0.09523612;0;
18006.61;12532.92;-18.52385;21545.08;-1.854523;-6.416907;18986.19;10062.4;-0.2652377;-0.1601078;0;
16505.89;11511.56;132.6532;19599.06;2.701692;-4.13304;17261.83;8575.019;0.1248328;-0.09497955;0;
-7251.012;-5811.809;432.2442;-7530.869;6.115229;-2.588402;-7704.787;-5296.786;0.3845768;0.2299526;0;
-26044.06;-18671.64;209.9214;-29493.07;-0.7897919;4.380302;-27168.24;-14373.46;-0.1355484;0.2297216;0;
-18804.26;-11938.41;-52.2672;-22629.54;-2.665009;8.126822;-19747.75;-9322.69;0.05948983;0.03458869;0;
-24905.45;-17530.4;-23.51036;-28571.38;14.68637;8.386589;-25820.07;-12664.87;0.2543321;-0.0304134;0;
-17714.23;-13342.89;-231.4603;-21127.87;19.02489;10.9905;-18359.59;-10312.15;-0.1357275;0.09955186;0;
11758.4;8318.896;-413.3081;12169.26;11.10252;9.907726;12157.73;5607.479;-0.005656464;0.09945183;0;
18760.02;12819.29;-227.4704;22530.86;12.90003;10.09872;19836.99;10158.99;-0.07061812;-0.2254848;0;
15708.91;10656.92;-0.7306778;19103.45;2.036076;13.16967;16606.9;8156.145;-0.3304165;-0.4201603;0;
17936.81;12437.71;-3.681585;21473.1;-3.258231;13.62531;18918.22;9966.223;-0.005247819;-0.3547708;0;
16315.25;11367.58;150.3697;19420.89;9.137251;11.93705;17074.91;8440.096;0.1246921;-0.6142836;0;
-7522.654;-5968.879;429.7968;-7786.945;8.457509;11.79121;-7965.875;-5492.995;-0.2002699;-0.5486991;0;
-26697.47;-19210.32;185.2533;-30125.84;5.769693;7.894352;-27807.05;-14813.76;-0.265036;-0.223311;0;
-19582.55;-12552.98;-76.91056;-23377.1;5.831245;5.140242;-20507.22;-9694.624;0.3199364;0.03678272;0;
-25407.87;-17977.64;-41.30426;-29039.22;-2.346288;12.10106;-26304.34;-12930.88;0.6444516;0.1666805;0;
-18187.33;-13759.52;-257.3416;-21591.1;-4.688455;13.16063;-18848.33;-10545.87;0.1890327;0.166513;0;
11460.13;8157.171;-438.3513;11858.87;-4.750117;5.176677;11831.1;5535.021;0.1238754;0.03641096;0;
18703.03;12765.67;-240.5726;22476.95;-5.549627;3.563885;19777.48;10068.99;-0.07115107;-0.2884623;0;
15524.73;10455.73;-9.868553;18929.95;-8.022298;4.096168;16423.73;7966.643;-0.2010143;-0.1582378;0;
17739.8;12248.69;-26.31911;21275.29;-9.420756;2.350495;18719.69;9767.339;0.1889918;0.1667579;0;
16263.32;11319.97;119.6496;19370.34;-1.641758;4.424604;17017.37;8392.241;0.1888019;0.03665566;0;
-7740.369;-6158.856;427.1404;-7983.055;0.3696234;4.018261;-8202.592;-5565.929;0.05867748;-0.2882179;0;
-26963.8;-19478.52;202.3396;-30367.25;1.440979;1.669821;-28088.33;-15026.41;0.1235859;-0.417863;0;
-19560.93;-12561.15;-68.33714;-23359.37;4.25257;0.7974868;-20496.59;-9796.476;-0.006473004;-0.02763904;0;
-25632.29;-18186.69;-17.13793;-29281.16;1.502607;-1.949615;-26539.8;-13183.19;0.05850084;0.2972254;0;
-18653.13;-14132.43;-219.8157;-22045.17;2.639197;-3.68909;-19303.87;-10874.89;-0.2663946;0.03705742;0;
11388.79;8125.371;-428.115;11807.88;0.2256476;-3.551417;11777.24;5513.644;-0.2011596;-0.2878165;0;
18822.92;12864.26;-241.4503;22594.58;-1.515891;-3.882763;19898.62;10164.98;0.1238792;-0.0926253;0;
15646.91;10575.71;18.4274;19047.33;8.130198;-7.830855;16545.5;8075.594;0.05878739;0.2323045;0;
17901.53;12420.6;17.26884;21433.36;10.66762;-8.425833;18878.85;9941.491;0.1236957;0.1021364;0;
16497.63;11492.57;158.3212;19627.17;4.829756;-6.809776;17260.03;8551.07;0.05860403;-0.02790093;0;
-7247.024;-5840.476;464.024;-7445.56;5.360767;-6.334053;-7687.233;-5419.769;0.2534472;0.1020618;0;
-26620.98;-19167.42;223.0693;-30003.02;5.220682;-4.050269;-27748.31;-14840.27;0.3831272;-0.09294279;0;
-19811.97;-12688.39;-69.11751;-23560.02;4.814271;-3.845251;-20751.43;-9855.625;0.1878402;-0.1578167;0;
-26020.33;-18563.21;-42.87371;-29608.59;7.220331;2.722697;-26923.33;-13517.16;0.2526188;-0.02772349;0;
-18799.19;-14278.24;-264.5317;-22247.49;6.945632;4.5285;-19488.95;-11011.88;-0.1374391;-0.2225977;0;
11298.07;8085.03;-448.4233;11620.84;9.082108;0.7060446;11642.46;5483.904;-0.2672357;0.1674301;0;
18706.11;12751.28;-253.4455;22469.81;8.603491;0.5043863;19778.37;10039.82;-0.2019998;0.4920985;0;
15564.18;10487.74;-28.7568;18978.02;10.13606;-5.457479;16463.75;7997.925;-0.3317315;-0.02813466;0;
17821.21;12322.14;-43.51735;21358.78;11.19761;-7.528467;18797.04;9830.322;-0.2014635;-0.2230084;0;
16317.93;11370.13;99.12658;19428.99;-1.942788;-11.60674;17075.29;8445.527;-0.006359063;-0.02788231;0;
-7757.422;-6254.617;411.6667;-8010.308;-6.562537;-14.00634;-8210.231;-5706.209;0.123582;-0.352691;0;
-27425.27;-19932.45;184.3359;-30807.62;-1.398379;-12.18385;-28555.88;-15410.49;-0.1364115;-0.7421407;0;
-20333.19;-13164.18;-99.37872;-24070.85;-2.803493;-12.5735;-21274.58;-10140.46;-0.3311765;-0.2866236;0;
-26367.73;-18875.45;-48.55436;-29962.07;-4.408267;-8.408051;-27268.4;-13675.45;0.188895;0.1034685;0;
-19433.66;-14769.57;-254.6676;-22828.72;-3.800625;-7.193909;-20105.27;-11317.62;0.05877053;-0.1565049;0;
10899.01;7810.072;-451.219;11270.97;-8.887021;-1.225322;11260.58;5315.893;-0.4610273;0.1684891;0;
18640.35;12651.32;-255.4263;22406.3;-10.41931;1.790019;19714.57;9907.288;0.1891094;0.2982545;0;
15344.83;10277.12;-18.5542;18760.06;-2.169816;-0.6230429;16244.76;7792.313;0.3188541;-0.0268819;0;
17635.09;12111.62;-34.99604;21171.15;-1.564424;0.9181905;18613.63;9610.581;-0.5260417;0.1030798;0;
16082.04;11209.05;101.5486;19177.52;4.264297;-4.910125;16833.86;8289.037;-0.2656438;0.2978783;0;
-8287.866;-6543.809;398.4223;-8562.047;8.479571;-6.780714;-8734.881;-5888.529;0.5791985;0.492481;0;
-27869.71;-20300.05;158.8609;-31253.81;-4.121253;-4.295532;-28980.13;-15663.76;0.1888125;0.2321168;0;
-20740.74;-13584.47;-132.7303;-24448.41;-5.122466;-5.295959;-21668.79;-10385.29;-0.1362139;0.03698149;0;
-26791.08;-19287.01;-103.4085;-30389.09;-4.446757;-3.950979;-27687;-13990.85;0.1887597;0.4267484;0;
-19492.68;-14810.34;-297.8318;-22959.29;-6.318299;-3.478129;-20172.74;-11471.89;0.0586353;0.4263196;0;
10947.09;7906.052;-471.2577;11267.47;-0.4848013;-5.283174;11295.54;5346.263;-0.0713583;-0.09384751;0;
18609.13;12616.25;-277.522;22366.74;-0.6844088;-5.61278;19681.64;9890.386;-0.006319257;-0.2886553;0;
15361.06;10280.84;-36.47351;18766.25;4.13905;-0.6505248;16260.07;7778.91;-0.2012149;-0.2233979;0;
17575.3;12058.25;-41.73107;21103.93;5.741505;1.627549;18551.57;9558.367;0.05885661;-0.2231734;0;
16066.91;11155.53;110.2189;19167.37;1.449805;-3.196858;16821.29;8229.832;0.5135689;-0.3528838;0;
-8310.211;-6616.28;413.7055;-8547.902;1.849513;-2.858731;-8760.245;-5959.2;0.3181508;-0.2875619;0;
-27988.75;-20428.59;184.5611;-31359.53;-5.453362;-2.520944;-29103.65;-15762.08;-0.1369403;-0.2223056;0;
-20621.89;-13443.75;-78.86707;-24378.76;-7.791431;-3.656999;-21549.46;-10386.06;-0.3317047;-0.02718022;0;
-26789.64;-19275.18;-43.66486;-30395.26;-6.645503;5.45611;-27688.47;-14051.29;-0.1364694;-0.1570876;0;
-19896.33;-15196.93;-249.9235;-23319.31;-7.241062;8.464738;-20578.79;-11614.13;0.1885045;-0.2868644;0;
10775.99;7769.176;-426.4586;11109.7;-8.440211;2.360908;11123.73;5331.486;0.05838037;0.1032279;0;
18652.69;12665.26;-251.9144;22419.72;-10.44049;3.229314;19724.68;9893.13;-0.07161297;0.03815679;0;
15325.87;10234.64;-32.58393;18754.08;4.037342;-0.1899385;16225.25;7745.467;-0.2014757;-0.2217509;0;
17644.91;12127.26;-26.31995;21184.97;8.387542;-2.53415;18618.33;9622.346;-0.07133857;0.4281453;0;
16116.22;11211.11;140.9974;19248.07;-0.2620503;7.180677;16878.6;8274.257;0.3185371;0.5576498;0;
-8134.091;-6427.404;452.0118;-8353.129;0.80994;8.647086;-8576.063;-5851.977;0.1882824;0.2322528;0;
-27722.52;-20163.09;207.446;-31066.92;-5.621235;5.155407;-28838.27;-15587.33;-0.07177614;0.1020847;0;
-20764.16;-13577.73;-106.9327;-24422.09;-9.231934;5.820056;-21674.65;-10382.9;-0.006736682;-0.02795255;0;
-26612.27;-19096.47;-96.39297;-30157.38;-2.055361;0.3217302;-27494.24;-13837.88;-0.396534;0.2319449;0;
-19061.46;-14485.54;-296.0395;-22461.41;-2.389065;-2.424893;-19734.02;-11185.1;-0.6560049;0.6215159;0;
11234.81;8102.247;-458.0042;11619.44;-7.208459;2.534158;11597.43;5525.982;-0.5254111;0.16612;0;
18759.98;12771.55;-243.2142;22535.56;-8.206571;2.196697;19831.85;10039;-0.005144381;-0.3537856;0;
15556.04;10462.29;-4.480339;18968.21;-12.35053;-2.360227;16450.33;7946.056;0.1247955;-0.02859346;0;
17713.15;12198.89;-23.88795;21255.35;-15.95545;-3.496444;18688.87;9693.393;0.05970274;-0.3534014;0;
16213.86;11260.99;124.4209;19325.22;-5.892707;-5.100521;16967.88;8310.858;0.1246101;-0.6129157;0;
-7766.541;-6192.811;436.4671;-8008.861;-3.207468;-6.167123;-8222.151;-5675.951;0.05951754;-0.02759377;0;
-27458.23;-19943.66;211.7194;-30806.18;-17.94;-6.763772;-28580.03;-15391.52;0.1244251;0.0374013;0;
-20466.39;-13285.19;-74.61515;-24174.93;-20.46757;-7.627754;-21393.69;-10221.5;0.05933271;0.1672984;0;
-26363.81;-18857.21;-59.01673;-29980.2;-16.89606;-5.34267;-27264.93;-13699.96;-0.2005963;0.4269997;0;
-19321.16;-14674.79;-270.3512;-22756.16;-18.68774;-5.002387;-19997.19;-11226.37;-0.3303294;0.3616033;0;
11043.67;7953.529;-458.7816;11395.05;-11.70274;-4.662446;11405.19;5464.667;-0.005160773;0.03640323;0;
18888.01;12888.12;-276.2402;22640.68;-9.212732;-3.853966;19961.31;10116.58;0.3846485;-0.2884701;0;
15491.7;10408.3;-40.62781;18896.77;-16.97398;-6.864326;16390.1;7907.431;0.1893599;0.03665651;0;
17698.85;12155.27;-51.22226;21228.49;-18.2961;-8.26407;18674.18;9630.881;-0.2006344;0.2315217;0;
16157.03;11283.38;94.03747;19250.46;-10.84298;-4.035841;16909.48;8350.764;-0.3303675;0.4911585;0;
-8398.759;-6609.427;397.7434;-8698.628;-8.621277;-3.027164;-8849.179;-5983.254;-0.07016614;0.5556323;0;
-28132.66;-20528.07;168.0215;-31553.33;-13.57008;-8.985359;-29241.6;-15814.25;0.1248064;-0.09459946;0;
-21099.95;-13929.29;-108.4459;-24814.54;-11.81416;-9.579177;-22010.12;-10595.73;-0.3950577;-0.09450441;0;
-27224.09;-19728.86;-82.36565;-30844.19;-16.35762;-9.368603;-28110.22;-14398.46;-0.3296935;0.2304273;0;
-19757.85;-15046.11;-290.0691;-23242.9;-18.21622;-9.493155;-20422.06;-11611.49;0.2553439;0.0352937;0;
10967.91;7971.707;-465.2207;11300.28;-2.858941;-8.14408;11342.26;5460.644;0.19012;-0.1596438;0;
18736.51;12728.35;-262.8703;22491.65;0.559207;-8.604655;19812.24;9961.938;0.1249616;-0.0295487;0;
15471.91;10375.95;-20.36857;18870.16;-0.1109403;-0.6922673;16367.77;7864.385;-0.005098637;0.1004157;0;
17691.58;12149.93;-26.50126;21224.58;2.166347;1.652831;18670.56;9625.266;-0.1350282;-0.2245219;0;
16061.44;11178.55;141.8158;19152.21;0.8249995;-2.434789;16811.95;8247.297;0.4498135;-0.4191984;0;
-8346.949;-6569.349;453.7039;-8652.991;1.627478;-2.164411;-8793.958;-6014.091;0.5792963;-0.5487118;0;
-28233.16;-20621.54;189.9273;-31649.87;-2.86116;-5.980141;-29331.23;-15816.18;0.3188448;-0.8729972;0;
-21621.27;-14449.87;-128.3068;-25310.93;-3.79629;-8.117586;-22527.13;-10923.18;0.3834918;-0.2224466;0;
-28154.73;-20669.6;-115.4655;-31723.65;-5.935929;-8.913102;-29036.26;-15263.05;0.1882044;0.2325483;0;
-20840.48;-15969.31;-310.9543;-24378.29;-7.537555;-11.18157;-21533.23;-12315.07;-0.00688671;-0.0275547;0;
10461.53;7638.361;-475.7932;10663.47;-4.649593;-10.43352;10788.07;5283.991;-0.07184713;0.03744033;0;
18733.14;12717.27;-288.6121;22466.98;-5.716649;-10.28907;19805.24;9894.502;-0.3316443;-0.287434;0;
15440.73;10328.7;-46.02204;18859.36;4.269431;-16.10612;16341.96;7827.829;-0.2013764;-0.4820472;0;
17695.68;12162.19;-28.70322;21223.17;8.552049;-17.16167;18670.9;9628.726;0.18863;0.03817588;0;
16157.17;11246.33;115.1283;19247.01;2.314164;-14.867;16904.06;8309.037;0.2534078;-0.2217318;0;
-8459.375;-6732.342;415.0025;-8755.481;5.526044;-15.65586;-8934.289;-6074.711;0.2531532;-0.6762804;0;
-28590.63;-21018.24;201.6456;-31950.01;-2.516484;-6.195779;-29707.08;-16191.91;0.2528988;-0.2208295;0;
-21679.83;-14504.08;-96.73521;-25316.33;-4.65741;-2.706563;-22581.1;-11005.08;-0.1371593;-0.0257056;0;
-27644.3;-20161.96;-91.8904;-31205.29;7.537432;-8.196322;-28526.58;-14765.27;-0.1370215;-0.02567977;0;
-20179.45;-15386.09;-285.2477;-23653.94;7.127717;-7.11636;-20855.01;-11893.54;0.1879529;0.03931338;0;
10748.89;7864.349;-449.7689;11054.04;20.31607;-10.39125;11101.58;5394.773;0.05782932;-0.2855628;0;
18732.58;12717.78;-255.0708;22492.66;25.58694;-12.7922;19805.83;9922.979;-0.2020981;-0.3502432;0;
15476.75;10355.76;-41.01575;18890.44;9.01779;-5.478324;16376.17;7833.57;-0.2018951;-0.02505461;0;
17676.88;12155.92;-64.58766;21208.72;7.06537;-4.401093;18653.3;9636.601;-0.07175753;0.1698726;0;
16244.61;11276.26;112.3415;19362.32;4.178858;-10.82691;17002.28;8303.708;0.2531513;0.2346693;0;
-7814.535;-6187.653;436.3;-8048.41;1.360644;-11.08396;-8263.346;-5673.114;0.2528969;-0.2853053;0;
-27470.53;-19934.55;198.3092;-30829.9;-1.252691;-13.41711;-28581.73;-15387.48;-0.1371613;-0.1550839;0;
-20434.8;-13309;-84.27937;-24133.91;-3.261165;-14.74328;-21355.54;-10279.77;-0.007088749;0.1699086;0;
-26583.12;-19122.63;-52.81984;-30164.73;-0.6449434;-10.44168;-27481.82;-13975.78;0.05788571;-0.2200662;0;
-19573.87;-14900.47;-260.0063;-22991.96;-1.046437;-10.56516;-20243.14;-11429.51;-0.4619112;-0.2848124;0;
11064.91;8028.327;-456.4743;11427.09;7.193637;-4.928097;11432.32;5517.87;-0.3964797;0.04031051;0;
19015.73;13003.05;-270.3278;22780.35;9.798377;-2.176967;20088.41;10215.96;-0.07124462;0.1052374;0;
15771.21;10641.43;-24.13286;19186.47;9.721183;-7.93519;16666.99;8113.326;-0.006205688;0.04016426;0;
18040.96;12529.75;-37.43004;21575.57;10.78314;-7.32437;19015.88;10010.59;0.1237352;-0.08981078;0;
16707.59;11668.12;114.9841;19831.93;10.63859;-8.72353;17468.87;8679.399;0.2535456;-0.1546879;0;
-7066.412;-5617.325;444.3592;-7278.472;11.76697;-9.250628;-7515.512;-5217.435;0.3832255;0.1703043;0;
-26406.46;-18995.95;221.6182;-29786.64;-1.306646;-6.495155;-27540.27;-14669.36;0.1879384;0.2351005;0;
-19502.76;-12492.33;-67.41245;-23226.01;-5.725963;-6.220696;-20442.18;-9741.199;0.1227822;-0.02500512;0;
-25811.36;-18400.07;-35.76683;-29366.07;-3.644104;-3.736078;-26715.6;-13442.92;0.2525935;0.03998735;0;
-18769.53;-14263.49;-245.844;-22172.23;-7.525208;-3.129477;-19453.24;-10934.21;-0.2024317;-0.1549549;0;
11490.33;8252.28;-445.8713;11848.57;1.859475;0.155709;11843.18;5670.994;-0.2671956;-0.5446032;0;
19121.62;13122.32;-264.3581;22885.83;4.871716;2.031075;20194.7;10353.38;0.3827463;-0.1542519;0;
15966.81;10842.21;-25.05636;19376.82;-5.514679;-3.999308;16865.39;8307.887;0.252427;0.1057724;0;
18105.62;12589.21;-21.75158;21641.28;-5.375416;-5.535897;19077.99;10066.43;-0.007695975;0.2356008;0;
16659.93;11596.17;111.9687;19806.23;-3.561353;-2.984983;17427.63;8608.248;0.0572791;0.3003314;0;
-6886.548;-5507.989;400.5236;-7059.709;-3.959917;-3.450864;-7320.406;-5134.857;-0.2676152;0.04016029;0;
-26118.01;-18752.97;183.2458;-29491.48;3.948292;-5.523868;-27236.5;-14481.5;-0.07244424;-0.08981474;0;
-19241.92;-12319.8;-102.9352;-23027.83;6.221501;-5.317369;-20166.12;-9570.204;0.3174326;0.1701449;0;
-25278.5;-17935.08;-66.28766;-28894.74;6.147901;-7.187548;-26173.31;-12984.8;0.3171136;0.2999086;0;
-18163.87;-13726.16;-231.513;-21535.22;8.218804;-6.510496;-18838.4;-10551.25;0.2518277;0.1696726;0;
11685.74;8396.938;-400.0393;12102.31;5.866021;-6.503954;12048.4;5724.89;0.1866073;-0.02539995;0;
19198.34;13212.64;-225.2562;22971.7;6.663434;-6.832334;20273.66;10472.47;-0.07344958;-0.09034178;0;
16121.68;10988.91;-6.139891;19535.15;2.839321;5.030266;17022.24;8437.04;-0.1383431;-0.02528366;0;
18152.96;12641.55;-26.62342;21697.12;0.7593876;8.441219;19127.1;10128.54;-0.008269429;-0.02525825;0;
16822.9;11735.17;117.6746;19984.2;8.529133;7.361011;17595.98;8731.854;0.1866409;-0.1551675;0;
-6557.964;-5212.545;440.7064;-6713.951;9.190148;9.29612;-6970.749;-4945.128;0.5112901;0.1698251;0;
-25786.61;-18474.75;218.7031;-29199.07;8.577702;5.736805;-26898.8;-14313;0.1209723;0.1046871;0;
-18394.89;-11633.66;-62.29744;-22263.63;9.373365;5.195177;-19359.88;-9083.781;-0.5288227;0.03961455;0;
-24297.23;-17013.23;9.369793;-27962.47;4.608525;2.242708;-25231.11;-12206.1;-0.2684219;0.4293788;0;
-18007.37;-13539.03;-176.8741;-21407.08;2.46044;0.6329862;-18676.29;-10288.68;-0.008282883;-0.02582404;0;
11582.71;8239.26;-397.9914;11965.07;4.868865;-1.712052;11957.44;5610.906;-0.3980786;-0.4156021;0;
19160.39;13158.83;-233.1117;22928.88;3.993317;-3.786681;20233.37;10398.84;-0.1378092;-0.09034783;0;
15920.68;10805.74;3.534949;19341.33;0.5730532;0.3029607;16819.29;8269.507;0.1221986;-0.02528971;0;
18025.63;12484.92;-4.089772;21563.93;0.2376848;0.6375709;19000.31;9951.551;-0.2677282;-0.09023163;0;
16681.03;11646.11;127.0672;19812.01;-6.058218;2.445348;17448.76;8664.412;-0.2024919;-0.02517363;0;
-7014.703;-5629.418;422.9157;-7230.256;-7.99549;4.25143;-7448.315;-5224.973;0.1225483;0.4945904;0;
-26701.64;-19307.43;201.1958;-30132.21;-1.623467;2.70655;-27819.51;-14915.19;0.1224251;0.5590608;0;
-19853.17;-12822.09;-85.87784;-23653;-0.282665;3.708575;-20773.65;-9992.767;0.2522368;-0.2211091;0;
-25996.84;-18599.96;-59.02376;-29622.6;2.530658;3.5039;-26891.75;-13588.73;0.5118527;-0.3508216;0;
-19110.09;-14516.17;-263.065;-22574.46;5.073711;3.366413;-19799.53;-11137.83;0.5113384;-0.09059972;0;
11239.54;8123.779;-447.083;11567.87;6.809925;5.841399;11587.24;5544.483;0.1859879;0.1043934;0;
19004.92;13003.39;-250.1076;22762.4;8.07588;5.835529;20079.29;10223.53;-0.1390357;0.1042885;0;
15742.04;10617;-13.97483;19140.84;11.2156;7.303168;16643.39;8078.686;0.05600605;-0.09071836;0;
17840.29;12292.63;-16.63132;21367.18;12.20968;8.233591;18814.35;9757.158;0.1858845;-0.1555945;0;
16463.52;11480.96;126.9226;19594.98;7.910506;3.000771;17232.76;8501.98;0.1207303;-0.3503402;0;
-7508.908;-5943.15;419.6791;-7725.847;6.294967;2.126978;-7942.328;-5509.353;0.120609;-0.2850209;0;
-27399.36;-19908.11;204.3342;-30816.88;4.747424;2.928636;-28521.8;-15420.86;-0.00944684;-0.08983245;0;
-20258.36;-13130.16;-72.51331;-24030.29;3.671903;2.85871;-21179.11;-10239.31;0.3153993;-0.02477485;0;
-26463.04;-18990.75;-43.86107;-30065.9;-5.0403;4.262479;-27352.81;-13905.89;0.3800498;0.3000868;0;
-19911.67;-15228.91;-233.1281;-23416.59;-9.053723;5.597855;-20616.46;-11582;-0.3349729;0.1698506;0;
10785.66;7771.499;-421.8614;11041.36;-3.28385;7.132838;11110.94;5338.263;-0.4645709;0.1696799;0;
18913.11;12898.52;-244.1828;22664.28;-4.888141;8.666156;19983.5;10065.54;0.05563459;0.4293787;0;
15670.17;10533.72;-1.762313;19082.82;1.547133;12.40837;16569.08;8010.153;0.05557869;0.1041106;0;
17867.76;12323.11;-4.306138;21394.01;4.960854;13.33366;18838.97;9774.557;-0.0094445;-0.2208307;0;
16372.86;11388.69;150.4173;19498.52;-5.158188;18.67878;17134.32;8408.495;-0.009435011;-0.0257068;0;
-7809.849;-6253.877;460.5477;-8022.954;-4.683515;20.46855;-8260.373;-5694.494;0.3803785;0.4940578;0;
-27685.21;-20214.98;216.5199;-31053.33;-6.48747;15.15645;-28814.35;-15602.62;0.6398657;0.1687246;0;
-20461.32;-13332.66;-75.4573;-24193.45;-8.289612;14.53838;-21389.25;-10304.45;0.05451667;-0.2862163;0;
-26406.25;-18938.69;-35.43281;-29988.85;1.296911;8.562409;-27309.2;-13875.78;0.1843966;-0.09102669;0;
-19606.23;-14900.46;-236.8116;-23091.42;2.166264;6.008577;-20313.35;-11538.93;0.4440807;-0.4157719;0;
10949.04;7953.794;-432.0379;11197.51;5.915131;3.390205;11277.16;5386.38;0.05383039;-0.2204521;0;
18938.97;12910.85;-236.1395;22690.04;8.186363;0.1717396;20011.18;10117.7;-0.01119104;0.3644755;0;
15665.25;10531.12;23.06133;19092.18;-1.533778;5.597063;16565.86;7989.11;0.2486896;0.2341745;0;
17793.59;12241.7;19.96158;21315.82;-5.08221;5.122558;18764.35;9690.567;0.5083091;0.03903721;0;
16434.46;11449.82;164.0097;19579.75;0.1468335;6.256121;17201.97;8477.311;0.442831;0.1039653;0;
-7818.227;-6232.751;471.862;-7980.428;0.6161765;6.651732;-8252.212;-5676.316;0.3124513;-0.02607382;0;
-27908.92;-20428.15;228.2757;-31270.54;-14.72341;6.779015;-29028.22;-15793.23;0.5070394;-0.09101496;0;
-20397.53;-13281.03;-77.22212;-24155.84;-18.19124;8.848552;-21330.16;-10305.19;0.3116279;0.4288152;0;
-26403.07;-18954.52;-47.64373;-29972.49;-16.76644;-3.283884;-27305.43;-13833.32;-0.208424;0.6882537;0;
-20067.84;-15357.71;-249.8848;-23511.43;-19.49626;-6.160851;-20769.22;-11659.47;-0.4031166;0.2977581;0;
10772.97;7801.811;-453.1252;11039.15;-5.611573;-0.05933525;11096.11;5399.516;-0.01290746;0.2324916;0;
19089.54;13061.09;-258.9391;22834.65;-1.653819;-0.7960879;20157.25;10211.65;0.1170402;0.3621927;0;
15714.59;10573.13;5.969269;19139.74;-3.996682;5.902883;16616.86;8048.491;-0.0130121;0.1019594;0;
17845.62;12286.08;1.356212;21379.2;-1.849212;8.509165;18816.98;9723.042;-0.07796636;-0.1580125;0;
16315.12;11347.4;147.2346;19458.97;-0.5072074;7.696819;17079.39;8379.802;-0.1428554;-0.2877884;0;
-7944.7;-6323.294;443.1879;-8128.661;0.6314021;10.10047;-8386.525;-5751.363;-0.01277714;-0.09259719;0;
-27949.21;-20449.28;183.3729;-31292.28;-5.464801;6.674314;-29070.03;-15743.62;0.05220304;0.1023979;0;
-21039.99;-13914.41;-99.06008;-24723.46;-8.003929;5.997778;-21952.86;-10602.05;0.1171179;0.1672623;0;
-27132.77;-19679.13;-44.76904;-30650.75;-7.326302;11.08233;-28013.37;-14443.84;0.5717716;-0.02780776;0;
-20119.08;-15347.06;-245.2014;-23606.32;-8.859181;12.07582;-20828.2;-11934.47;0.3113278;-0.02777981;0;
10713.75;7794.912;-432.7825;10912.72;-11.79802;8.580695;11024.79;5266.479;-0.2087238;0.3620522;0;
18868.74;12828.03;-242.7867;22611.24;-12.65682;8.237159;19937.71;10018;-0.2734814;0.2317537;0;
15672.26;10529.62;-14.07942;19107.8;-13.38103;8.496814;16573.97;7988.245;-0.1432719;0.03661878;0;
17812.83;12244.53;-32.19678;21348.78;-13.56866;7.885429;18787.4;9669.884;0.05177404;-0.02838535;0;
16362.34;11413.18;114.1058;19487.4;-9.334492;10.42286;17114.28;8471.391;-0.01324532;-0.1582915;0;
-8192.844;-6526.459;437.3286;-8407.533;-7.784871;11.48411;-8653.557;-5901.011;0.05173533;-0.09316512;0;
-28939.04;-21393.8;216.0627;-32237.91;-5.432524;9.797998;-30059.27;-16411.69;0.1166507;-0.09307151;0;
-21723.74;-14582.5;-93.70195;-25349.73;-4.355339;10.59195;-22648.06;-10956.51;0.3114355;-0.2229127;0;
-27467.66;-20046.97;-74.07074;-30981.84;-1.00206;11.18415;-28361.84;-14633.02;0.0512532;-0.1577214;0;
-21028.21;-16148.21;-260.0278;-24505.53;0.7402592;12.04357;-21738.44;-12304.78;-0.5335044;-0.2225302;0;
10215.4;7442.588;-450.8736;10427.02;-5.087634;14.57682;10519.58;5185.958;-0.2081316;0.1025301;0;
19031.73;12985.35;-282.5987;22768.63;-6.154249;15.6339;20098.94;10082.32;0.1818816;0.3622965;0;
15616.58;10461.33;-30.36322;19054.04;-9.430594;17.62756;16519.81;7946.05;-0.01320319;0.0370957;0;
17752.26;12186.03;-8.125124;21292.65;-11.83202;18.01174;18726.74;9596.326;0.05177741;0.1669931;0;
16225.4;11267.74;129.4701;19328.35;-11.21692;20.67296;16976.45;8332.798;0.3115948;0.29676;0;
-8528.842;-6875.175;411.5263;-8779.021;-12.88058;21.52297;-8992.255;-6109.788;0.376249;-0.0283749;0;
-29081.53;-21549.86;175.6218;-32386.98;-9.518738;16.67869;-30198.35;-16511.28;0.2459363;-0.2882158;0;
-22195.49;-15045.21;-115.5022;-25773.95;-8.437447;16.12607;-23114.21;-11263.77;-0.2090822;-0.2879262;0;
-28253.83;-20842.31;-90.63292;-31737.93;-10.4387;9.880576;-29145.08;-15358.21;-0.3388068;0.03719986;0;
-21192.73;-16260.68;-284.1945;-24748.35;-8.886994;6.789433;-21909.89;-12658.43;0.05133764;0.3619992;0;
10205.5;7506.753;-449.7943;10333.06;-11.89217;8.859082;10498.74;5121.016;-0.4034853;0.4915701;0;
18775.88;12725.36;-248.5214;22501.25;-12.68451;6.237968;19841.39;9853.785;-0.4030799;0.1662395;0;
15486.19;10330.7;-7.783219;18910.87;-2.221938;13.86751;16388.93;7797.007;0.3769332;-0.2237316;0;
17630.17;12049.43;-12.44493;21158.65;1.530363;15.99703;18605.22;9445.762;0.2466198;-0.3534415;0;
16171.88;11266.38;136.3834;19263.74;-3.695111;6.134709;16914.35;8348.224;0.1164373;-0.4180537;0;
-9033.769;-7245.497;447.4025;-9311.516;-2.888091;4.65492;-9513.529;-6435.378;-0.01361439;-0.2227316;0;
-30265.06;-22691.75;200.1082;-33610.6;1.200647;4.58326;-31379.01;-17480.76;-0.5983068;0.2322636;0;
-22805.76;-15689.78;-122.5089;-26453.97;2.338517;2.703133;-23716.16;-11737.44;-0.3378362;0.3619649;0;
-28785.17;-21360.89;-109.5329;-32304.85;3.274172;2.432485;-29664.65;-15714.04;0.182242;0.4915359;0;
-22468.71;-17363.66;-317.0685;-26063.03;4.207911;0.5546405;-23169.88;-13311.31;0.1820588;0.101238;0;
9563.906;7009.263;-497.7526;9608.834;4.137311;2.295517;9854.911;4892.387;-0.07799346;-0.4835698;0;
18776.02;12701.76;-290.6064;22487.28;4.802739;1.958296;19837.02;9753.932;-0.2078498;-0.09327991;0;
15237.02;10073.36;-39.8465;18678.88;3.859908;-2.799338;16140.89;7563.29;0.2471305;0.1666832;0;
17445.36;11862.35;-46.50622;20968.6;4.124449;-3.935113;18419.05;9229.692;0.3118495;0.2964504;0;
15886.58;10977.24;99.74827;18949.87;4.321375;-7.347288;16623.92;8105.447;-0.3381373;0.6209892;0;
-9626.625;-7854.482;408.1336;-9951.134;4.048614;-9.416255;-10110.36;-6833.583;-0.2728302;0.2955286;0;
-31011.26;-23468.28;166.8914;-34326.68;6.791212;-6.861564;-32113.09;-17943.8;0.05228068;-0.02960512;0;
-24164.28;-17060.01;-150.523;-27727.95;6.583317;-6.787686;-25049.18;-12597.28;-0.2726086;-0.09454272;0;
-30294.11;-22909.7;-163.6151;-33763.57;10.99733;-6.713883;-31152.26;-17072.97;-0.2073673;0.03548696;0;
-23136.53;-17879.72;-376.3906;-26732.07;13.26346;-5.702393;-23839.23;-13954.99;-0.07722425;0.4252554;0;
9288.01;6964.356;-519.3466;9308.499;3.604588;-8.37598;9566.68;4822.917;-0.142114;0.1649587;0;
18550.1;12485.11;-288.4249;22255.35;1.59221;-9.90805;19611.97;9525.252;0.05293082;-0.2250111;0;
15187.14;10000.67;-22.28437;18635.11;2.527639;-1.72642;16094.57;7489.169;-0.2719591;-0.2897524;0;
17367.34;11786.39;-11.22065;20899.77;-0.154218;-0.8539073;18343.64;9130.252;-0.7264572;-0.2894612;0;
15777.16;10891.05;136.0135;18832.47;5.0035;-3.532245;16510.48;8054.864;-0.2059885;-0.029301;0;
-10222.83;-8374.932;432.6495;-10546.35;5.400615;-2.45709;-10716.13;-7187.525;0.1190552;0.03569579;0;
-32068.5;-24518.79;164.49;-35349.61;1.175629;-12.83673;-33167.82;-18818.05;-0.01099914;-0.09427477;0;
-24327.39;-17266.25;-168.1176;-27907.38;2.045104;-15.10113;-25224.88;-12656.41;0.05397925;-0.09418003;0;
-30075.93;-22691.07;-158.7814;-33548.09;-5.39169;-15.6888;-30940.96;-16724.13;-0.335879;-0.1590527;0;
-23790.32;-18461.05;-351.478;-27309.04;-7.328656;-18.3523;-24457.63;-14265.38;-0.6603783;0.1009765;0;
8886.699;6590.717;-498.2072;8935.216;1.452618;-8.956429;9185.753;4640.098;-0.2699107;0.03590763;0;
18667.9;12575.24;-285.1884;22357.89;3.594613;-7.607892;19723.39;9567.598;0.1201646;-0.2889652;0;
15004.95;9828.807;-37.57301;18458.36;3.390906;-5.121879;15912.64;7308.286;-0.009890819;-0.02880543;0;
17228.66;11625.62;-25.29141;20758.66;4.258155;-2.370554;18201.47;8970.119;-0.07484822;0.2310929;0;
15596.24;10761.29;140.3539;18653.76;13.36258;-5.78418;16328.48;7896.969;-0.269675;0.295828;0;
-10453.15;-8472.928;451.1035;-10763.75;16.89913;-4.773624;-10939.5;-7320.274;-0.3993388;0.1655961;0;
-31996.7;-24410.26;186.5329;-35276.04;11.055;-7.11323;-33089.8;-18750.65;-0.2040355;0.03549501;0;
-24748.11;-17682.77;-161.2142;-28304.64;11.31231;-6.637202;-25623.31;-13013.16;-0.3337651;0.1004267;0;
-30841.19;-23458.36;-188.554;-34274.32;6.47817;-8.639899;-31684.22;-17487.01;-0.3983971;0.03535843;0;
-23911.32;-18510.54;-389.7789;-27478.45;2.98806;-8.832167;-24592.95;-14472.9;-0.3330294;-0.2895138;0;
8849.906;6698.988;-517.8696;8818.895;9.482768;-0.9865328;9127.592;4655.362;-0.07282546;-0.2892229;0;
18467.24;12389.38;-302.9569;22156.31;10.14283;2.028569;19521.22;9392.77;0.0571824;-0.09403026;0;
15073.08;9867.564;-54.05874;18533.14;-1.790084;7.78694;15979.8;7338.188;-0.3976465;0.1009663;0;
17313.47;11728.69;-45.57116;20842.88;-6.075193;12.60176;18287.65;9059.664;-0.07241019;0.3607342;0;
15731.05;10846.33;110.1308;18771.68;2.102585;12.991;16461.13;7988.767;0.1875319;0.1654697;0;
-10335.6;-8458.494;429.8749;-10705.78;0.9623725;15.45632;-10839.53;-7255.024;0.2523108;-0.02959862;0;
-32210.49;-24666.7;175.4301;-35524.6;1.630991;19.39266;-33317.02;-18929.69;0.771796;0.1003658;0;
-24786.2;-17727.52;-146.6781;-28366.8;2.701079;20.4449;-25679.62;-13075.24;0.5761185;-0.1596044;0;
-30835.78;-23468.2;-144.5942;-34307.16;-8.152626;22.0988;-31703.37;-17480.93;-0.009166433;-0.2244114;0;
-24389.58;-18980.37;-366.7434;-27977.27;-10.48896;23.08134;-25079.21;-14730.66;-0.3989613;0.1006508;0;
8579.556;6422.759;-517.2054;8539.329;-10.61214;15.22139;8853.206;4501.012;-0.2686257;0.2304844;0;
18524.84;12431.95;-284.8179;22207.19;-12.87865;12.25885;19573.59;9392.497;0.05648091;0.1652855;0;
14905.77;9702;-21.14844;18367.76;-9.249367;12.58145;15813.41;7171.265;-0.2034452;0.5549234;0;
17117.8;11514.18;-16.84809;20643.93;-9.84231;9.68866;18088.95;8832.423;-0.1382734;0.6193331;0;
15586.01;10740.63;123.0829;18637.05;-4.875927;11.01858;16314.47;7878.914;-0.00819982;0.03400477;0;
-10582.31;-8592.79;419.3415;-10905.45;-1.99064;10.40467;-11077.13;-7380.243;0.4465798;-0.09596408;0;
-32413.42;-24843.97;157.9419;-35700.65;-5.739684;6.107425;-33516.06;-19105.21;0.9009024;-0.03090031;0;
-24843.7;-17819.15;-159.4011;-28430.26;-1.447009;5.163527;-25737.4;-13025.22;0.5101932;0.03409808;0;
-30539.29;-23170.34;-144.3109;-34009.48;-6.134604;5.962134;-31408.18;-17180.91;0.3797459;0.03406381;0;
-23757.41;-18385.09;-335.8196;-27322.62;-1.975254;6.492007;-24452.96;-14442.79;0.509299;-0.3557745;0;
8924.479;6708.745;-485.032;8915.228;3.116945;3.672201;9203.003;4618.128;-0.0109515;-0.4853517;0;
18509.91;12407.09;-272.4325;22205.37;6.328994;2.261869;19565.21;9397.553;-0.07590783;-0.3549293;0;
14992.94;9789.838;-17.47426;18457.35;29.43114;10.29743;15899.56;7248.857;0.05410312;-0.2896053;0;
17283.31;11673.19;-27.0144;20811.58;34.7602;11.49277;18257.06;8971.844;-0.07588593;-0.224347;0;
15703.73;10855.79;107.0391;18773.68;61.3164;11.81602;16438.94;8021.005;0.5088964;-0.09418687;0;
-10607.97;-8629.519;407.593;-10879.16;75.58938;14.3495;-11090.63;-7360.811;0.4434177;-0.09409223;0;
-32730.09;-25173.4;154.17;-35969.43;41.6203;4.354864;-33817.37;-19278.44;-0.4016033;-0.3538671;0;
-25167.57;-18148.86;-153.4086;-28735.23;38.498;3.077813;-26051.34;-13180.57;-0.01139569;-0.2235768;0;
-30919.22;-23562.1;-141.1355;-34359.58;32.4311;5.084208;-31768.54;-17449.65;0.1185504;0.03651721;0;
-24375.14;-18999.08;-356.1356;-27937.75;23.02041;4.543236;-25047.87;-14782.21;-0.5312421;0.1664152;0;
8706.902;6513.197;-524.0057;8641.638;31.16896;8.825457;8982.923;4601.845;-0.2708389;0.2961827;0;
18690.51;12591.56;-308.4778;22360.45;27.1865;9.017537;19741.88;9533.209;0.05426992;0.2958851;0;
15039.05;9829.246;-51.34383;18507.75;24.88103;17.51506;15952.26;7282.693;-0.400556;0.4255224;0;
17322.14;11702.74;-36.6902;20851.98;23.31579;20.17678;18297.94;8999.353;-0.3351862;0.3601275;0;
15736.43;10898.48;130.7;18761.3;20.54569;17.87909;16464.49;8036.087;0.3797914;-0.03003837;0;
-10580.6;-8580.51;431.2145;-10956.11;19.38695;19.5357;-11080.57;-7403.138;0.3794098;-0.2898776;0;
-32764.43;-25198.19;174.8317;-36046.7;16.7555;9.803787;-33850.54;-19301.17;-0.3356122;-0.09468427;0;
-25659.96;-18644.04;-155.4437;-29218.39;14.39414;6.779705;-26518.5;-13453.45;-0.07540564;0.1003129;0;
-31526.79;-24173.28;-186.4749;-34992.43;17.8623;4.227663;-32368.53;-17993.13;0.4444089;-0.2895919;0;
-24619.35;-19157.5;-393.6521;-28215.11;19.1845;-0.867166;-25307.72;-15050.38;-0.07577642;-0.1593663;0;
8586.539;6490.911;-520.8018;8509.902;6.10343;7.573311;8853.876;4539.84;-0.4655043;0.2955652;0;
18612.71;12501.99;-283.132;22282.31;2.748395;7.230786;19662.26;9441.858;-0.3351019;-0.09453579;0;
15094.11;9867.229;-24.33688;18557.3;9.979301;3.070701;16001.8;7306.05;-0.009928486;0.1004612;0;
17353.43;11739.42;-25.6555;20877.59;9.969275;3.670462;18324.11;9027.293;0.1200162;0.2952623;0;
15720.4;10846.59;136.7106;18775.58;9.959257;-6.514388;16454.86;7979.276;-0.2049411;0.03509626;0;
-10457.44;-8497.649;444.5121;-10794.29;9.748179;-9.92385;-10943.23;-7342.544;-0.3996372;-0.02990635;0;
-32613.87;-25086.91;156.1946;-35901.51;16.03502;-3.483761;-33710.12;-19190.54;-0.07439896;-0.2897457;0;
-25610.15;-18646.3;-210.2626;-29184.03;19.10037;-3.614226;-26504.21;-13458.14;0.2505125;-0.4193892;0;
-31311.99;-23995.12;-230.463;-34773.33;9.9715;-2.404902;-32173.46;-17818.5;-0.07457592;-0.1590984;0;
-24237.1;-18872.32;-417.3249;-27811.75;9.224546;-0.3929972;-24920.63;-14708.74;-0.5292724;-0.09397123;0;
8886.479;6687.009;-538.4225;8831.419;10.89022;-2.469073;9157.594;4781.328;-0.6586753;-0.1588442;0;
18853.35;12738.96;-308.7624;22528.76;10.87927;-1.126934;19903.11;9661.146;-0.398144;-0.0937172;0;
15330.13;10101.31;-56.43816;18800.63;10.33248;-0.7239037;16241.07;7521.291;0.1219947;0.101279;0;
17560.76;11938.45;-58.66155;21090.95;9.651536;-1.593954;18533.32;9246.347;0.05690483;0.3610466;0;
16052.91;11167.15;99.849;19102.42;19.62217;7.383116;16784.45;8224.019;-0.008119692;0.0358471;0;
-9776.621;-7840.757;421.3526;-10112.11;24.22416;8.246475;-10270.38;-6816.658;0.3167252;-0.2240583;0;
-31546.38;-24014.79;164.4332;-34827.68;16.09549;7.903275;-32649.63;-18357.19;-0.07339712;-0.02893113;0;
-24360;-17368.21;-161.4121;-27936.04;16.61518;9.435941;-25261.6;-12594.49;-0.2032581;-0.0938694;0;
-30184.74;-22839.51;-152.8791;-33658.76;22.76043;-5.242436;-31054.42;-16890.81;0.1217829;-0.1587424;0;
-23361.09;-18106.92;-366.5867;-26958.47;23.60822;-9.523954;-24045.84;-14138.39;-0.3331109;-0.4184523;0;
9365.479;7028.402;-536.5859;9301.956;26.66595;-9.313436;9638.319;4941.11;-0.3977435;-0.4180318;0;
18990.19;12874.91;-304.1945;22675.21;27.0413;-12.72021;20040.48;9825.922;-0.07250714;0.3619963;0;
15537.92;10304.84;-32.19729;19003.82;25.27184;-9.894143;16447.83;7700.706;-0.202369;0.5565346;0;
17780.25;12167.93;-37.52162;21300.1;22.96927;-11.08989;18752.27;9482.318;-0.07223094;-0.02873067;0;
16391.4;11427.53;119.9682;19458.03;17.32011;-5.98817;17131.24;8429.347;0.187711;-0.09366915;0;
-8911.924;-7158.4;435.0954;-9256.926;10.60491;-3.503906;-9407.24;-6348.371;0.05758771;0.101327;0;
-30488.17;-22988.37;169.401;-33816.16;11.4649;-9.327657;-31610.14;-17675.17;-0.3322742;-0.0287095;0;
-23324.9;-16286.82;-156.8553;-26916.44;8.238204;-9.519233;-24232.46;-12011.89;-0.2020057;0.03628669;0;
-29093.6;-21741.94;-155.2922;-32586.12;-11.4633;-6.830473;-29965.9;-16034.9;0.3179361;0.03625023;0;
-22450.64;-17319.19;-374.4947;-26013.1;-16.542;-6.019814;-23134.84;-13448.11;0.2526492;-0.09372088;0;
9881.037;7382.037;-525.8077;9908.181;-32.33286;-7.621356;10170.09;5164.911;0.1224607;0.03630798;0;
19213.19;13086.54;-286.3214;22910.78;-42.48178;-6.74292;20269.89;10060.4;-0.3324337;-0.02869585;0;
15775.37;10547.49;-30.20916;19227.77;-14.70889;-6.200281;16684.12;7935.431;-0.397067;-0.223569;0;
18035.35;12415.78;-27.30525;21549.85;-9.737616;-4.720427;19004.74;9724.491;0.1230707;-0.4182464;0;
16692.19;11684.76;134.0473;19819.09;-14.95177;-2.371403;17447.01;8676.992;0.4477837;-0.3528588;0;
-8391.204;-6730.997;445.7559;-8608.032;-9.779181;-0.8284126;-8849.108;-6074.191;0.5123011;-0.2225696;0;
-30077.09;-22587.96;202.2583;-33378.84;-11.1095;6.674264;-31182.31;-17336.28;-0.007952383;0.03752342;0;
-23144.04;-16086.62;-104.2909;-26745.53;-9.088606;9.882739;-24033.87;-11767.65;-0.3327811;-0.02748162;0;
-28893.9;-21549.37;-92.73878;-32368.15;-1.443664;11.88217;-29756.99;-15824.88;0.4471614;-0.1573887;0;
-22423.54;-17331.72;-310.989;-26020.46;2.643624;14.61654;-23144.37;-13413.32;0.5116794;0.2325735;0;
9753.908;7227.331;-493.6939;9745.788;-2.985111;13.39616;10018.9;5058.19;-0.0735408;0.1024051;0;
19233.29;13113.12;-295.0005;22930.35;-2.312526;15.19123;20293.09;10067.6;-0.2034016;-0.2875018;0;
15840.05;10600.5;-39.87909;19295.44;1.172422;10.15237;16749.61;7976.517;-0.1382299;-0.02734357;0;
18062.98;12457.14;-36.96547;21584.2;1.171244;8.601563;19033.86;9774.579;0.05681105;0.03765125;0;
16839.7;11778.68;98.11317;19942.53;7.534056;15.35808;17594.87;8723.124;0.1866886;-0.09232127;0;
-7920.861;-6384.5;425.1627;-8186.396;8.329793;16.34739;-8379.485;-5684.684;0.3164358;-0.2221632;0;
-29229.91;-21801.1;219.9165;-32546.3;11.93875;15.66113;-30353.88;-16718.22;0.3161178;-0.09200528;0;
-21953.96;-14903.07;-99.36283;-25580.6;14.405;15.2435;-22885.43;-11091.94;0.1208981;0.2329239;0;
-27239.84;-19888.61;-87.22217;-30755.36;5.884055;21.52445;-28136.34;-14477.48;0.185744;0.3626245;0;
-20824.99;-15892.33;-249.1468;-24370.01;6.079214;23.57918;-21551.87;-12280.22;-0.269214;0.2972928;0;
10478.83;7753.947;-420.201;10558.66;-1.027818;15.11588;10752.97;5346.406;-0.7237149;-0.02784261;0;
19424.57;13302.02;-248.1307;23134.73;-3.839824;13.29215;20486.28;10306.55;-0.398151;0.1021201;0;
16007.63;10776.21;7.740135;19458.53;4.805198;12.14008;16913.87;8130.833;0.05702043;0.1669848;0;
18130.78;12511.51;4.780716;21651.83;4.733021;9.247742;19099.96;9829.414;0.1868978;0.166817;0;
16989.43;11922.18;126.293;20130.35;14.77595;9.841296;17756.56;8848.37;0.05677534;0.2965841;0;
-7531.624;-6014.088;435.3232;-7720.798;18.57852;8.089851;-7967.193;-5454.805;-0.07321639;-0.5482894;0;
-28619.62;-21180.18;201.8154;-31933.08;15.2783;6.742064;-29733.2;-16310.88;-0.2030775;-0.6127058;0;
-21253.6;-14179.54;-116.1027;-24909.11;16.40105;6.400375;-22176.49;-10711.53;-0.2028735;0.2974526;0;
-26858.75;-19485.27;-106.6782;-30380.46;14.10739;0.2987408;-27741.26;-14264.77;-0.07273491;0.1022517;0;
-20675.7;-15845.57;-292.7431;-24231.49;14.22694;-1.911996;-21386.94;-12242.01;-0.2675638;0.102149;0;
10682.89;7813.105;-443.7479;10763.81;5.638826;2.376711;10974.62;5383.232;-0.462197;0.3619157;0;
19488.18;13357.64;-260.4095;23198.3;2.753749;2.441305;20554.44;10368.88;-0.3317979;-0.1581867;0;
16068.62;10842.14;-38.93095;19504.76;4.090152;4.44834;16973.86;8198.435;-0.2664972;-0.2229951;0;
18249.34;12618.44;-33.00416;21775.04;1.741518;6.721169;19224.73;9925.621;-0.0713274;-0.027869;0;
16968.6;11900.28;118.8589;20072.76;12.85918;0.753178;17721.38;8831.489;0.3185483;0.03712635;0;
-7232.058;-5757.796;439.547;-7523.566;17.13317;-0.1853399;-7695.882;-5272.596;-0.006608463;0.1020564;0;
-28322.17;-20894.24;232.8652;-31673.75;10.28345;5.173359;-29440.61;-15997.92;-0.07156917;0.0369865;0;
-21576.56;-14522.89;-62.26737;-25220.77;11.41219;4.632297;-22503.98;-10769.82;0.5132088;0.2318514;0;
-27097.59;-19762.77;-51.30404;-30622.8;16.75936;11.05788;-27990.71;-14391.19;0.1878564;0.3615531;0;
-20801.84;-15830.78;-262.3651;-24390.17;18.28276;14.3958;-21522.13;-12273.73;-0.3970384;0.03635308;0;
10394.98;7678.58;-426.5189;10410.91;22.28288;0.9181275;10668.82;5243.245;-0.2667048;-0.2885202;0;
19378.59;13238.17;-201.2502;23077.82;25.47567;-1.226249;20439.72;10246.16;-0.1365021;-0.02836089;0;
15881.71;10652.28;29.27378;19340.24;17.94798;1.320213;16788.32;8007.799;-0.006430254;0.03663495;0;
17979.69;12337.38;-8.221182;21503.88;16.7245;-0.6904799;18950.88;9622.983;0.1235109;-0.0283692;0;
16803.05;11771.77;117.0522;19910.87;23.94234;6.209212;17553.44;8735.724;0.05841944;-0.1582754;0;
-7751.637;-6166.748;420.329;-8026.57;24.98903;8.279444;-8221.266;-5550.799;0.1882954;-0.3530184;0;
-29286.72;-21821.52;191.3965;-32600.55;25.09862;3.113561;-30403.45;-16695.34;0.1231389;0.1670751;0;
-22436.19;-15382.59;-135.491;-26031.35;26.54629;2.976466;-23351.78;-11349.19;0.1230152;0.2318746;0;
-27914.76;-20587.01;-135.1518;-31416.79;23.17072;4.581066;-28802.44;-15016.94;-0.1369778;0.1017069;0;
-21699.37;-16626.15;-323.6555;-25274.88;21.94199;3.303787;-22417.37;-12794.41;-0.4616769;0.2965067;0;
10017.33;7455.886;-496.915;10054.05;25.8047;8.324065;10292.44;5193.893;-0.266311;-0.09359528;0;
19451.57;13311.81;-298.0623;23150.66;24.30491;9.119496;20508.82;10264.65;-0.006174013;-0.1584686;0;
15884.82;10634.1;-46.49842;19334.1;28.76846;0.7377108;16789.17;7992.445;-0.1361025;0.03659268;0;
17979.31;12346.23;-44.10913;21499.76;30.4145;-1.607433;18946.84;9633.164;-0.3308678;-0.09337877;0;
16817.93;11767.64;108.2961;19930.04;13.23631;-5.021825;17573.97;8713.207;-0.005698595;0.2315518;0;
-8006.699;-6421.809;430.6034;-8256.745;7.529578;-8.365926;-8463.857;-5806.988;0.05927447;0.3612538;0;
-29627.13;-22190.61;196.2882;-32948.81;14.42089;-7.419759;-30756.85;-17107.21;-0.4605238;0.2309561;0;
-22528.29;-15501.78;-133.9306;-26171.35;13.20095;-8.350064;-23463.29;-11423.86;-0.3301264;0.1657567;0;
-27581.49;-20251.65;-119.1471;-31108.23;7.159465;-10.35104;-28474.64;-14726.95;-0.06992532;0.03565546;0;
-20869.85;-15951.39;-302.5133;-24456.94;6.080544;-9.737793;-21592.69;-12454.27;-0.3946918;0.1655543;0;
10596.25;7853.4;-480.9476;10615.88;7.414581;-11.00068;10873.21;5408.424;-0.5242299;0.1004206;0;
19527.34;13383.51;-285.6717;23227.85;8.34416;-10.7217;20589.46;10379.5;-0.5237031;-0.6792883;0;
16076.73;10831.65;-26.21801;19535.54;9.542201;-2.740201;16981.78;8160.372;-0.5231769;-0.2238344;0;
18159.1;12520.24;-21.03801;21678.72;10.2022;0.2767844;19130.22;9820.006;0.1270222;0.4260639;0;
16954.29;11890.97;120.3808;20084.74;20.23866;0.6114209;17707.14;8798.851;0.6466333;-0.02913561;0;
-7387.627;-5855.629;430.2134;-7610.233;24.3715;1.682411;-7865.434;-5359.66;0.5160489;-0.159041;0;
-28628.62;-21217.22;201.2085;-31927.16;19.85904;7.106216;-29771.55;-16300.37;-0.004208372;-0.02894652;0;
-21475.12;-14445.44;-95.11042;-25088.01;20.84444;9.443479;-22408.05;-10738.95;-0.2640735;0.1659846;0;
-26692.22;-19349.22;-72.26067;-30211.34;19.48335;1.195211;-27588.7;-14013.65;0.06102854;0.3607198;0;
-20437.67;-15612.44;-286.7209;-23962.31;18.32567;-0.2125093;-21148.92;-12031.58;0.1259346;0.03552067;0;
10783.98;7927.032;-468.1695;10907.51;18.50735;-3.628425;11081.17;5487.548;-0.3289634;-0.159417;0;
19686.94;13544.99;-258.523;23406.17;17.21693;-7.241736;20751.51;10536.37;-0.3286328;-0.02932218;0;
16189.42;10939.31;-10.01302;19646.23;15.79214;-2.545776;17092.36;8266.23;-0.1334006;0.100642;0;
18245.43;12609.78;-23.38685;21778.54;14.83924;-3.28003;19211.37;9910.359;-0.003331865;0.2954429;0;
17103.41;11980.34;110.4756;20249.96;11.74287;-6.357827;17867.43;8877.338;-0.1332632;0.1652113;0;
-6893.894;-5509.643;432.4371;-7092.67;9.721339;-7.892046;-7351.308;-5134.84;-0.263064;-0.02985671;0;
-28205.38;-20822.39;209.3645;-31505.13;12.0561;-4.735919;-29344.54;-16016.08;0.1919717;0.2300427;0;
-21382.19;-14316.13;-108.4987;-24990.09;10.77118;-3.458606;-22302.57;-10686.63;0.5815829;0.09987684;0;
-26156.9;-18824.49;-83.49595;-29669.66;13.03851;-11.82775;-27047.16;-13585.43;0.1911945;-0.03015822;0;
-19675.3;-14913.92;-261.0103;-23210.39;14.09616;-13.15553;-20391.98;-11432.2;-0.00389967;0.03483943;0;
10987.1;8049.885;-431.787;11116.93;6.111395;-10.99885;11291.59;5559.051;0.3209409;-0.2250649;0;
19750.74;13600.14;-242.3701;23474.72;5.033528;-11.3897;20816.57;10595.76;0.5804878;-0.1598715;0;
16382.17;11144.42;-2.69999;19830.75;1.077331;-6.15371;17284.97;8470.784;0.2550679;0.2950606;0;
18303.55;12648.68;-19.09529;21840.19;-2.674795;-3.602297;19273.75;9945.309;-0.1349925;0.6196008;0;
17137.16;12064.98;103.05;20284.53;8.580049;-5.675026;17900.63;8949.076;0.06004518;0.1642068;0;
-7108.272;-5620.416;420.8648;-7305.521;10.24637;-4.865529;-7554.387;-5240.741;0.1249522;-0.03086019;0;
-28277.75;-20868.16;214.0613;-31597.59;4.542644;2.105341;-29410.24;-16173.12;-0.07007539;0.2940075;0;
-20883.4;-13844.73;-87.47112;-24560.1;4.940221;5.452372;-21814.28;-10474.97;-0.07000498;-0.09609194;0;
-26459.24;-19111.79;-81.62049;-29989.44;1.586355;-0.5144655;-27346.64;-13925.85;-0.06993464;-0.4208321;0;
-20699.79;-15808.27;-287.2476;-24218.01;0.110892;-1.116795;-21409.61;-12182.72;-0.2647664;-0.3554419;0;
10687.5;7866.239;-445.4106;10785.04;1.985815;3.372062;10989.6;5420.549;-0.2645003;-0.2251501;0;
19754.33;13591.92;-234.0534;23467.37;1.314234;2.765827;20822.41;10576.68;-0.004365216;-0.1599565;0;
16193.58;10948.52;1.797724;19650.43;-0.7631914;4.63857;17096.94;8280.998;0.06060651;0.03510626;0;
18242.49;12584.74;-9.77639;21766.86;-2.772156;4.700892;19212.39;9861.941;0.06054561;0.4248751;0;
17049.9;11983.16;117.9817;20194.47;0.9816732;-0.7293268;17812.33;8894.326;-0.004482565;0.03464407;0;
-7408.85;-5870.321;401.1739;-7612.242;0.6458941;-2.403167;-7852.521;-5435.147;-0.0694454;-0.2902274;0;
-28955.66;-21514.49;157.9397;-32277.99;-1.431836;-8.764009;-30071.5;-16544.16;0.2554611;-0.0950338;0;
-22031.91;-14986.25;-152.5161;-25666.21;0.1771933;-13.3769;-22948.24;-11090.8;0.2552044;-0.02997097;0;
-27117.3;-19794.6;-138.448;-30635.12;-13.15222;-9.88035;-27997.75;-14426.85;0.1899806;0.2299285;0;
-20567.02;-15645.77;-324.7933;-24189.68;-16.48791;-12.08086;-21298.08;-12110.61;0.3197244;-0.03017189;0;
10657.98;7923.642;-484.4646;10652.55;-7.562734;-15.75266;10921.33;5472.778;0.1245011;-0.484913;0;
19563.02;13414.46;-272.1312;23260.33;-7.621508;-17.88029;20623.64;10388.52;0.1893434;-0.4194584;0;
16231;10969.85;-17.36068;19682.84;2.098065;-20.07269;17135.57;8295.102;0.1891531;-0.2241349;0;
18169.94;12515.9;-26.32309;21698.38;7.05245;-20.92324;19137.98;9783.124;-0.3307757;-0.02900765;0;
16903.83;11823.79;122.1912;20034.19;2.557385;-26.99754;17661.09;8748.48;-0.2005086;0.2308909;0;
-7377.618;-5902.263;440.6583;-7628.688;4.564548;-28.71191;-7846.595;-5434.092;-0.1353398;0.1007242;0;
-29269.01;-21854.94;202.7411;-32597.75;6.837137;-26.94157;-30402.85;-16791.22;-0.3950732;-0.3541484;0;
-22218.82;-15178.68;-106.4166;-25868.14;7.700923;-27.24941;-23142.67;-11188.82;-0.06983951;-0.0939232;0;
-27350.31;-20040.9;-93.94094;-30885.1;9.234403;-22.06447;-28240.67;-14549.03;-0.06976934;0.2310079;0;
-21924.13;-16789.7;-299.8836;-25551.09;10.2295;-20.16683;-22663.16;-12864.09;-0.2646013;-0.3539303;0;
9842.972;7331.65;-474.6974;9776.244;7.808325;-18.27105;10095.86;5127.421;-0.5242047;-0.4835093;0;
19804.05;13636.5;-278.6156;23469.56;7.934201;-16.24326;20860.73;10548.82;-0.5886453;0.1666499;0;
16145.05;10872.87;-22.32371;19607.85;6.452361;-15.28918;17052.05;8198.041;-0.1982498;0.5562865;0;
18153.68;12502.32;-7.246346;21663.09;5.106707;-13.33143;19117.9;9780.94;-0.1980506;0.3608255;0;
17098.9;12023.17;134.4866;20235.54;13.33962;-19.07839;17860.88;8903.643;-0.002949617;0.2305283;0;
-7172.763;-5617.366;447.4597;-7418.758;15.46967;-20.66675;-7631.749;-5230.469;0.7766614;0.295264;0;
-28789.79;-21357.95;221.2329;-32159.46;12.03788;-15.22049;-29935.83;-16491.07;0.4510444;0.1000653;0;
-21932.39;-14920.07;-109.3546;-25612.7;12.49527;-14.26743;-22873.71;-11075.93;-0.3939843;-0.3548067;0;
-26913.12;-19590.51;-109.5102;-30480.75;12.34899;-16.9994;-27814.65;-14222.37;-0.06875172;-0.4194175;0;
-20848.99;-15772.25;-296.5717;-24462.79;11.80072;-16.58042;-21597.55;-12221.62;-0.003715298;-0.224094;0;
10363.42;7773.478;-471.8573;10373.15;12.19003;-15.2241;10616.37;5331.871;-0.1986136;-0.2238689;0;
19723.42;13554.73;-282.3376;23410.21;11.91034;-15.07483;20781.25;10520.51;0.4512594;-0.09370925;0;
16396.55;11113.31;-21.76284;19843.41;7.946256;-9.701175;17300.37;8415.166;0.5157733;0.1662543;0;
18563.32;12931.18;-17.11829;22065.5;5.727468;-7.816027;19525.6;10210.65;0.06048366;0.03615253;0;
17617.79;12432.1;110.1162;20773.59;8.602101;-8.210072;18392.68;9305.182;0.06042289;-0.2237532;0;
-6459.007;-5204.283;437.8252;-6644.447;7.991222;-6.862163;-6902.146;-4888.601;-0.1345398;-0.2235283;0;
-28022.52;-20691.73;240.9215;-31375.21;5.303875;-7.860012;-29168.17;-15931.25;-0.06943732;0.101533;0;
-21524.63;-14465.05;-90.90392;-25219.09;4.494262;-6.512455;-22465.65;-10937.4;0.06056714;0.1663983;0;
-27430.79;-20140.75;-100.0423;-30973.86;-1.337403;-10.99365;-28330.46;-14890.83;-0.2643304;-0.09363826;0;
-21648.32;-16552.93;-282.2876;-25265.02;-5.555618;-12.12131;-22397.14;-12750.96;-0.5889015;0.2312925;0;
10191.77;7675.972;-458.6027;10160.26;3.894436;-4.741129;10443.15;5345.016;-0.3934078;0.3609948;0;
19892.35;13737.51;-262.8807;23575.68;5.631835;-3.19588;20950.73;10666.8;-0.4579798;-0.02917197;0;
16444.26;11149.5;3.515305;19909.4;-8.507344;-0.7143003;17353.15;8458.558;-0.522487;0.2307267;0;
18521.98;12885.35;5.323362;22031.93;-10.90969;1.496854;19484.66;10167.46;0.3226134;0.1655276;0;
17642.39;12478.13;132.3167;20825.84;-11.56832;0.2896574;18421.98;9328.552;0.9719627;-0.02954081;0;
-6424.653;-5063.749;445.7605;-6546.556;-15.17402;0.2893663;-6852.707;-4770.942;0.4512473;-0.1594458;0;
-27920.14;-20542.5;234.0594;-31204.53;-3.839263;1.427785;-29049.8;-15912.58;-0.3937815;-0.7439917;0;
-21086.26;-14041.95;-83.36012;-24750.63;-0.9550171;0.2876409;-22025.47;-10722.55;-0.06854913;-0.6133094;0;
-26472.54;-19159.99;-90.63203;-30008.73;-10.19746;0.08640308;-27377.33;-14049.8;0.3213238;-0.09295443;0;
-20375.29;-15501.96;-296.7186;-23894.41;-10.8568;-0.3155813;-21090.95;-11960.13;-0.2637052;0.03707365;0;
10898.48;8093.062;-463.7738;11016.72;-7.295915;-8.085162;11196.7;5575.609;-0.3284075;0.1669711;0;
19915.74;13749.41;-252.1171;23638.84;-6.686347;-9.416575;20982.2;10723.35;0.3215959;-0.02809872;0;
16515.93;11235.26;-2.208001;19975.92;-7.215492;-15.16752;17423.7;8528.521;0.1263707;-0.2879398;0;
18436.09;12796.71;-3.345834;21966.35;-6.001817;-18.30042;19402.57;10087.65;-0.198593;0.03718618;0;
17475.27;12274.22;133.901;20677.21;-8.072867;-6.895238;18260.07;9102.673;-0.003491399;0.4269529;0;
-5843.213;-4621.521;437.442;-5930.697;-8.3322;-4.543907;-6260.787;-4488.412;0.3213488;0.3615565;0;
-26989.12;-19684.22;222.7351;-30257.27;-2.094537;-1.391265;-28119.55;-15275.48;0.3859933;0.2312586;0;
-20168.82;-13115.75;-74.05835;-23838.24;-0.4184688;2.562004;-21107.82;-10098.61;0.1907034;0.1010915;0;
-25184.33;-17866.35;-65.36327;-28718.51;2.998203;0.08118274;-26094.41;-12972;0.1255444;0.1659573;0;
-19428.05;-14673.34;-260.6213;-22978.21;6.612513;0.28205;-20178.32;-11246.53;0.1903856;-0.02911153;0;
11091.03;8169.586;-430.6644;11162.12;2.38631;5.037433;11360.09;5588.61;0.125227;-0.09404962;0;
20043.05;13888.47;-245.6057;23755.2;4.392668;5.032371;21105.71;10878.6;-0.06980087;0.2308816;0;
16652.89;11365.49;-6.057374;20121.33;3.517598;1.879117;17558.67;8653.14;-0.004763391;0.03574758;0;
18555.77;12919.44;-12.01704;22085.64;3.111922;0.9395896;19518.25;10203.77;0.3850454;-0.2891251;0;
17817.41;12572.89;111.6672;21007.86;14.49565;-8.840619;18602.9;9406.272;0.3196912;-0.3538019;0;
-5600.561;-4492.106;426.1938;-5683.642;16.69189;-13.05166;-6021.251;-4345.865;-0.005466728;-0.4184137;0;
-26779.44;-19529.8;218.5884;-30068.41;17.4794;-11.6319;-27927.2;-15134.6;0.1894408;-0.2880586;0;
-19622.51;-12620.93;-78.60695;-23385.04;17.59556;-13.36177;-20586.19;-9708.241;0.5790545;0.03706754;0;
-24956.15;-17659.9;-50.49518;-28549.23;18.18011;-12.94645;-25873.51;-12779.3;0.448538;0.166965;0;
-19640.54;-14857.9;-256.3409;-23154.19;17.8944;-12.12965;-20359.05;-11345.25;0.1232506;-0.09307215;0;
11113.57;8188.5;-457.8413;11231.97;5.41784;-10.84478;11417.18;5613.507;-0.006807958;-0.02801129;0;
20084.2;13924.31;-272.4899;23805.7;1.326559;-9.025346;21147.87;10900.86;0.05816622;-0.2228852;0;
16672.35;11388.97;-19.06206;20128.68;-7.047518;-3.992679;17576.08;8680.191;0.2530098;-0.3525959;0;
18646.08;12999.32;-0.2398568;22173.64;-12.80121;-1.242489;19610.2;10280.04;-0.2020158;0.03756244;0;
17603.61;12389.44;144.0941;20793.76;-7.89823;1.371094;18388.44;9214.003;-0.1368455;0.1674594;0;
-5574.825;-4391.926;453.3719;-5724.348;-9.095742;2.977185;-5987.729;-4338.948;0.7078674;0.2322585;0;
-26506.78;-19200.85;233.1674;-29862.94;-6.541984;4.916698;-27645.62;-14877.91;0.3173521;0.2320251;0;
-19907.66;-12862.98;-84.7197;-23673.63;-5.262613;6.318399;-20862.04;-9843.112;-0.1377381;0.1668246;0;
-24988.3;-17682.49;-49.63654;-28612.1;0.2350316;-0.3861206;-25896.28;-12778.26;0.1222696;0.166657;0;
-19122.02;-14370.09;-220.6257;-22658.23;4.119562;-2.261255;-19830.5;-11041.86;-0.2676573;0.1664895;0;
11212.28;8269.831;-424.7076;11354.64;-0.9074437;-3.062778;11528.86;5606.199;-0.1374536;0.2312896;0;
20014.01;13850.51;-250.6337;23730.38;-0.5717393;-4.46622;21081.81;10851.36;0.4473906;-0.09377954;0;
16651.41;11367.65;-0.1795209;20093.79;0.2321424;-8.748518;17553.21;8656.137;0.252039;0.1012167;0;
18468.9;12815.94;-13.56324;21994.9;-1.375681;-12.82569;19437.31;10088.67;0.05688371;0.4909191;0;
17580.85;12377.08;112.7307;20744.35;3.917963;-1.827842;18361.08;9221.711;0.1867612;0.1006218;0;
-5935.547;-4715.228;431.8632;-6103.399;5.721711;-1.156176;-6358.546;-4522.745;0.1216062;0.03555329;0;
-27374.72;-20071.14;212.0864;-30747.91;-2.924226;-5.642749;-28509.97;-15516.61;0.121484;0.1654523;0;
-20148.34;-13128.07;-96.6123;-23963.42;-2.318076;-4.833284;-21103.35;-10040.23;0.05639463;-0.4194201;0;
-24817.25;-17513.84;-60.65825;-28469.58;-8.746108;-17.15304;-25732.98;-12627.54;0.25124;-0.483966;0;
-19387.66;-14657.84;-233.2293;-22987.15;-12.22092;-20.88673;-20117.74;-11158.54;0.3809222;-0.353545;0;
10999.89;8025.951;-414.3413;11037.42;9.225898;-18.05252;11282.09;5483.127;-0.07423192;-0.02835305;0;
20031.45;13865.57;-252.0532;23726.99;14.91005;-19.44102;21093.24;10831.36;0.05577736;0.4914142;0;
16690.66;11409.06;-19.13562;20137.64;9.000575;-18.88562;17598.12;8699.188;0.2506233;0.3609857;0;
18644.74;12985.51;-3.858436;22144.03;10.86656;-19.13458;19607.7;10253.93;-0.2693672;-0.02918106;0;
17602.94;12398.46;139.3391;20794.57;16.54907;-15.69928;18390.63;9234.942;-0.07419454;-0.1590864;0;
-5889.694;-4674.989;456.524;-6020.511;18.94432;-15.3486;-6304.431;-4550.583;0.4456187;-0.4837633;0;
-27081.76;-19756.4;242.7974;-30432.11;10.28412;-9.237848;-28217.28;-15281.1;-0.07456775;-0.4183098;0;
-20461.99;-13395.87;-75.42732;-24191.21;7.259676;-6.013507;-21401.17;-10194.47;-0.07449282;-0.09305282;0;
-25501.2;-18198.66;-57.28249;-29095.17;9.931698;-15.5188;-26405.54;-13215.79;0.1204841;-0.02799198;0;
-19515.1;-14750.91;-237.6967;-23104.22;7.644543;-15.9051;-20251.62;-11330.45;-0.2044737;0.03700349;0;
11051.01;8146.766;-429.0491;11123.63;5.828201;-19.57312;11335.83;5543.283;-0.07433358;-0.1579357;0;
20032.42;13869.7;-255.3613;23739.1;5.421179;-22.03176;21096.67;10847.06;-0.1392262;-0.2877117;0;
16809.31;11519.45;1.11025;20256.27;-4.163438;-16.04826;17711.53;8801.668;-0.269021;-0.02755325;0;
18654.29;12990.48;5.122742;22172.14;-7.976671;-15.96516;19618.64;10257.9;-0.138816;0.1673765;0;
17708;12513.34;124.4951;20900.81;2.279122;-12.19819;18493.61;9355.744;-0.0737092;0.2321756;0;
-5869.747;-4638.911;432.5276;-5968.043;3.951771;-10.24343;-6289.039;-4526.027;0.05629955;-0.1578617;0;
-27427.01;-20079.88;206.9874;-30744.26;1.201135;-10.30012;-28563.19;-15553.84;-0.00872436;-0.2876378;0;
-20309.28;-13269.04;-119.6346;-24073.05;2.741145;-8.2133;-21265.07;-10182.33;-0.07368293;0.03748795;0;
-26036.61;-18761.51;-92.15318;-29600.91;3.005835;-12.22402;-26955.33;-13785.2;0.1862605;-0.1574517;0;
-21535.56;-16476.68;-262.3656;-25147.66;3.606027;-12.54665;-22293.21;-12494.35;-0.1387634;-0.09232619;0;
10045.34;7457.733;-445.4473;9955.288;8.558896;-11.59629;10287.21;5186.683;-0.2685587;-0.1572008;0;
20105.77;13935.57;-276.2408;23770.21;11.29599;-12.5224;21160;10828.2;0.3164173;-0.02710813;0;
16727.05;11411.6;-34.7876;20193.74;4.855251;-8.691786;17638.76;8718.791;0.1211973;0.3627232;0;
18861.68;13222.34;-19.77579;22352.18;3.309155;-8.348138;19822.77;10471.71;-0.2687285;0.1674567;0;
18017.65;12762.51;122.3758;21210.55;12.54923;-8.674664;18807.12;9619.89;-0.00858913;0.03735372;0;
-5622.42;-4562.374;441.1082;-5730.889;14.27793;-8.26405;-6035.594;-4439.308;0.1213542;0.4271203;0;
-27602.59;-20323.49;226.7412;-30901.8;7.766852;-11.73886;-28736.13;-15598.49;0.1212322;0.1668217;0;
-21841.87;-14770.02;-106.6004;-25526.49;6.151457;-12.53086;-22785.58;-10987.7;0.2510451;-0.09321529;0;
-27904.24;-20659.4;-117.0037;-31443.94;7.820216;-14.05875;-28802.58;-15331.99;0.1208582;0.4266171;0;
-22297.46;-17028.91;-305.6506;-25921.39;6.405838;-14.98239;-23036.17;-13240.09;-0.2690673;0.3612211;0;
9795.61;7480.187;-469.9639;9733.263;5.126604;-13.09181;10049.64;5149.614;-0.2038296;-0.02894591;0;
19929.9;13750.44;-276.1669;23600.73;4.78666;-12.208;20983.01;10648.69;0.3810813;-0.09388416;0;
16654.64;11323.54;-25.21857;20121.06;-0.9115766;-13.73622;17562.64;8613.147;0.5106331;-0.09378982;0;
18619.81;12984.8;-13.54283;22129.28;-1.513873;-13.7894;19581.36;10249.35;0.6400546;0.0362391;0;
17711.8;12483.41;142.5173;20902.88;-2.316635;-8.684964;18492.98;9307.414;0.7043788;0.4260067;0;
-6108.484;-4863.751;466.9766;-6220.452;-2.514402;-8.006408;-6545.725;-4628.157;-0.2058717;0.295644;0;
-27885.74;-20582.48;229.2985;-31204.25;2.444617;-2.372041;-29044.88;-15962.65;-0.3355995;-0.09445712;0;
-20524.61;-13489.94;-91.80188;-24271.47;2.709605;1.247421;-21477.42;-10290.56;0.2494438;-0.2242969;0;
-25146.26;-17835.04;-49.35593;-28716.37;13.02201;-10.40862;-26064.29;-12875.56;0.05429111;-0.2890389;0;
-20088.42;-15238.1;-225.1554;-23645.1;15.55452;-12.40765;-20857.89;-11570.41;-0.2706001;-0.1588137;0;
10683.76;7846.096;-425.0161;10704.14;14.93568;-7.3046;10935.33;5420.241;-0.3352956;-0.3535562;0;
20200.79;14014.31;-256.3611;23892.3;17.06413;-7.364243;21259.55;10934.86;-0.1400567;-0.6130703;0;
16744.01;11441.09;-22.29918;20215.53;2.512293;-7.423826;17647.53;8722.796;-0.009981249;-0.2876176;0;
18756.65;13100.29;-37.12869;22272.18;-0.7727613;-6.545589;19718.27;10363.25;-0.00997122;-0.3522959;0;
17906.1;12664.01;103.2287;21108.34;-8.541517;-5.400302;18686.71;9479.931;0.1199735;-0.4169093;0;
-5641.284;-4483.586;446.8116;-5718.099;-16.23609;-3.921251;-6075.572;-4292.583;-0.07504909;-0.02668631;0;
