Fp1;Fp2;O1;O2;POLY3;POLY4;A1;A2;Video;Audio;event;
-43483.27;-37022.16;-610.8932;-48706.09;-7.78872;9.47814;-44848.04;-30958.14;0.1394199;-0.2428479;0;13:18:41 Рука;
-8937.031;-7208.781;-811.8968;-12292.72;-8.450479;8.195941;-9221.545;-5731.336;0.1392798;-0.1126692;0;
16199.46;11833.16;-588.2555;19338.55;-14.13542;7.785808;17586.28;8879.44;0.3990092;0.2772481;0;
14073.95;9177.942;-183.4145;19286.6;-15.66145;5.36666;15671.1;6218.867;0.333641;0.6018062;0;
14305.02;9829.717;-78.25168;19038.57;-17.65545;9.581131;15793.53;7121.677;0.07343636;0.4712668;0;
16523.53;11785.84;29.56967;20868.47;-19.17795;9.638487;17948.05;8734.941;0.2032973;-0.1788802;0;
-5001.919;-4758.494;364.7308;-5147.764;-18.08695;4.136324;-5304.395;-4243.161;0.7228317;-0.04876575;0;
-38248.55;-32087.77;236.2725;-42194.05;-19.54265;3.194407;-39884.13;-26336.45;0.7221053;0.01625059;0;
-37863.44;-31303.05;-281.6891;-42588.35;-12.82521;1.114787;-39216.64;-24935.25;0.2016411;-0.3086025;0;
-38821.61;-32653.7;-461.1438;-43313.36;-11.74059;0.6447864;-40078.34;-26597.72;0.07150381;-0.04842299;0;
-42638.18;-36215.56;-604.0771;-47836.28;-13.13531;-1.968135;-44026.94;-30204.94;-0.05850272;-0.178309;0;
-8332.637;-6686.591;-810.6472;-11541.42;-11.31345;-3.372738;-8631.099;-5287.472;-0.448248;-0.3730319;0;
16456.42;12051.96;-579.0424;19732.23;-19.27269;2.591949;17845.46;9065.301;-0.3828302;-0.04782034;0;
14217.38;9321.375;-135.9331;19449.76;-18.71746;2.72331;15812.85;6349.615;0.007358478;-0.1127396;0;
14433.51;9950.595;-23.05627;19162.08;-25.39743;8.681933;15913.11;7223.309;0.3321878;-0.1775937;0;
16729.39;11971.23;55.94283;21109.64;-28.65347;11.28548;18161.09;8893.191;0.007017301;-0.04748057;0;
-4647.777;-4460.388;379.9581;-4766.453;-11.07588;3.571289;-4935.637;-4035.906;-0.1229244;0.2124365;0;
-38145.08;-32021.18;231.6819;-42159.47;-8.586506;2.897871;-39799.68;-26354.12;0.2020358;0.01732103;0;
-38109.77;-31545.33;-304.6096;-42969.17;-2.348588;-0.1861336;-39505.3;-25209.38;0.2018328;0.01730362;0;
-39240.77;-33093.14;-466.7843;-43820.12;1.605887;-1.726554;-40538.65;-27106.09;0.20163;0.2121883;0;
-43469.12;-37024.68;-593.111;-48784.25;-1.208766;-4.002178;-44906.7;-31023.18;0.006525357;0.1470077;0;
-9152.5;-7406.029;-798.7551;-12636.87;1.672837;-5.9406;-9503.66;-5909.647;-0.3183179;0.08189265;0;
16218.78;11850.91;-578.3285;19268.5;-15.20805;0.02666665;17579.73;8884.232;-0.1880634;-0.1130917;0;
14165.36;9252.285;-156.5216;19312.65;-20.01554;1.768196;15752.43;6240.739;0.07199495;0.4067607;0;
14360.99;9866.051;-39.98533;19026.71;-14.03456;1.565471;15833.8;7117.884;0.1368899;0.21145;0;
16650.25;11906.98;50.44691;20951.25;-16.09657;3.171427;18060.83;8808.301;-0.2530516;-0.6333379;0;
-4832.723;-4563.991;370.2667;-5079.724;-11.52604;5.713531;-5182.502;-4130.223;-0.18783;0.1469066;0;
-38354.11;-32193.65;226.9509;-42443.52;-10.37538;6.846499;-40085.69;-26561;0.007260726;0.2117263;0;
-38314.7;-31771.46;-298.2945;-43174.5;-7.083404;9.183962;-39774.26;-25531.27;-0.1876486;-0.4381599;0;
-39280.04;-33136.67;-452.9794;-43909.42;-4.664412;9.844563;-40641.21;-27209.49;0.1373767;-0.04791557;0;
-43206.46;-36757.01;-582.4745;-48543.23;-3.789069;8.695961;-44712.58;-30871.47;0.202206;0.01709992;0;
-8774.242;-6997.172;-783.8347;-12113.16;-1.77553;8.955155;-9187.235;-5669.945;-0.3827033;-0.1128519;0;
16536.04;12185.2;-548.2432;19756.02;-5.52479;1.712183;17869.26;9162.8;-0.4472861;0.08216347;0;
14515.94;9574.329;-121.4378;19740.65;-6.1898;-1.102759;16092.05;6538.454;-0.4468367;0.2120156;0;
14705.98;10221.3;-6.54536;19403.3;-5.178227;2.783237;16151.76;7444.832;-0.5763223;0.5366393;0;
17160.74;12364.73;57.49153;21566.35;-5.306746;3.115355;18577.01;9218.112;0.008962818;0.146296;0;
-3686.294;-3611.999;376.1642;-3756.201;-9.38725;-0.7056804;-4020.729;-3363.003;0.2688232;-0.3086224;0;
-36998.3;-30926.44;271.9946;-41075.9;-11.18648;-1.374801;-38795;-25450.47;0.07365104;-0.04844292;0;
-36974.79;-30421.33;-269.7721;-41904;-8.764341;6.061503;-38524.34;-24245.49;0.3334464;0.2114751;0;
-37592.04;-31453.86;-467.4328;-42282.39;-10.63057;8.131823;-39032.13;-25608.18;0.008274645;0.1462953;0;
-41575.56;-35167.63;-594.7739;-46985.43;-2.247143;8.927446;-43161.56;-29405.27;-0.1216684;-0.4385578;0;
-7771.035;-6132.343;-782.4097;-11076.6;0.6345272;10.79394;-8212.408;-4948.107;0.07335593;-0.7629538;0;
16918.52;12501.39;-552.8323;20174.17;-13.23121;10.51516;18251.45;9425.846;-0.2515545;0.0174209;0;
14786.59;9851.72;-138.6098;20009.63;-15.76254;11.30839;16351.28;6800.408;0.1385023;0.2772728;0;
14986.14;10495.79;-26.1832;19671.26;-15.54563;8.885702;16417.1;7693.748;0.4631999;0.1470595;0;
17378.85;12553.5;55.55204;21826.01;-18.67881;7.805047;18803.29;9373.809;-0.1219716;0.4067811;0;
-2860.944;-2901.133;373.5551;-2845.497;-12.6982;7.797204;-3167.725;-2777.85;-0.05688174;0.08153562;0;
-35221.24;-29201.5;246.634;-39396.29;-11.21255;6.315806;-37042.03;-23831.18;0.3329795;-0.04848098;0;
-34600.96;-28045.1;-258.0322;-39671.96;-19.37296;6.577392;-36205.12;-21876.77;0.2027102;-0.1133996;0;
-35064.27;-28930.93;-402.5126;-39837.99;-20.1568;5.766988;-36545.11;-23082.09;0.2674738;-0.6979917;0;
-39492.95;-33107.07;-539.6797;-44945.7;-15.31377;2.47909;-41113.42;-27468.8;0.3971398;-0.3724537;0;
-6607.695;-5077.002;-753.6702;-9801.901;-13.75814;0.735104;-7058.784;-4094.532;0.006936687;0.277594;0;
17361.79;12895.8;-535.038;20720.47;-12.80631;1.806092;18699.47;9773.051;-0.05803762;-0.04752167;0;
15276.84;10340.15;-124.7064;20511.87;-11.45427;1.603329;16844.06;7277.621;-0.187914;-0.4372779;0;
15579.78;11094.69;-31.83085;20229.28;-6.887437;-2.417197;17000.35;8285.938;-0.5125619;0.0179328;0;
18002.71;13124.36;22.93924;22622.37;-5.005483;-3.553417;19456.35;9903.124;-0.3171448;0.2128168;0;
-1097.348;-1357.412;357.4199;-677.2272;-3.459236;-2.746113;-1317.831;-1497.336;-0.1219241;-0.1122337;0;
-32801.32;-26888.93;273.1498;-36855;-1.982868;-3.61407;-34601.48;-21678.04;-0.1218016;-0.2420556;0;
-32995.91;-26428.96;-221.5011;-38078.48;-4.994985;1.21221;-34631.74;-20234.79;-0.2516139;-0.3717471;0;
-33761.16;-27641.03;-372.843;-38519.34;-5.392108;3.488351;-35250.08;-21783.56;0.2683776;0.01843047;0;
-38283.65;-31916.78;-490.5028;-43707;-8.33345;-2.744445;-39899.34;-26381.77;0.5929447;0.4731834;0;
-5873.239;-4433.339;-698.7956;-8782.868;-10.40118;-3.143524;-6305.35;-3673.508;-0.05732454;0.2128385;0;
17863.34;13355.8;-521.6978;21415.48;-8.85049;0.4765911;19215.91;10175.75;0.2026024;0.7973307;0;
15732.8;10793.54;-135.4768;20950.5;-10.24812;1.011976;17305.46;7738.922;0.6571702;0.9264643;0;
15974.8;11487.93;-14.8231;20599.49;-8.295436;3.556249;17396.44;8675.452;0.07180384;0.0809579;0;
18463.58;13550.33;79.34759;23222.92;-7.349095;5.361154;19944.82;10301.08;-0.448007;0.08087655;0;
250.832;-187.496;422.8139;1027.056;-13.571;4.217118;95.62595;-609.8797;0.2021165;0.1457626;0;
-30546.97;-24755.18;322.0801;-34500.88;-15.2323;5.753428;-32336.5;-19754.07;0.7216521;0.2105835;0;
-30945.42;-24433.27;-137.8875;-36106.6;-10.5953;5.412732;-32630;-18226.68;-0.05868104;0.600176;0;
-32101.37;-26034.91;-249.6302;-36838.59;-10.38358;5.541259;-33598.19;-20123.09;-0.1885568;0.2747362;0;
-36620.91;-30281.57;-412.1257;-41991.66;-11.31115;9.822537;-38193.11;-24828.52;-0.1234;-0.05037657;0;
-4699.916;-3356.993;-647.921;-7442.988;-11.03137;9.879651;-5094.346;-2837.993;-0.5780473;-0.245228;0;
18163.72;13607.75;-462.2535;21832.7;-10.28335;14.22343;19531.9;10386.98;-0.3825645;-0.3749163;0;
16006.22;11073.73;-89.66362;21232.07;-8.397983;15.5488;17591.85;8030.783;-0.1223107;-0.04970283;0;
16480.17;11985.78;1.162118;21102.48;-15.08735;8.634115;17910.83;9180.616;-0.0572205;0.08028179;0;
18906.29;13971.93;66.6749;23732.89;-16.61341;6.950928;20411.86;10706.34;-0.1870977;-0.04973355;0;
1336.583;827.5579;428.223;2332.277;-5.409955;3.795806;1259.406;100.4066;0.007992338;0.08025111;0;
-28728.2;-22958.55;345.9589;-32562.93;-2.658828;1.179719;-30444.86;-18209.85;0.2028863;0.2101052;0;
-28852.92;-22333.71;-108.4262;-34008.93;-3.459464;0.2407726;-30526.46;-16376.56;-0.1871216;0.3398287;0;
-29922.29;-23848.13;-195.4297;-34624.58;-1.580954;-0.8981181;-31405.07;-18137.79;-0.3168682;0.07961789;0;
-35200.29;-28895.7;-369.4895;-40499.84;-4.191333;-2.303857;-36717.48;-23418.38;-0.2515825;-0.2452988;0;
-4128.986;-2910.682;-631.0334;-6726.472;-6.732718;-2.502491;-4483.928;-2489.986;-0.1863624;-0.180085;0;
18596.84;13995.79;-458.1578;22343.74;7.54129;0.7821261;19971.85;10735.57;-0.1212078;-0.1149367;0;
16463.62;11529.24;-108.8572;21702.77;12.825;2.321887;18062.03;8498.061;-0.1860533;-0.2447559;0;
16887.07;12390.31;-22.82224;21495.14;-12.50622;7.075281;18323.33;9597.262;-0.2508337;-0.24451;0;
19421.03;14446.51;31.67332;24334.35;-17.1827;10.4172;20950.69;11164.09;0.07425503;-0.04936226;0;
2738.028;2027.981;372.1734;4022.393;-12.41001;8.866182;2733.687;1007.88;0.2690824;-0.11428;0;
-26552.05;-20911.45;325.7601;-30264.57;-17.8899;9.527102;-28227.23;-16461.66;0.07391004;-0.3090672;0;
-27009.77;-20489.14;-85.09522;-32171.46;1.218091;13.80425;-28670.55;-14888.61;0.1388031;-0.178822;0;
-28318.78;-22256.29;-175.6829;-32999.6;6.239732;14.05832;-29774.4;-16810.29;0.2685983;-0.1136749;0;
-33564.36;-27289.19;-351.496;-38853.28;-8.568667;12.03482;-35037.15;-21865.02;-0.05650827;-0.2434954;0;
-3167.526;-2021.312;-604.6873;-5613.086;-7.019816;10.54911;-3451.316;-1781.397;-0.2513535;0.01661863;0;
18811.48;14175.75;-437.8039;22661.97;-16.9931;7.993217;20224.02;10871.89;-0.3160683;0.08156927;0;
16692.19;11757.2;-87.58667;21907.41;-21.86517;6.779553;18293.86;8765.647;-0.185816;-0.1134147;0;
17305.44;12802.79;15.01231;21919.05;-2.419366;-1.666925;18752.44;9984.613;-0.05569463;0.01663393;0;
19692.14;14698.78;75.82603;24633.43;1.8036;-4.545455;21236.76;11436.25;-0.3804754;0.01661721;0;
3187.515;2415.037;416.6254;4529.368;-4.896994;-4.607871;3222.5;1301.068;-0.2501584;-0.1133342;0;
-25805.74;-20189.06;363.9518;-29487.98;-2.212756;-6.679651;-27438.63;-15817.06;0.139897;-0.3081223;0;
-26610.11;-20087.47;-71.10169;-31764.89;-1.339877;1.498796;-28240.62;-14485.72;0.07478911;-0.2428454;0;
-27912.02;-21855.7;-162.8435;-32567.68;0.001616503;3.372751;-29331.17;-16431.91;0.1396813;0.01726801;0;
-32855.66;-26622;-309.4342;-38136.66;6.163557;5.445772;-34292.75;-21213.6;0.2045083;0.082218;0;
-2759.681;-1717.291;-551.4858;-5208.414;7.430161;8.521454;-3012.169;-1528.508;0.3342375;-0.1127666;0;
18975.51;14292.37;-387.0609;22826.75;11.97705;6.034584;20403.39;10961.3;0.398869;-0.242588;0;
16799.78;11880.12;-46.79599;22006.16;13.37251;8.10493;18402.65;8904.874;0.3984682;-0.04744223;0;
17265.77;12740.65;22.02896;21869.69;9.87547;2.403359;18720.06;9906.809;0.2031658;-0.04739456;0;
19703.88;14720.62;63.09554;24619.26;9.397033;-0.1443465;21248.96;11463.55;-0.05690772;-0.1123143;0;
3120.819;2416.564;401.6276;4412.554;6.105061;10.03696;3151.224;1244.944;0.1380515;0.2776026;0;
-26406.55;-20773.26;341.4103;-30105.53;6.768512;10.62972;-28023.79;-16433.95;0.3328148;0.147389;0;
-27458.42;-20946.63;-82.04816;-32640.93;-9.982802;10.08318;-29074.76;-15149.95;0.267513;-0.1126285;0;
-29080.25;-23062.09;-164.7366;-33723.15;-17.74328;11.14477;-30483.43;-17500.91;0.1373096;0.08238673;0;
-34708.34;-28388.29;-329.66;-39970.57;6.990641;4.904284;-36139.26;-22838.95;0.007236905;0.2122387;0;
-4244.167;-2908.118;-595.648;-6865.704;9.328141;4.162604;-4539.2;-2434.73;0.07219698;0.2769927;0;
18379.01;13813.99;-451.7934;22098.92;7.510108;0.6753703;19781.87;10543.68;0.2670265;0.1467797;0;
16411.26;11438.83;-100.5626;21651.32;11.05254;-0.9998206;18026.71;8414.665;0.2017908;0.08166488;0;
16907.45;12400.04;8.811646;21523.18;-2.756323;2.283226;18364.79;9587.085;0.00668602;-0.04835186;0;
19429.18;14430.13;62.47894;24347.7;-6.772041;1.812112;20977.3;11153.25;0.331516;-0.178238;0;
2987.445;2217.651;403.4791;4283.325;1.004295;6.900872;3023.252;1120.849;0.5910523;-0.3729609;0;
-26322.84;-20716.22;357.4404;-29986.51;1.338079;7.697672;-27932.93;-16272.92;0.3955564;-0.5674881;0;
-27002.44;-20499.33;-71.71888;-32073.87;-10.71971;12.44566;-28607.31;-14851.11;0.2002569;-0.04717921;0;
-28013.99;-21975.79;-162.7885;-32559.85;-13.72304;16.05012;-29419.58;-16551.9;-0.05981372;0.2777049;0;
-33495.79;-27233.4;-337.537;-38640.47;-10.15928;3.374519;-34924.48;-21735.03;-0.3845903;-0.1123782;0;
-3376.259;-2219.74;-611.6849;-5834.255;-12.22615;1.428684;-3652.234;-1897.106;-0.5141386;-0.1772326;0;
19030.37;14416.08;-448.1365;22825.13;-0.6259445;2.967795;20438.39;11151.43;-0.3836873;0.08281484;0;
17060.03;12079.67;-93.69231;22346.83;3.661592;1.156335;18683.51;9005.048;-0.1883997;0.147699;0;
17581.33;13091.75;-8.078648;22204.93;-7.661592;6.37972;19032.13;10330.14;-0.05827573;0.1475506;0;
20286.47;15232.23;43.45045;25300.72;-8.659248;8.047822;21860.04;11917.66;0.006750165;-0.3073691;0;
5407.01;4285.143;408.0985;7053.915;-4.09522;6.499189;5556.526;2563.273;-0.1881586;-0.5019622;0;
-21666.71;-16204.27;398.6617;-25150.25;-4.224827;8.100187;-23241.99;-12757.2;-0.2529369;-0.1116538;0;
-21683.99;-15075.97;4.521541;-26721.54;-4.622723;10.16846;-23324.74;-11213.46;0.1371213;0.01839303;0;
-22429.15;-16241.56;-59.26344;-26970.85;-3.680073;11.29695;-23864;-12097.46;0.5267875;-0.1115601;0;
-27464.23;-21471.88;-199.9144;-32565.8;-9.771944;15.77333;-28922.78;-16501.05;0.2663889;0.01848664;0;
711.2678;1056.333;-459.9577;-1299.602;-11.83823;17.29809;503.5172;410.0958;-0.2536175;0.01846807;0;
20320.4;15492.28;-345.2717;24398.93;-5.262252;16.67787;21787.33;12049.16;-0.1883954;-0.1114852;0;
18194.96;13260.17;-55.03926;23410.76;-5.256964;16.79507;19810.06;10330.18;-0.05827137;-0.1763405;0;
19137.13;14662.73;21.89927;23734.85;-3.175577;14.43379;20582.54;11819.9;-0.3830495;-0.111196;0;
21462.12;16334.96;72.39875;26528.59;-2.369079;13.01277;23058.79;13091.52;-0.25273;0.1487851;0;
8352.053;6347.606;418.6207;10228.21;1.451694;7.842072;8599.734;4170.595;0.137328;0.2785703;0;
-16276.59;-11521.29;441.3447;-19739.51;7.612177;3.480423;-17806.19;-9051.217;-0.252614;0.3432578;0;
-16531.85;-10365.71;91.54556;-21895.47;-10.34641;6.491097;-18214.48;-7972.645;-0.3822949;0.01807613;0;
-17956.87;-12155.28;43.93059;-22823.01;-9.933871;4.408104;-19449.68;-9040.749;0.007893323;-0.176844;0;
-23317.77;-17544.76;-78.09911;-28482.76;-6.373917;-1.155726;-24765;-12972.31;-0.05708195;0.01823566;0;
2997.511;2737.432;-356.6618;1261.678;-11.19028;-3.030087;2920.964;1597.175;-0.4468286;-0.1766847;0;
20978.44;15949.12;-288.3845;25196.94;34.77052;-10.86386;22504.37;12464.56;-0.316445;-0.3064418;0;
18630.36;13791.43;-23.77443;23781.49;47.7964;-14.73783;20226.85;10941.48;-0.2511597;0.01870279;0;
19478.86;14963.81;28.3795;24059.12;27.72133;-9.632444;20930.52;12061.73;-0.5107767;0.08365134;0;
21774.42;16655.2;63.88;26843.5;31.84666;-9.689749;23376.28;13468.27;-0.3153614;-0.0463674;0;
9190.203;6921.47;426.5085;11119.48;18.14966;-10.48381;9475.998;4627.334;-0.05517518;-0.04632081;0;
-14650.05;-10196.46;475.3364;-18142.3;14.11293;-8.865683;-16152.82;-7912.67;0.3346843;0.08366042;0;
-14706.73;-8944.981;125.878;-20197.81;8.941188;-9.861519;-16412.28;-6777.146;0.2693807;-0.04635833;0;
-16367.3;-10881.13;66.40633;-21316.1;1.363743;-8.913849;-17886.79;-8047.944;-0.5104981;-0.3061811;0;
-21870.11;-16280.24;-38.12351;-27076.32;15.22747;-3.546379;-23341.53;-11970.38;-0.1201811;-0.4358081;0;
3847.243;3188.499;-302.5304;2111.96;15.41227;-1.131491;3746.662;1865.713;0.6595477;-0.3704029;0;
21126.64;16025.2;-239.6641;25359.14;12.18258;1.147004;22643.22;12544.34;0.5289503;-0.1751287;0;
18855.78;14062.11;6.562431;24020.14;12.5715;3.624159;20456.98;11232.64;0.2035822;-0.1099854;0;
19900.83;15365.69;38.07125;24492.87;12.22408;3.419569;21348.64;12458.16;-0.1214591;0.02005982;0;
22042.59;16938.31;68.28341;27149.46;12.68128;4.353894;23652.24;13760.82;-0.4461738;-0.04492768;0;
9934.986;7302.472;404.2022;11971.04;9.051219;3.67969;10234.75;5004.936;-0.1858561;0.0200848;0;
-13170.95;-9138.652;453.3024;-16546.55;8.974775;2.470299;-14689.43;-6888.087;0.07420003;0.08503196;0;
-13331.67;-7995.508;146.2354;-18722.16;2.803816;6.955613;-15053.12;-5946.432;-0.2507112;0.1499139;0;
-15167.9;-10071.58;100.5957;-20020;0.2554034;7.618392;-16704.63;-7318.999;-0.0555573;0.08479589;0;
-20980.04;-15382.65;-2.687885;-26051.8;8.828962;1.783405;-22447.62;-11116.86;0.07443321;-0.1751587;0;
4056.499;3434.358;-284.3405;2474.257;10.49503;1.111784;4003.747;2039.19;-0.2504783;0.149854;0;
21210.1;16077.22;-257.693;25494.74;8.407404;-4.11388;22744.52;12600.77;-0.1202919;0.2796381;0;
18925.08;14163.19;-8.777836;24095.74;7.99779;-7.324866;20519.73;11349.7;-0.3800404;0.01948779;0;
19792.02;15239.23;37.4109;24395.66;15.62556;-0.6193959;21242.59;12322.58;-0.5095932;0.4742396;0;
22087.35;16996.87;55.97333;27196.9;16.74796;-1.087593;23696.62;13841.73;0.1405922;0.2788611;0;
10094.72;7524.37;399.5412;12176.95;15.05717;0.1861144;10404.21;5190.785;0.335353;-0.3061252;0;
-13250.18;-9197.352;460.2965;-16602.03;17.1855;1.324637;-14759.82;-6970.415;-0.1847227;0.4088232;0;
-13650;-8243.991;146.7258;-19056.7;3.3695;-2.96354;-15366.04;-6130.22;-0.1195698;0.4733797;0;
-15735.22;-10543.92;99.00852;-20577.82;1.692151;-2.424699;-17259.62;-7718.493;0.01048506;-0.2417367;0;
-21815.98;-16143.79;-16.72034;-26923.91;0.5513749;-8.316578;-23291.3;-11708.38;-0.2493948;0.08334288;0;
3495.82;3000.536;-301.3105;1827.063;-1.726355;-10.71961;3417.797;1752.839;-0.3790789;0.5380306;0;
20999.01;15906.95;-266.7437;25252.17;10.39917;-4.14463;22525.74;12418.32;0.07607336;0.3425879;0;
18751.45;13974.15;-10.85416;23920.19;10.32137;-4.408398;20348.6;11165.49;0.1409643;0.01740695;0;
19744.77;15198.86;54.06162;24342.29;31.54447;-0.9209165;21194.68;12293.82;-0.1190467;-0.1125452;0;
21986.08;16892.7;72.07634;27088.97;40.62148;0.6875382;23594.22;13736.63;0.0759749;-0.1773995;0;
9930.188;7364.509;396.091;11977.47;18.00802;-1.389562;10240.29;5045.731;0.07589856;0.0176808;0;
-13492.65;-9361.612;444.5435;-16877.46;16.44968;0.3533289;-15000.4;-7150.945;-0.2490144;0.1475977;0;
-14316.89;-8585.403;133.9246;-19752.56;11.07452;-6.546085;-16035.25;-6431.353;-0.2487642;-0.307322;0;
-16465.6;-11006.38;95.85595;-21313.07;5.102521;-7.611235;-17974.53;-8106.311;-0.1835469;-0.3719805;0;
-22280.84;-16583.7;-27.63147;-27439.34;9.852817;-7.268672;-23765.82;-12094.88;-0.1183951;0.148132;0;
3145.01;2697.98;-308.322;1303.255;9.105982;-10.47649;3001.7;1508.181;0.07662586;0.08301578;0;
20865.52;15785.71;-252.868;25031.02;1.528371;6.748286;22363.86;12316.04;0.2064835;-0.176937;0;
18722.45;13937.61;0.3995114;23914.93;0.3877591;12.03304;20327.12;11123;0.5311128;-0.1117919;0;
19623.83;15080.87;57.40171;24209.82;8.692765;-1.844218;21067.34;12181.24;0.2057424;-0.04671219;0;
21974.31;16889.04;63.2317;27078.96;12.10028;-1.574433;23584.22;13742.86;-0.3791704;-0.2415673;0;
9894.042;7427.104;374.6054;11994.1;11.55226;-1.237936;10204.38;5094.565;0.01101464;-0.2413246;0;
-13876.46;-9694.756;437.4628;-17181.04;10.87107;-1.169709;-15385.84;-7458.247;-0.1838984;-0.1111474;0;
-14563.8;-8872.11;144.3266;-19942.88;31.22198;-1.3025;-16279.58;-6682.999;-0.5085503;-0.1760031;0;
-16520.1;-11117.75;116.6798;-21353.31;37.4199;-2.841799;-18045;-8245.791;0.07666669;-0.1758262;0;
-22785;-17002.24;-14.18423;-27886.72;20.16829;8.146014;-24272.21;-12417.28;0.01162232;0.08421984;0;
2653.293;2412.484;-323.2646;906.783;19.34472;10.21424;2536.336;1348.206;-0.2482587;0.2790373;0;
20790.9;15761.96;-279.1805;24992.67;10.5504;8.864378;22300.32;12280.21;-0.05310725;0.2137895;0;
18699.08;13887.77;-18.65583;23891.21;6.320239;9.927136;20303.03;11075.87;0.01191345;0.2785421;0;
19592.12;15067.55;54.43556;24195.9;4.437878;3.620949;21038.05;12177.83;-0.2479679;0.2132948;0;
21929.31;16835.67;80.74261;27045.84;0.3475819;1.875815;23537.89;13684.27;-0.1827514;-0.1767235;0;
9872.134;7331.55;391.1617;12001.23;11.66771;-1.676104;10188.24;5031.208;0.142269;-0.3064806;0;
-13920.66;-9788.746;435.4649;-17157.85;13.53102;-3.148044;-15425.76;-7492.399;0.2070933;-0.04630334;0;
-14859.54;-9064.316;118.577;-20159.54;19.00978;-7.632616;-16567.69;-6771.308;0.1419179;-0.1761915;0;
-17053.86;-11525.95;72.35606;-21767.03;24.88518;-9.701356;-18534.56;-8583.184;0.3366773;-0.3059492;0;
-23240.13;-17457.82;-35.05331;-28283.95;15.14826;-2.859532;-24711.84;-12867.79;0.2713717;-0.3706091;0;
2519.19;2229.85;-315.7988;679.9705;14.66355;-2.253812;2354.289;1176.913;-0.2486397;-0.6950734;0;
20738.53;15699.56;-272.5812;24892.37;23.28998;8.197546;22226.56;12232.55;-0.2483899;0.02026579;0;
18537.59;13730.42;-3.301908;23763.5;23.93616;13.74871;20148.43;10918;-0.05323827;0.6049515;0;
19445.91;14923.8;59.26371;24056.95;24.44798;6.634948;20888.9;12034.86;-0.5729235;0.279507;0;
21871.32;16775.22;72.713;26996.69;25.29407;8.302794;23485.26;13641.9;-0.4424132;0.6040628;0;
10010.06;7450.375;411.782;12148.53;20.11109;7.155741;10340.76;5091.223;-0.05216455;0.5384885;0;
-13715.06;-9557.473;469.7763;-16933.81;19.55502;5.541021;-15201.98;-7375.957;0.1427899;0.08317602;0;
-14752.69;-8918.529;150.5895;-20020.11;14.24408;14.04204;-16455.87;-6691.714;0.4025158;0.0181251;0;
-16944.57;-11434.92;110.8175;-21645.67;11.08096;16.43932;-18442.81;-8518.053;-0.05266007;-0.3067298;0;
-23297.88;-17526.6;-7.734322;-28309.46;18.1034;6.107672;-24772.1;-12833.95;-0.2475092;-0.3713889;0;
2318.233;2035.999;-304.9053;531.4988;17.482;3.757193;2171.522;1094.049;0.1425436;0.01878827;0;
20656.26;15618.78;-273.6145;24824.35;19.87631;9.245896;22149.73;12138.57;0.1424003;0.08373673;0;
18537.05;13735.24;-14.37599;23757.65;20.92806;7.896947;20147.18;10925.87;0.07728992;0.2785546;0;
19462.26;14933.3;67.69096;24068.29;13.87346;9.697491;20906.06;12052.91;-0.05272243;0.0833727;0;
21784.57;16702.62;95.45271;26917.03;11.58234;9.352893;23398.72;13566.42;0.07726523;-0.2415478;0;
9967.065;7361.852;415.8207;12143.42;10.03046;6.061393;10306.83;5024.125;0.337057;-0.1763377;0;
-13674.57;-9567.024;460.3647;-16864.78;7.006275;5.921336;-15159.12;-7343.537;0.01188158;-0.3710626;0;
-15093.02;-9142.464;130.6145;-20346.56;5.190574;-3.595946;-16805.15;-6811.89;0.07683698;-0.3057224;0;
-17536.74;-11966.85;77.0882;-22216.23;3.510419;-6.807453;-19033.21;-8954.199;0.07675977;0.01942151;0;
-23718.04;-17906.96;-50.26902;-28740.87;-2.856121;-4.858168;-25200.42;-13210.86;-0.3131214;0.08436934;0;
2075.797;1975.015;-341.2441;242.911;-5.197776;-6.862714;1897.891;1008.903;-0.3128068;-0.04565012;0;
20589.36;15616.88;-283.2896;24736.93;-2.579609;-1.430323;22070.08;12144.46;0.01234424;-0.3054736;0;
18540.41;13703.76;-24.57231;23769.24;-2.175851;-0.5581682;20157.55;10896.99;0.4021359;0.01967003;0;
19332.78;14830.04;14.46402;23944.83;-1.168311;0.1792049;20776.63;11950.12;0.4666992;0.2145523;0;
21779.55;16682.05;23.49182;26917.69;0.1046848;1.786615;23399.05;13557.25;0.4012629;0.2793041;0;
10114.36;7497.286;368.5604;12317.06;5.329493;-1.765214;10467.09;5132.041;0.465827;0.2140561;0;
-13801.44;-9696.655;426.9418;-16943.39;8.137177;-1.830424;-15281.47;-7493.006;0.07555491;-0.2409304;0;
-14774.27;-9035.88;86.57427;-20001.11;7.593137;-3.436114;-16484.16;-6793.419;0.01051165;-0.0457863;0;
-16475.03;-11074.57;47.00713;-21146.83;8.322441;-4.370422;-17975.21;-8265.006;0.2703705;0.3440638;0;
-23146.08;-17352.98;-31.20394;-28103.82;15.14658;-4.901894;-24617.85;-12717.05;0.3350661;0.148816;0;
2153.784;1897.021;-311.8128;401.7423;19.35092;-6.437515;2014.09;983.1573;0.1398274;-0.04623554;0;
20694.47;15652.98;-283.7946;24850.03;3.322923;-0.4027659;22189.72;12184.4;-0.1201824;-0.5009605;0;
18573.81;13769.75;-17.78367;23791.88;-0.8336021;1.607127;20187.51;10968.76;0.009873005;-0.3055551;0;
19537.15;15018.3;52.08971;24134.8;15.24314;-4.355847;20979.52;12140.42;0.1397978;0.1495233;0;
21994.5;16912.12;58.7215;27130.57;17.90714;-4.35147;23617.2;13797.14;-0.1202121;0.01943841;0;
10579.75;7781.118;375.2534;12825.09;10.92292;-3.208449;10958.98;5390.915;-0.250026;0.2143209;0;
-12649.3;-8812.254;437.9696;-15821.51;10.9793;-3.607062;-14123.21;-6662.962;-0.1848074;-0.1107312;0;
-14121.43;-8471.223;134.8692;-19427.65;14.65196;0.2814507;-15841.03;-6194.905;0.01028033;-0.2405546;0;
-17031.91;-11703.74;80.40157;-21721.7;14.56989;1.352895;-18507.11;-8796.604;0.07523734;0.2794259;0;
-24083.33;-18202.67;-63.35699;-29119.49;19.2443;1.485501;-25555.91;-13443.1;-0.249675;-0.110659;0;
1552.116;1566.047;-359.2539;-352.8002;21.70321;2.890589;1357.816;723.3595;-0.3143914;-0.5653191;0;
20499.7;15536.14;-307.1065;24601.32;12.90651;-2.872725;21970.21;12060.43;0.3355979;-0.1099797;0;
18532.22;13703.63;-43.00863;23754.74;11.88917;-5.281164;20154.53;10905.28;0.2702933;0.4098695;0;
19457.1;14943.4;31.51277;24037.88;12.27936;2.0251;20899.39;12068.31;-0.3796517;0.08462097;0;
21925.23;16846.94;51.34612;27055.69;10.92688;2.224014;23547.06;13739.48;-0.2493355;-0.3052681;0;
10529.58;7737.688;376.1156;12778.46;17.88212;-0.5914432;10916.99;5353.819;0.1407191;-0.3699287;0;
-13393.55;-9511.217;449.4038;-16549.18;20.61082;-0.4568831;-14848.91;-7291.066;0.07561032;-0.0447203;0;
-15092.52;-9173.169;120.1956;-20423.26;15.69999;-6.417722;-16804.31;-6849.849;-0.1193677;0.2801614;0;
-17152.44;-11606.6;49.61027;-21866.8;15.48314;-8.018864;-18621.04;-8782.21;0.01068695;-0.04495687;0;
-24385.27;-18482.24;-57.49514;-29449.07;17.54467;-9.01549;-25860.69;-13574.74;0.07564355;-0.1748464;0;
847.0504;927.7557;-339.7018;-1198.915;13.70865;-11.41776;622.3068;352.3301;0.01060021;0.2151334;0;
20234.95;15261.31;-301.4732;24250.12;23.47413;-2.698745;21695.01;11791.58;0.1405242;-0.1099195;0;
18242.02;13420.09;-47.89134;23485.39;21.77658;-0.2177261;19865.85;10609.25;0.01044836;-0.6295478;0;
18974.16;14456.25;3.412265;23569.79;14.98955;-5.57602;20418.73;11605.44;-0.3143989;-0.3690459;0;
21508.21;16426.07;22.27435;26620.86;16.31366;-4.230759;23123.81;13291.96;0.01075377;-0.2387404;0;
9596.282;7104.042;359.7854;11786.93;-24.82952;-5.4322;9943.628;4835.267;0.1406776;-0.1735331;0;
-14897.18;-10657.14;418.7691;-18014.41;-38.13381;-5.292776;-16366.71;-8246.347;-0.1193331;-0.3032935;0;
-16601.22;-10304.96;99.49296;-21792.22;-20.94786;-0.7326794;-18292.6;-7783.602;-0.05424583;-0.2380214;0;
-18739.33;-12912.9;34.14454;-23346.87;-25.01265;0.07179097;-20190.81;-9874.897;0.2706454;0.08705451;0;
-25553.07;-19570.7;-104.3358;-30546.02;-13.13215;5.363248;-27022.32;-14629.1;0.5302428;0.0219997;0;
462.5751;777.2314;-371.2999;-1529.564;-9.367909;7.635218;224.1055;140.515;0.3997753;-0.1079571;0;
20046.84;15178.73;-292.7005;24091.03;-3.597721;3.541709;21497.48;11716.09;0.269439;-0.04288128;0;
18080.09;13203.62;-28.41405;23338.44;3.438492;2.667372;19705.3;10393.63;0.0742662;-0.1078055;0;
18840.78;14349.61;32.70879;23450.63;-1.320385;3.133573;20282.5;11496.42;-0.2506451;0.2171395;0;
21435.13;16340.08;54.6961;26563.89;3.904878;1.85781;23051.91;13217.47;0.2693455;0.2818887;0;
9459.222;7071.604;359.5035;11692.41;-5.542541;0.04740363;9817.01;4783.358;0.5939115;0.2816054;0;
-15236.05;-10903.35;381.428;-18337.48;-5.939113;-0.3545416;-16698.98;-8481.533;0.3334454;0.4112571;0;
-16489.1;-10338.39;57.44175;-21745.24;0.563589;-7.856091;-18185.86;-7821.213;0.268143;0.0860072;0;
-18174.99;-12456.48;17.43536;-22827.3;-1.312011;-9.99159;-19634.14;-9493.182;0.07297154;-0.0440139;0;
-25508.39;-19514.61;-92.58936;-30512.93;20.8598;-7.034362;-26978.82;-14497.87;0.1378656;0.2158997;0;
223.3357;511.0375;-375.1511;-1824.941;26.26483;-7.831089;-12.61297;11.862;0.137727;0.2806501;0;
20147.1;15283.46;-325.3928;24145.12;21.88418;2.290958;21597.71;11820.38;-0.1872481;-0.109436;0;
18280.05;13396.39;-47.9707;23522.57;25.14472;7.111305;19905.63;10581.15;-0.3169946;0.02060869;0;
19012.27;14522.98;22.27659;23599.44;8.84248;0.4060498;20454.17;11678.12;-0.1217741;0.410392;0;
21559.1;16476.86;35.84113;26684.12;4.480314;1.27642;23176.5;13352.98;-0.05668436;-0.3696284;0;
10053.21;7354.587;368.7159;12284.14;-1.486035;6.968565;10408.61;5019.867;0.008339942;-0.8889958;0;
-14043.04;-10025.82;427.2845;-17148.3;-9.455145;7.564348;-15523.03;-7761.255;-0.1216031;-0.6282331;0;
-15998.92;-9840.49;96.49001;-21223.42;4.352108;8.360542;-17707.43;-7382.315;-0.05651359;-0.5626345;0;
-18294.5;-12552.44;26.1315;-22933.82;6.156396;7.414381;-19759.02;-9541.683;0.2683799;-0.1072978;0;
-24998.63;-19072.79;-106.7811;-30028.93;-8.384476;6.201299;-26477.89;-14232.03;0.1381755;0.2176467;0;
838.8767;990.5638;-384.05;-1223.519;-10.58685;4.855409;608.099;269.0512;-0.05686532;0.08749335;0;
20181.44;15262.29;-322.7728;24176.15;-5.016511;-4.057956;21636.95;11806.04;0.0731265;0.1523728;0;
18312.07;13442.03;-61.40785;23562.92;-6.485339;-7.53693;19936.46;10639.76;0.008085687;0.217187;0;
19246.88;14759.48;10.19602;23826.05;2.764578;-12.48597;20683.03;11906.8;0.0730449;-0.04290059;0;
21741.23;16646.35;45.18381;26877.19;6.04433;-15.88949;23365.27;13540.51;-0.05696318;-0.5625962;0;
10412.52;7632.644;372.224;12743.07;-5.348598;-14.53387;10814.34;5271.65;-0.3817427;-0.3021615;0;
-13307.99;-9413.867;438.6289;-16359.47;-5.678016;-15.79194;-14750.63;-7150.5;-0.4463264;0.1529135;0;
-14769.61;-8960.818;139.4165;-20063.52;-12.30374;-9.814714;-16491.19;-6678.142;-0.1210412;0.02282512;0;
-16714.24;-11278.22;94.36147;-21451.28;-16.04243;-7.728443;-18216.34;-8540.477;0.4637865;0.2177042;0;
-24126.62;-18245.54;-20.75365;-29196.65;-7.050348;-6.046104;-25617.29;-13355.02;0.1384837;0.4123875;0;
905.1786;963.866;-315.4284;-1137.044;-6.373678;-3.092902;686.8334;382.9402;-0.3813941;-0.04279827;0;
20377.34;15434.17;-275.2409;24373.07;-6.702067;-5.702006;21833.56;11972.6;-0.2510762;-0.4325593;0;
18514.82;13663.72;-13.98613;23755.85;-5.824677;-4.82556;20143.45;10861.75;-0.2508239;0.1525814;0;
19251.82;14759.85;34.73781;23823.39;-3.942814;-4.150882;20690;11917.99;-0.05566989;0.7371342;0;
21837.86;16750.11;44.94776;26969.34;-2.733403;-3.811796;23465.29;13636.07;0.07432073;0.4115568;0;
10639.08;7805.029;375.1272;12974.45;-5.14253;-3.20512;11059.93;5449.363;-0.2505907;-0.1085955;0;
-12938.73;-9113.845;445.2149;-16031.11;-5.538528;-2.867046;-14372.06;-6885.821;-0.1204042;-0.1734537;0;
-14223.16;-8699.719;140.1082;-19565.71;-6.337246;-3.065114;-15942.8;-6451.976;0.1395862;-0.04334475;0;
-15875.23;-10692.97;104.8913;-20647.36;-7.134186;-3.999734;-17391.66;-7971.726;0.009511228;-0.2382032;0;
-23005.78;-17186.36;10.97365;-28086.99;-8.533537;1.161849;-24503.62;-12612.08;0.07446902;-0.04306185;0;
1662.711;1529.069;-289.4176;-331.5011;-9.462968;2.031399;1475.273;581.5741;0.07439419;0.3467855;0;
20467.59;15460.53;-282.9112;24489.71;-10.79361;-2.257428;21939.19;12002.05;-0.1205826;0.151535;0;
18596;13772.21;-38.04675;23827.66;-12.12193;-3.125877;20219.03;11002.81;-0.1854288;0.2163501;0;
19506.35;15007.84;23.81978;24087.11;-8.157636;-6.337856;20946.11;12148.66;-0.3801445;0.2811;0;
21972.48;16894.32;37.71072;27110.55;-7.346132;-8.340915;23605.12;13811.39;-0.3147952;0.2158502;0;
11082.08;8044.251;360.8229;13398.84;-10.35286;-9.471244;11483.5;5640.722;0.3351946;0.345568;0;
-11873.38;-8337.117;446.2454;-14986.96;-10.47618;-10.73434;-13362.86;-6202.684;0.8545964;0.08535143;0;
-13018.01;-7853.245;162.0646;-18350.23;-11.26994;-12.86701;-14761.92;-5797.246;0.5938684;0.2801677;0;
-14958.51;-10039.27;119.4075;-19688.13;-12.53141;-14.52859;-16467.97;-7519.411;0.268435;0.6047229;0;
-22511.83;-16757.02;13.0284;-27521.91;-9.503733;-8.954534;-24019.31;-12139.45;0.2031979;0.4741806;0;
1872.297;1567.728;-274.3871;-59.42123;-9.025668;-7.271023;1676.622;728.0659;0.008091724;0.2788021;0;
20675.76;15623.34;-243.533;24704.44;-13.6383;-9.809008;22142.82;12170.83;-0.05688375;0.1485873;0;
18802.35;14010.35;11.19314;24049.61;-14.16046;-8.660441;20433.86;11237.94;0.07310809;-0.2413661;0;
19644.25;15130.78;66.38852;24220.77;-12.80706;-8.584757;21076.98;12275.11;0.138002;-0.3060909;0;
22158.88;17106.26;69.94499;27326.31;-10.91818;-7.772397;23799.81;14035.51;0.007928627;0.01905337;0;
11767.23;8510.463;389.8545;14306.1;-15.46254;-6.69286;12282.03;6044.194;0.26779;-0.1758678;0;
-10805.18;-7570.322;486.3047;-13755.6;-15.6471;-6.686135;-12213.11;-5534.578;0.2025536;-0.1107237;0;
-12267.31;-7301.737;197.1331;-17607.87;-6.455322;-0.9190065;-14029.23;-5294.791;-0.3173887;0.1492569;0;
-14061.8;-9269.174;131.218;-18808.51;-5.510831;1.158327;-15583.38;-6883.888;-0.1221677;-0.2406971;0;
-21302.23;-15614.24;26.90416;-26340.2;8.091388;-1.053213;-22812.35;-11269.95;0.2027918;-0.2404553;0;
2457.028;2025.149;-254.7782;541.1487;15.04948;0.4883919;2266.481;977.333;-0.1222487;-0.04531166;0;
20697.86;15617.77;-248.6345;24758.31;2.374708;-4.066816;22170.99;12163.23;-0.1221259;0.1496359;0;
18853.43;14081.27;-31.24383;24090.36;4.314705;-5.20144;20483.29;11332.17;0.07289885;0.0845182;0;
19749.99;15237.62;13.21836;24321.43;-2.85595;-1.043333;21181.88;12378.02;0.007858259;-0.2404034;0;
22119.11;17073.16;36.56833;27286.35;-6.805195;-1.913062;23763.3;14013.92;0.07281771;-0.1751945;0;
11802.52;8464.069;372.8469;14300.51;5.793946;2.978492;12308.98;5993.552;0.2026792;0.1498182;0;
-10314.19;-7210.561;499.752;-13330.7;4.314256;3.779294;-11753.77;-5174.235;-0.1223611;0.214635;0;
-11444.85;-6841.498;243.0193;-16812.21;14.29026;0.761326;-13224.46;-4938.48;-0.3171402;0.2793867;0;
-12885.51;-8394.714;183.4924;-17692.4;18.02694;0.9615098;-14444.9;-6219.965;-0.1219195;0.1491713;0;
-20044.72;-14389.14;92.57241;-25040.98;1.9339;-6.876276;-21540.04;-10289.87;0.268007;0.01908671;0;
3049.819;2481.614;-198.1402;1367.024;0.1896682;-9.414658;2980.223;1256.999;0.2027704;-0.04589981;0;
20807.39;15673.43;-222.0227;24956.82;-8.785503;-10.14201;22324.11;12224.47;-0.3171721;0.01911365;0;
18921.06;14180.62;-0.9106436;24131.76;-14.00159;-12.54314;20534.91;11452.56;0.007983317;0.3439312;0;
19766.83;15249.49;50.81427;24348.81;-9.968056;-7.841857;21205.26;12380.06;0.13791;0.2786182;0;
22200.24;17172.8;50.76321;27376;-12.23619;-6.963199;23843.59;14136.53;-0.317;0.1484036;0;
12163.48;8735.385;358.2607;14798.33;-8.271781;-7.759998;12724.97;6219.937;0.008155245;0.3431565;0;
-9488.661;-6565.175;480.9639;-12380.37;-7.861328;-6.479525;-10890.36;-4628.785;0.2030491;0.212877;0;
-10431.6;-6186.063;228.7946;-15808.03;-7.384914;-6.1381;-12254.94;-4390.907;-0.1219917;-0.1771409;0;
-11978.51;-7759.271;182.0569;-16768.39;-8.047079;-5.462103;-13566.45;-5774.75;-0.1218691;-0.1119956;0;
-19149.49;-13564.9;106.7398;-24147.21;-4.957535;-2.978307;-20660.35;-9723.866;0.0731554;0.01805161;0;
3633.093;2886.533;-209.8177;1893.006;-4.484039;-2.037614;3537.254;1508.56;0.0730819;-0.1768686;0;
20929.12;15750.57;-251.3047;25053.4;-13.32079;-2.906284;22429.26;12316.69;-0.05692622;-0.2416582;0;
19055.45;14349.85;-10.87603;24287.58;-13.50848;-2.501527;20676.94;11641.8;-0.1218364;0.01845401;0;
20050.46;15524.07;46.54354;24620.51;-30.50784;-5.513124;21480.97;12641.39;-0.1217139;0.1483702;0;
22329.78;17326.32;51.91592;27512.26;-37.17596;-7.115174;23978.29;14326.74;-0.186559;-0.1116483;0;
12545.83;8957.607;379.5584;15277.74;-21.26378;-3.491008;13193.71;6371.168;0.008530495;-0.3064381;0;
-8429.785;-5841.506;526.8528;-11339.74;-20.10333;-3.4875;-9826.088;-4090.088;-0.1863801;-0.1112282;0;
-9277.604;-5511.362;283.3518;-14779.63;-13.31798;-6.297218;-11192.96;-3902.977;0.008709199;0.01881824;0;
-10877.44;-7000.542;221.9103;-15747.44;-7.812243;-7.295634;-12515.31;-5284.171;0.3985045;0.148734;0;
-18242.71;-12665.67;144.523;-23213.28;-9.010818;-7.690201;-19749.31;-9011.048;-0.1216347;0.3434866;0;
3814.636;3058.548;-155.2685;2249.368;-5.518163;-8.75414;3789.76;1647.232;-0.4463491;0.2132068;0;
20798.53;15601.36;-194.1866;25009.24;-3.905028;-8.87931;22344.73;12161.31;-0.315966;-0.04687683;0;
18977.38;14309.06;25.08594;24158.44;-2.763005;-8.736422;20579.09;11617.85;-0.3156485;0.08310496;0;
19760.88;15220.2;59.93383;24350.97;-1.085289;-13.28236;21199.03;12341.58;-0.1204293;0.2129561;0;
22124.35;17138.45;52.23682;27295.25;-1.151547;-14.34074;23769.83;14150.87;-0.05534094;0.08280747;0;
12468.87;8925.44;371.3833;15083.82;-2.021046;-11.64708;13068.99;6355.952;0.009682005;-0.1771451;0;
-9238.439;-6489.144;495.8692;-12165.69;-2.48753;-11.43442;-10605.83;-4641.395;-0.05529507;-0.1119998;0;
-10322.76;-6132.581;228.3021;-15775.04;-6.839287;-9.748422;-12152.42;-4411.141;-0.1851742;0.1479822;0;
-12044.6;-7885.113;175.3492;-16891.76;-7.836793;-9.336729;-13632.02;-6008.638;-0.1200208;0.01789877;0;
-20357.34;-14653.88;98.21167;-25381.65;-12.85276;-5.375415;-21841.14;-10440.57;-0.1848675;-0.2419886;0;
2494.777;1969.483;-214.8547;700.4125;-16.38982;-3.360587;2429.645;1030.548;0.01022025;-0.1118108;0;
20849.98;15697.88;-236.6434;24931.86;-3.245184;-6.438365;22361.79;12234.16;-0.05475736;-0.3066004;0;
18866.35;14178.83;1.943349;24075.85;0.1743281;-5.360168;20481.93;11469.93;-0.3145717;-0.5011944;0;
19622.15;15098.34;49.85481;24185.95;-6.322581;-9.775595;21059.96;12259.91;0.1405158;-0.1758541;0;
21958.11;16974.42;63.98509;27124.44;-4.106402;-11.03839;23604.32;13953.8;0.2053419;0.1491594;0;
12043.57;8605.998;386.6648;14663.26;-6.847966;-5.534817;12644.42;6095.268;0.01023357;-0.1108599;0;
-9639.998;-6692.026;510.2765;-12579.82;-7.846439;-4.725522;-10998.83;-4785.219;0.2051253;-0.5005525;0;
-11251.87;-6561.24;252.2682;-16666.8;2.611271;-4.318876;-13040.35;-4676.916;0.2049192;-0.2401802;0;
-12853.68;-8276.016;189.0463;-17680.9;4.349959;-4.448502;-14397.75;-6159.735;0.139746;-0.1100042;0;
-19852.44;-14207.65;106.2729;-24925.37;5.618386;1.986207;-21337.89;-10217.44;-0.3151658;-0.1098937;0;
3011.634;2401.611;-199.3053;1177.923;7.621496;4.596485;2917.927;1134.172;-0.5747185;0.08511876;0;
20638.76;15504.16;-240.5218;24723.47;1.519246;-3.044005;22146.28;12077.91;-0.184337;-0.3047708;0;
18822.72;14132.26;-13.44098;24031.8;1.115577;-3.174912;20439.24;11443.65;0.01075024;-0.3694319;0;
19667.8;15155.73;36.23507;24240.12;-2.837659;-7.056671;21102.65;12295.6;-0.2491299;-0.04422401;0;
22044.22;17068.56;34.44954;27208.72;-4.844539;-9.862803;23691.71;14085.53;-0.2488796;-0.1091469;0;
12364.58;8831.338;352.4738;14955.03;-1.557142;-1.614175;12931.4;6293.365;0.07620718;-0.1740046;0;
-9554.299;-6762.093;470.4976;-12476.23;-1.689299;-0.2728941;-10963.79;-4844.66;0.01116326;-0.1088624;0;
-11202.82;-6659.331;209.4527;-16568.8;0.3885033;-1.88021;-13008.43;-4780.634;-0.2487173;-0.04378567;0;
-13162.48;-8740.372;166.6074;-17899.73;0.6565327;-0.2707306;-14705.33;-6639.519;-0.05356538;-0.2386437;0;
-21416.3;-15613.54;86.62078;-26378.3;4.74171;-2.145981;-22908.08;-11282.23;0.1413905;-0.1734366;0;
1779.696;1529.871;-225.575;-67.05253;5.540253;-2.210807;1667.27;617.4909;-0.05365363;0.08660707;0;
20653.17;15589.33;-254.6461;24695.82;5.467337;2.078261;22143.54;12145.36;-0.3784364;0.2164547;0;
18833.57;14110.48;-18.11838;24076.91;6.198777;2.745941;20458.54;11406.61;-0.7028929;0.2812046;0;
19595.65;15107.73;42.60369;24165.68;-4.523744;4.283789;21025.68;12278.5;-0.767154;0.5407914;0;
21990.63;17007.43;57.20976;27161.66;-8.404941;5.820031;23636.32;14005.67;-0.1167097;0.6052154;0;
12237.63;8769.207;379.0217;14927.69;-8.797661;0.9245511;12906.47;6243.66;0.4681137;-0.3699029;0;
-9642.658;-6728.334;493.8642;-12503.28;-12.1387;0.05284404;-10955.67;-4844.934;0.1428066;-0.8243026;0;
-11515.35;-6805.157;217.5379;-16908.59;-8.911322;1.057535;-13326.25;-4937.532;-0.1172063;0.2160031;0;
-12731.15;-8145.204;158.2396;-17538.68;-7.695943;-0.08223754;-14286.71;-6099.25;-0.05212117;0.6055901;0;
-19729.75;-14049.02;92.16064;-24754.13;-13.04684;1.994316;-21215.16;-10126.41;-0.1820035;0.02027554;0;
2815.952;2290.94;-198.6765;997.0831;-11.62722;1.791363;2735.034;1007.365;-0.1818206;0.08522251;0;
20522.78;15394.88;-238.4879;24594.06;-10.41008;1.2537;22037.77;11976.35;0.07823146;0.4099736;0;
18713.83;14035.07;-22.04449;23927.63;-9.730039;1.453389;20327.24;11362.76;0.5978916;0.2146596;0;
19512.13;15012.59;34.44927;24076.36;4.61433;-1.562242;20948.9;12159.14;0.4023888;-0.04542544;0;
21908.48;16931.6;38.16277;27061.67;9.365115;-2.029553;23552.11;13963.65;-0.442591;-0.0453798;0;
12085.63;8722.22;350.4206;14714.43;10.89595;-2.563377;12719.19;6178.388;-0.1173095;0.08460049;0;
-10276.39;-7194.173;471.9291;-13202.67;14.16753;-2.560802;-11596.83;-5300.585;0.3375797;0.3443848;0;
-11888.02;-7103.236;204.9951;-17375.69;10.66969;-3.629894;-13692.34;-5225.544;-0.05256353;0.4090061;0;
-13304.85;-8778.035;139.4782;-18169.12;10.72632;-5.032889;-14858.59;-6679.013;-0.05251071;0.08375847;0;
-21744.86;-15889.85;44.85427;-26797.06;5.290535;4.416579;-23237.02;-11516.99;-0.24736;0.1486417;0;
1268.869;1138.92;-253.369;-676.4263;2.538553;7.024415;1136.055;280.3594;-0.8318175;0.2134597;0;
20463.3;15452.86;-272.2611;24449.79;2.201209;1.323929;21949.36;12023.71;-0.4411776;0.01834312;0;
18679.6;13936.6;-38.51112;23902.15;0.9935486;1.456565;20301.46;11247.04;-0.2458323;0.2781941;0;
19537.75;15076.5;44.5015;24080.89;-2.289979;-1.358121;20967.22;12252.57;-0.3105527;0.1479799;0;
22046.25;17070.66;67.67948;27198.96;-4.162713;-3.500149;23693.52;14097.84;0.5993022;-0.5018423;0;
12371.89;8824.392;366.6643;15011.11;6.089249;-1.420222;12978.56;6270.588;0.4687653;-0.501338;0;
-9168.41;-6409.478;483.7212;-12104.1;9.164589;-2.624488;-10553.37;-4590.647;-0.3113138;-0.4358669;0;
-10828.17;-6428.869;234.5164;-16269.85;5.605407;-4.296363;-12654.54;-4618.377;-0.116099;-0.3054943;0;
-12018.94;-7718.179;176.8565;-16878.5;6.336709;-4.492995;-13599.54;-5824.16;0.01395238;-0.24022;0;
-19364.62;-13692.48;79.79002;-24413.53;9.076033;-9.043198;-20879.06;-9798.947;0.0789057;-0.4348806;0;
2723.516;2272.136;-229.3067;939.3195;8.93319;-9.971872;2639.104;1056.588;0.07882641;-0.304509;0;
20511.68;15430.35;-251.8929;24590.03;10.93395;-9.559955;22013.42;12006.51;0.2086819;-0.1742683;0;
18820.1;14131.92;-15.49292;24041.43;12.73065;-10.82296;20443.01;11476.75;0.4033742;-0.1091259;0;
19645.01;15166.51;45.2109;24192.86;-0.677757;-4.314928;21073.94;12324.52;0.1430995;0.02091847;0;
22031.25;17078.4;53.80175;27196.86;-4.495469;-3.439814;23677.43;14140.19;0.01302108;0.02089745;0;
12683.3;9092.101;362.8267;15517.85;0.8003336;-1.292964;13435.49;6477.51;-0.05195934;0.2157785;0;
-8454.027;-5830.227;488.5394;-11252.85;-1.209227;1.186642;-9743.502;-4223.639;0.01306021;0.1505943;0;
-9961.317;-5880.23;246.4824;-15474.73;6.025657;-8.2589;-11855.61;-4326.029;-0.1818549;-0.3043284;0;
-11203.46;-7107.468;205.3491;-16115.37;8.832642;-9.389311;-12826.79;-5459.017;-0.2466395;-0.3040226;0;
-18674.88;-12980.32;131.461;-23664.87;3.063967;-9.982723;-20157.6;-9296.662;0.273347;0.08608693;0;
3087.425;2525.385;-173.5335;1465.46;4.467407;-11.58022;3107.333;1202.969;0.1431377;0.6057392;0;
20622.99;15498;-198.4559;24758.17;1.58253;-5.339295;22169.5;12080.4;-0.05190819;0.5401632;0;
18874.82;14213.09;26.31817;24078.79;-0.02665014;-3.324503;20479.46;11580.9;0.143046;0.2147837;0;
19811.14;15330.23;53.79352;24376.27;9.886363;-3.72306;21248.18;12476.26;-0.1819344;0.01966587;0;
22483.68;17558.07;54.20798;27642.98;11.68509;-1.977824;24124.11;14650.94;-0.246719;0.1495808;0;
13387.2;9603.481;373.5399;16387.03;8.659239;3.047761;14216.86;6956.731;0.143333;0.4092999;0;
-7421.082;-5211.086;524.1355;-10036.89;8.985331;6.05887;-8645.102;-3715.961;-0.1166804;0.2139866;0;
-8748.485;-5310.297;309.4665;-14300.75;4.823116;5.583901;-10722.88;-3719.536;-0.3114652;0.2137716;0;
-11068.51;-7511.743;242.2361;-15947.52;1.938858;6.717;-12719.74;-5707.422;0.2085865;0.3434914;0;
-19945.87;-14177.95;138.3416;-24917.29;4.6826;9.322524;-21454.04;-10217.17;-0.1814271;0.473081;0;
2117.386;1793.759;-181.3243;299.3494;3.204026;10.31784;2002.669;714.8744;-0.8309183;0.08280157;0;
20472.97;15366.62;-239.6908;24516.27;-2.760064;6.623533;21968.79;11945.06;-0.4402793;-0.5019877;0;
18752.88;14110;-10.1277;23974.85;-4.632325;4.205554;20373.79;11465.18;0.01493449;0.1481901;0;
19609.81;15125.08;49.10271;24148.36;-9.852583;10.0957;21036.74;12298.56;-0.4398519;0.5378453;0;
22240.03;17313.1;45.44581;27390.02;-12.18721;10.68834;23884.27;14388.84;-0.4394099;0.2774355;0;
12965.49;9347.712;364.5835;15895.71;-11.03589;-0.03941986;13773.15;6733.205;0.210705;0.2121894;0;
-8285.522;-5758.42;511.9085;-10988.4;-11.9628;-3.388405;-9518.782;-4188.309;-0.04937609;-0.1778279;0;
-9957.556;-5962.216;257.0376;-15515.42;-7.39643;-1.442556;-11886.58;-4276.257;-0.3741632;-0.2426166;0;
-12132.95;-8140.643;179.0216;-16987.58;-5.982479;-2.512834;-13737.86;-6160.105;0.2109188;0.1474313;0;
-20880.44;-14938.59;90.91712;-25903.3;-2.425518;-5.390453;-22369.05;-10757.34;0.2756743;0.08231579;0;
1410.491;1346.197;-223.6724;-568.3711;1.326987;-5.987883;1277.468;399.2923;0.01552789;-0.0477016;0;
20161.04;15122.79;-257.2432;24128.62;-3.630839;-4.642269;21657.52;11715.73;0.08047963;0.01731367;0;
18508.1;13830.83;-3.440253;23715.86;-1.751181;-4.503638;20122.25;11174.46;0.2103335;0.08226361;0;
19253.43;14795.85;55.90837;23795.68;-3.357012;-1.417959;20685.5;11990.99;0.08018742;0.1471483;0;
21880.12;16942.99;46.55999;27020.56;-4.559087;-1.08162;23524.89;14001.6;0.1450742;0.3419025;0;
12323.81;8865.424;355.2643;14978.78;7.769377;3.675133;12915.86;6322.365;0.7296344;0.4714936;0;
-10001.81;-7062.561;479.376;-12885.12;10.1061;5.74785;-11378.65;-5217.3;1.053738;0.2111505;0;
-12060.67;-7318.769;213.0279;-17519.58;10.16329;-0.8890521;-13868.3;-5407.771;0.4030058;-0.1788657;0;
-12939.26;-8425.105;157.4823;-17813.87;11.89439;-1.089108;-14484.87;-6379.862;0.1427315;-0.3086207;0;
-20599.31;-14762.33;85.51643;-25678.59;8.198743;-8.388969;-22079.99;-10643.98;0.07762077;-0.2433432;0;
1628.838;1413.744;-230.5513;-326.484;8.59167;-12.66739;1518.412;375.2317;-0.5071633;-0.1781314;0;
20014.66;14965.84;-267.8633;24003.49;1.885232;-4.884822;21509.82;11561.47;-0.5716211;-0.1129851;0;
18292.22;13633.54;-14.17462;23507.22;0.1420254;-5.683648;19910.6;10998.86;0.01365941;-0.1778389;0;
18947.59;14481.13;58.58431;23498.31;-2.269991;-5.075151;20383.03;11678.59;0.07861303;-0.04772551;0;
21410.82;16492.28;48.28059;26564.16;-6.554618;-3.66341;23057.35;13558.6;-0.116368;0.2121918;0;
11985.8;8533.933;348.8935;14607.62;10.93439;-9.956003;12541.22;6045.219;0.1436183;0.2769459;0;
-10607.86;-7662.521;473.199;-13477.53;14.94287;-9.812034;-12000.55;-5663.692;0.07850666;0.2117003;0;
-13327.83;-8157.163;202.5156;-18693.63;9.635592;-11.87858;-15084.7;-5953.93;0.1433951;0.5363243;0;
-14521.31;-9639.326;126.4908;-19312.23;14.51603;-13.07228;-16007.89;-7203.239;0.2082184;0.3408834;0;
-22151.02;-16251.95;30.14646;-27211.1;-1.77553;-3.614795;-23625.46;-11749.2;0.01310713;0.01570416;0;
684.0667;725.7421;-266.3286;-1352.648;-6.260748;-0.9319071;515.6996;-73.86296;0.207996;0.2755578;0;
19808.63;14854.33;-285.723;23742.49;11.36169;-0.7300219;21282.15;11467.02;0.01288496;-0.04955584;0;
18135.22;13432.55;-47.6179;23358.61;11.28292;1.347122;19766.06;10782.68;0.01287201;-0.3743427;0;
18634.09;14201.18;31.98371;23192.27;18.70633;2.216546;20072.74;11419.21;0.1427938;-0.3089993;0;
21245.06;16306.01;45.80398;26386.12;22.30485;2.884087;22891.11;13370.76;-0.2471538;-0.3736561;0;
11688.05;8389.819;359.3972;14239.84;10.62716;2.814206;12210.84;5911.21;-0.1169707;-0.04844397;0;
-11343.23;-8123.923;470.2458;-14237.33;10.08062;2.409542;-12743.61;-6127.649;0.01308147;0.08153939;0;
-13921.21;-8491.493;184.9165;-19258.28;3.640133;-0.4061013;-15657.41;-6320.564;-0.246801;0.01649012;0;
-15163.65;-10098.93;122.6993;-19911.31;1.225578;-1.946301;-16644.98;-7701.735;0.01331632;0.08144089;0;
-23230.12;-17254.18;25.89027;-28279.6;-2.124557;-3.551874;-24698.38;-12719.47;0.598009;0.08135906;0;
131.729;260.642;-284.4954;-2040.721;-6.476678;-4.151152;-48.13889;-480.5224;0.3375387;0.2761793;0;
19744.68;14821.58;-286.8957;23593.24;5.251477;-7.763937;21201.13;11436.47;-0.2475065;0.2759019;0;
17994.44;13272.63;-31.25136;23256.51;4.643963;-9.028811;19626.74;10623.15;0.01261159;0.08072257;0;
18793.99;14375;31.21741;23337.18;14.8207;-4.532005;20225.05;11596.03;0.402403;0.3405108;0;
21444.72;16512.7;32.45103;26598.72;21.50362;-3.991588;23090.89;13584.37;0.4019986;0.405136;0;
11898.35;8504.629;358.567;14548.54;-0.4883925;0.5001575;12459.17;6016.767;0.3366274;0.01492489;0;
-10730.31;-7693.529;485.8144;-13556.57;-0.8226944;2.375177;-12117.81;-5687.555;0.5311911;0.2098119;0;
-13481.17;-8208.005;201.469;-18758.27;-8.524051;2.506756;-15240.68;-5969.336;0.075886;0.1446338;0;
-14989.44;-10021.15;123.9148;-19637.64;-15.14692;3.910818;-16468.68;-7570.015;-0.05412493;-0.1803483;0;
-23046.63;-17084.54;48.10956;-27965.66;9.584394;0.02200048;-24507.91;-12442.39;0.2707662;0.1446697;0;
79.98783;230.286;-233.1256;-1942.286;12.12036;-0.6478509;-106.5729;-401.8591;-0.11931;0.0145896;0;
19747.57;14831.34;-261.1896;23664.87;14.6528;-4.130251;21204.59;11448.68;-0.1841574;-0.1153597;0;
18156.42;13445.92;-9.459803;23416.99;18.45647;-7.140272;19790.53;10797.31;0.01092965;0.1446255;0;
18738.33;14318.26;66.16795;23305.27;8.122796;-2.645302;20173.67;11550.99;-0.119016;0.2094476;0;
21437.87;16511.11;26.94926;26594.47;7.243979;-3.44644;23087.32;13586.19;0.530777;0.1442698;0;
12005.59;8638.595;328.0521;14651.95;-2.006701;-5.117489;12557.17;6154.287;0.6601784;-0.2456792;0;
-11107.74;-7967.68;460.4838;-13885.06;-6.358941;-5.045364;-12485.51;-5979.473;-0.1850604;-0.4403344;0;
-14021.85;-8531.745;167.793;-19301.7;-9.634106;-10.39881;-15750.96;-6338.906;-0.2498418;-0.439892;0;
-15203.71;-10116.51;99.70544;-19897.2;-14.31347;-11.52707;-16661.76;-7726.086;0.1402133;-0.5693846;0;
-23462.04;-17412.88;30.81171;-28433.41;-4.519828;-11.58247;-24920.09;-12754.71;0.01013769;-0.2439758;0;
-453.8168;-122.6573;-253.8106;-2616.755;-2.505554;-12.44161;-655.5156;-692.8915;-0.05483984;0.2110407;0;
19472.44;14577.92;-268.0795;23299.51;-7.92902;-8.410192;20924.33;11194.5;0.0101826;0.08089399;0;
17905.13;13191.68;-39.62794;23151.3;-8.657988;-7.530963;19538.89;10548.28;-0.1197623;0.01584536;0;
18492.99;14075.97;15.08751;23040.91;1.331047;-5.380003;19930.73;11313.32;0.2051947;0.01582944;0;
21161.03;16225.77;16.41543;26295.12;3.606885;-3.767068;22803.42;13295.39;0.07505387;-0.3090232;0;
11344.89;8178.367;330.7722;13875.26;-0.2815049;-3.763283;11860.81;5751.046;-0.1199236;-0.2437453;0;
-12337.44;-8901.879;433.6848;-15207.49;1.393717;-2.018006;-13718.62;-6795.382;0.2050336;-0.04859838;0;
-15609.4;-9609.949;140.0995;-20897.77;-11.40106;-6.905611;-17325.98;-7137.253;0.269795;-0.04854955;0;
-17085.13;-11608.25;68.94754;-21794.38;-15.40907;-8.23827;-18527.96;-8838.317;0.3994586;0.1464013;0;
-25475.79;-19328.37;-45.87656;-30578.42;-11.37412;-2.402599;-26944.37;-14284.99;0.1391878;-0.1136152;0;
-1669.354;-1028.266;-353.91;-4128.239;-14.91266;-1.529467;-1961.324;-1304.858;-0.2507561;-0.2434357;0;
19212.42;14453.39;-346.9327;22885.49;-4.247758;-2.532614;20615.75;11101.45;-0.05560211;0.536417;0;
17701.98;12920.27;-82.99784;22977.33;-1.697895;-1.927283;19347.65;10247.28;0.2692905;0.6658127;0;
18099.14;13719.65;11.42876;22634.85;-8.930834;-2.461149;19533.78;10973.45;0.1390852;0.08043757;0;
20926.38;15967.71;33.49992;26048.72;-7.31427;-2.860574;22567.1;13041.11;-0.1209239;-0.24448;0;
11084.9;8045.093;348.9171;13661.23;-15.34487;1.094172;11619.02;5594.085;0.07409961;-0.3092017;0;
-13080.44;-9504.236;442.7223;-15882.03;-17.8077;2.700662;-14422.27;-7385.545;0.1389925;-0.1789563;0;
-16072.43;-10171.08;151.4549;-21330.05;-8.277986;-3.866256;-17775.66;-7635.198;-0.05604919;-0.1138091;0;
-16795.81;-11389.24;95.15903;-21481.8;-6.394634;-5.402918;-18243.48;-8661.585;0.07394181;-0.2436294;0;
-25377.8;-19236.4;-15.75589;-30393.94;-7.861101;-1.378635;-26838.76;-14160.96;0.2038022;-0.4382867;0;
-1859.674;-1252.894;-320.6805;-4205.006;-6.982546;-1.779148;-2154.542;-1422.217;-0.05627195;-0.2429443;0;
19083.51;14335.33;-312.7215;22819.65;-1.148381;-0.4377013;20485.84;10972.36;0.07371928;-0.1127655;0;
17664.9;12882.55;-56.9888;22942.67;1.129948;0.6344044;19314.64;10210.41;0.2035799;-0.1776195;0;
18264.84;13874.42;20.82625;22808.67;1.732026;-4.791728;19698.74;11143.65;-0.3813308;-0.04750634;0;
20976.44;16035.52;21.47686;26119.71;4.342254;-5.791597;22621.36;13102.77;-0.5108823;-0.307328;0;
11358.02;8149.786;337.7026;13925.66;-3.700062;-3.642385;11883.7;5710.941;0.07433715;-0.3070192;0;
-12291.04;-8904.943;454.6012;-15081.57;-5.839797;-3.973639;-13651.41;-6823.781;0.2041971;-0.1118087;0;
-15774.25;-9813.285;156.0286;-20966.17;-1.077531;-2.027203;-17475.8;-7300.072;0.07405727;-0.1116963;0;
-16913.62;-11453.38;71.22689;-21544.41;-3.3546;-0.9534387;-18359.94;-8683.601;0.009015517;0.1482853;0;
-25177.6;-19033.74;-35.65036;-30153.16;4.553;-2.292139;-26637.59;-14053.27;-0.05596088;0.278071;0;
-1654.378;-1014.178;-322.9545;-3979.046;6.759228;-1.620007;-1929.823;-1336.608;-0.1858393;0.01792221;0;
19221.09;14464.06;-310.7141;22938.72;-5.639772;-1.41743;20630.43;11107.18;-0.1206853;-0.1769978;0;
17780.69;12993.82;-54.71791;23066.71;-7.308068;-1.750921;19429.36;10334.52;0.2692401;-0.3067546;0;
18187.89;13808.6;30.99714;22734.23;-11.58763;2.336736;19621.82;11058.58;0.2689695;-0.4363811;0;
21066.35;16117.85;42.66324;26204.55;-15.5281;3.138123;22709.44;13212.17;0.07379723;-0.3709753;0;
11558.95;8355.615;358.2117;14222.28;-9.35056;1.125543;12116.43;5859.085;-0.0562116;-0.04576583;0;
-12474.25;-9129.059;455.0061;-15206.98;-10.21182;0.789497;-13797.9;-7111.519;0.00881222;0.1491822;0;
-15612.1;-9851.674;145.6573;-20906.62;-7.053728;-0.08201344;-17320.85;-7407.799;0.1387381;0.3439343;0;
-16181.3;-10906.68;82.48012;-20907.35;-4.031554;-0.148914;-17643.51;-8315.911;-0.1862381;0.4735234;0;
-25028.21;-18897.85;-20.37922;-30057.03;-13.33825;-5.641243;-26510.44;-13873.45;-0.3159856;0.4080803;0;
-1963.895;-1287.425;-332.6549;-4355.906;-13.2575;-8.046899;-2281.309;-1425.161;-0.1857334;0.01786617;0;
19077.38;14325.52;-336.6154;22774.55;-10.76593;-3.015215;20471.13;10956.91;-0.2505141;-0.2420211;0;
17637.08;12868.95;-83.93521;22913.67;-11.15726;-2.811237;19287.56;10203.47;0.009606941;-0.04687594;0;
18041.19;13645.96;12.78805;22580.42;0.03973645;-4.014105;19474.61;10915.22;0.009597288;0.01813851;0;
20750.15;15805.97;23.00443;25877.05;4.058185;-3.809123;22389.57;12869.54;-0.120347;-0.04684706;0;
10945.61;7909.284;327.5157;13501.45;-2.509977;-3.202449;11471.34;5501.059;0.07467591;-0.1767347;0;
-13122.35;-9556.014;448.5788;-15933.18;-4.248767;-2.797334;-14467.04;-7402.267;-0.05533381;-0.3064918;0;
-16570.22;-10500.9;145.1241;-21861.47;7.075008;-3.129437;-18266.03;-7844.071;-0.3801149;-0.3061838;0;
-17571.28;-12066.43;49.69803;-22308.13;9.34605;-2.657413;-19006.29;-9153.699;0.07503842;-0.2409088;0;
-26240.16;-19993.13;-58.36012;-31295.21;-3.792483;-4.262333;-27699.33;-14825.4;0.3997997;0.01920262;0;
-2670.801;-1731.038;-354.0747;-5153.055;-5.462636;-4.927818;-2998.055;-1846.859;-0.05537339;-0.1107514;0;
18769.12;14106.05;-334.7128;22394.42;-14.63417;-2.310593;20150.7;10769.31;-0.2502198;-0.1106401;0;
17416;12604.19;-63.49704;22703.77;-19.91076;-2.174367;19070.4;9925.175;-0.379903;0.5391445;0;
17782.98;13406.83;24.83489;22320.74;-12.92452;-1.43537;19216.41;10675.04;-0.509456;-0.04610329;0;
20665.67;15713.49;38.45932;25780.56;-14.85392;-0.5631493;22304.04;12787.03;-0.2490747;-0.3708937;0;
10889.33;7914.399;353.7309;13452.03;-8.274912;-1.969225;11414.37;5488.81;-0.1188898;0.1492177;0;
-13718.02;-10042.33;432.6638;-16485.62;-6.391563;-0.8285365;-15059.28;-7854.564;-0.1837376;-0.1757689;0;
-17356.2;-11031.38;94.71119;-22583.87;-7.791661;-3.439977;-19048.23;-8347.279;-0.05361834;0.01930973;0;
-17769.45;-12027.79;22.87084;-22471.24;-4.969816;-3.369538;-19209.13;-9194.181;-0.1185318;0.149225;0;
-26381.53;-20156.81;-67.21625;-31424.96;-17.15596;2.461241;-27845.69;-14913.19;0.206424;0.08410773;0;
-2935.335;-2032.86;-361.7819;-5427.621;-20.62135;4.535178;-3262.086;-1985.132;0.3361513;0.2789252;0;
18853.35;14204.02;-356.5302;22454.91;-11.96044;8.750423;20233.41;10866.36;-0.5087619;-0.1111591;0;
17555.61;12724.96;-100.4255;22839.94;-12.35056;12.02373;19208.9;10036.38;-0.2483814;0.4086914;0;
17868.24;13503.93;0.8589409;22394.96;-10.26107;10.87294;19299.19;10778.43;0.2066396;0.2133787;0;
20763.92;15804.85;20.33266;25885.3;-7.706141;10.79503;22403.07;12883.07;-0.1184047;-0.4365091;0;
11147.04;8065.681;333.4829;13777.59;-15.73537;17.28141;11704.74;5598.907;-0.05331842;-0.0462665;0;
-13090.24;-9536.471;426.0855;-15862.19;-16.79129;17.93387;-14401.67;-7453.348;-0.1831995;-0.04622;0;
-16870.04;-10650.28;104.3345;-22174.94;-10.54513;13.897;-18560.89;-7959.195;0.01188657;0.2786632;0;
-17548.41;-11880.87;34.90516;-22303.68;-10.66923;13.41416;-18976.27;-9021.972;0.2067766;0.4732852;0;
-25945.52;-19755.97;-67.04743;-31085.26;-5.098803;4.425148;-27415.95;-14626.8;-0.3781372;-0.1118965;0;
-2594.529;-1741.228;-373.8571;-5172.116;-3.083948;1.741445;-2952.262;-1809.963;-0.4427246;-0.04681669;0;
18804.53;14133.28;-356.0214;22395.52;-10.1808;-2.948988;20177.55;10785.07;-0.312345;0.1481324;0;
17455.85;12646.64;-72.66533;22720.46;-11.77816;-7.165888;19107.07;9972.748;-0.1820965;0.08301619;0;
17774.01;13391.9;10.85012;22284.69;-10.15873;5.299832;19204.95;10662.67;-0.05197886;-0.04700191;0;
20704.55;15747.35;-15.86611;25803.3;-9.88108;7.90678;22342.02;12825.1;-0.1818613;-0.2418567;0;
10885.37;7981.482;311.9694;13433.45;-18.77976;7.028119;11405.76;5539.994;0.2081255;-0.4365157;0;
-13919.57;-10162.75;445.2294;-16754.64;-21.23914;10.705;-15248.92;-8019.509;0.01301432;-0.1112404;0;
-17463.97;-11148.58;115.0103;-22813.67;-15.52437;7.0103;-19142.97;-8450.527;-0.8965415;0.4086101;0;
-17804.04;-12098.04;36.80902;-22605.39;-15.24035;7.070239;-19242.43;-9262.015;-0.3109346;0.08336283;0;
-26782;-20535.89;-68.15959;-31930.7;-10.87175;14.76593;-28238.17;-15261;0.4689859;-0.2415576;0;
-3324.025;-2346.51;-382.5268;-5954.998;-8.583655;16.09075;-3645.538;-2229.459;-0.05122406;0.1484891;0;
18746.32;14104.96;-355.6401;22279.98;-6.230505;15.47174;20122.7;10770.92;-0.2460746;0.4731767;0;
17417.79;12588.51;-88.88544;22693.29;-3.745999;15.7911;19068.23;9901.731;0.1439767;0.2128318;0;
17672.97;13297.68;-10.38242;22181.59;-6.487925;12.56018;19104.65;10571.5;0.07886469;-0.3071208;0;
20577.21;15613.27;-0.3926305;25681.65;-6.749825;11.67678;22214.16;12692.82;-0.05114924;-0.2418448;0;
10787.65;7850.355;317.2606;13370.87;-6.073458;5.167824;11335.1;5395.717;0.2737389;0.08323488;0;
-14041.45;-10297.7;419.3279;-16821.98;-7.272804;1.277744;-15358.24;-8168.733;0.5983005;0.01818391;0;
-18312.28;-11689.5;93.41386;-23518.46;-6.260142;6.032126;-19999.14;-8811.104;0.2728626;-0.0468017;0;
-19034.21;-12990.07;0.3823403;-23657.3;-5.450545;4.820433;-20442.62;-9976.974;-0.2471503;-0.1766894;0;
-27329.16;-21060.37;-96.44437;-32384.64;-15.62647;3.743862;-28776.6;-15824.33;-0.3768366;-0.2414792;0;
-3455.403;-2431.97;-364.0879;-6063.615;-18.69126;4.342947;-3823.59;-2354.897;0.01334608;-0.3711712;0;
18551.98;13973.54;-340.6399;22096.2;-11.10401;-1.890707;19907.37;10645.12;0.1432673;-0.4357656;0;
17386.74;12532.23;-73.83781;22689.22;-10.55699;-3.429354;19044.68;9839.967;-0.05177863;-0.110491;0;
17711.29;13345.52;36.05618;22249.95;-9.542006;1.59769;19140.15;10624.62;0.07820808;-0.2403147;0;
20596.8;15636.11;35.48897;25721.08;-8.393342;2.935682;22232.74;12710.86;0.4679335;-0.3050406;0;
10989.67;8005.665;338.3792;13653.45;-6.442526;0.9233051;11547.63;5561.75;0.402496;0.08507;0;
-13933.74;-10267.81;442.5648;-16591.28;-5.029533;1.190309;-15237.07;-8087.59;0.07725488;-0.1099175;0;
-18088.13;-11628.15;103.4465;-23263.51;-6.83314;7.82024;-19774.82;-8779.283;-0.1826921;-0.2397417;0;
-18425.96;-12544.12;15.68353;-23057.45;-6.691576;10.82655;-19852.4;-9600.232;0.01239349;-0.04459883;0;
-27316.77;-21017.78;-83.50113;-32309.35;-7.95765;5.926043;-28762.87;-15677.25;0.3372177;-0.04455401;0;
-3838.014;-2729.829;-392.7617;-6392.633;-8.61924;5.317242;-4176.483;-2510.385;0.2069442;-0.1094766;0;
18695.96;14126.74;-370.425;22235.19;-10.55394;12.01007;20062.44;10807.83;0.0768016;-0.3042686;0;
17587.84;12715.93;-78.69923;22880.46;-12.28465;13.00275;19240.71;10012.82;-0.1181776;-0.4338976;0;
17843.39;13486.61;5.087769;22377.48;-8.453909;8.970766;19273.23;10778.08;-0.4428956;-0.2385596;0;
20819.13;15854.41;-11.84633;25934.15;-7.642107;7.890026;22456.64;12924.38;-0.1176138;-0.1083852;0;
11219.01;8152.323;315.2512;13861.35;-12.25613;7.480261;11774.59;5697.566;0.01243903;0.2165605;0;
-13213.99;-9664.183;449.3044;-15938.94;-13.04712;6.66895;-14523.38;-7575.49;-0.2474428;0.4762122;0;
-17089.85;-10924.21;144.99;-22386.24;-9.685108;1.705634;-18776.79;-8194.156;-0.1822269;0.08592966;0;
-17653.21;-12033.61;61.79231;-22427.57;-8.536301;-0.1045582;-19081.57;-9104.695;0.5975643;-0.174026;0;
-26307.01;-20087.88;-53.29009;-31420.28;-10.33638;1.168162;-27755.23;-14955.01;0.7918659;-0.3037859;0;
-2941.602;-2016.006;-359.3795;-5538.253;-9.388969;0.7650902;-3270.978;-2134.824;0.01146216;-0.56335;0;
18849.98;14203.67;-336.4048;22395.73;-9.043767;4.582287;20222.13;10854.12;-0.1834514;-0.2379472;0;
17614.38;12781.01;-54.81752;22890.56;-8.968307;7.591793;19268.68;10117.21;0.07660232;0.1520959;0;
17932.88;13563.2;26.74347;22444.97;-2.194141;5.17284;19361.11;10819.65;0.1414927;0.2818778;0;
20771.94;15809.27;6.976519;25881.87;0.3536588;6.909199;22411.96;12919.23;0.3362525;0.1516599;0;
11354.4;8263.682;315.049;13975.93;-2.594434;12.72965;11923.81;5731.483;0.400882;0.02157279;0;
-13033.6;-9504.491;422.0691;-15813.09;-2.524478;14.86019;-14350.16;-7511.997;0.0756425;0.3463878;0;
-16754.58;-10680.97;98.90102;-22107.48;1.563896;22.81611;-18466.68;-8061.076;-0.2492702;0.1511378;0;
-16839.29;-11320.25;24.40154;-21634.51;3.370986;26.87902;-18282.88;-8670.399;-0.05411772;-0.04391615;0;
-25952.65;-19728.77;-60.93947;-31060.83;-5.80943;23.10109;-27430.76;-14538.44;0.400708;0.4108994;0;
-3200.547;-2296.436;-341.862;-5815.063;-8.884075;24.41741;-3575.802;-2120.423;0.4652728;0.2805518;0;
18814.07;14144.95;-327.3381;22332.99;0.6356962;21.71368;20167.19;10805.7;0.5297726;-0.1095341;0;
17567.25;12751.92;-66.23404;22850.63;2.309997;20.01729;19222.78;10066;0.4642729;-0.2393588;0;
17744.52;13355.4;33.8135;22260.69;-5.127064;24.01603;19169.29;10637.89;0.1389697;-0.1741509;0;
20694.57;15746.29;27.87625;25803.29;-5.992568;24.05888;22331.65;12831.03;-0.05607194;-0.1090086;0;
11257.61;8174.75;331.1177;13927.48;-3.910442;19.47999;11830.18;5696.954;0.008951739;-0.1738664;0;
-13379.12;-9859.138;449.569;-16080.71;-5.246659;17.652;-14681.53;-7778.797;0.07391009;-0.043757;0;
-17584.17;-11305.73;125.2332;-22866.87;-1.020853;20.98329;-19278.18;-8508.032;0.008868479;-0.1086804;0;
-17822.64;-12141.4;43.33597;-22565.57;-1.555691;20.9622;-19263.55;-9247.935;0.07382691;-0.04360383;0;
-26423.74;-20155.21;-43.42961;-31501.46;-2.492132;18.79769;-27896.52;-15037.62;-0.1861166;0.08637466;0;
-3346.37;-2237.707;-337.5506;-5928.114;-2.355906;18.57797;-3697.466;-2298.061;-0.5107663;0.2811899;0;
18593.31;14013.78;-318.4709;22137.22;-11.39587;18.42534;19957.49;10661.17;-0.3803184;0.7356788;0;
17525.09;12665.71;-47.80237;22811.3;-12.18773;18.94257;19176.92;10005.77;-0.1850343;0.3451355;0;
17804.94;13436.78;28.58229;22319.71;-21.15144;15.70847;19227.93;10690.71;-0.05491365;0.214854;0;
20703.09;15744.74;4.143966;25819.28;-24.74751;14.62096;22343.93;12861.01;-0.05485848;0.7343768;0;
11506.12;8370.256;312.4223;14222.9;-13.13471;22.04126;12096.99;5827.306;0.1400987;0.1489329;0;
-13311.59;-9824.076;436.1711;-15939.69;-12.25086;24.49735;-14605.83;-7847.085;0.2698926;-0.3709555;0;
-17682.66;-11342.03;120.3444;-22921.25;-2.99515;20.72182;-19391.16;-8592.338;-0.3150847;-0.1107134;0;
-17770.47;-12014.4;42.54382;-22465.4;0.6925313;21.30384;-19213.21;-9240.655;-0.3147681;-0.04563481;0;
-27072.79;-20812.52;-55.7308;-32134.79;1.294072;23.55986;-28550.65;-15476.31;0.0103849;0.01937838;0;
-4144.673;-3050.154;-368.174;-6834.888;3.570923;23.33523;-4540.301;-2686.883;-0.05459287;0.08432625;0;
18552.49;13956.97;-359.6519;22016.08;-3.801031;28.33538;19887.13;10639.28;0.140364;0.08424152;0;
17416.47;12572.56;-73.41856;22714.17;-5.137359;30.18231;19074.28;9872.966;0.07525562;-0.1107452;0;
17591.14;13211.29;32.05535;22105.23;-17.7245;22.31523;19015.13;10498.76;0.07518001;0.01930081;0;
20587.89;15624.95;31.27352;25695.43;-25.14143;20.68521;22223.32;12720.04;0.3349738;0.4090855;0;
11008.57;8077.799;329.9669;13655.12;-15.47062;19.19081;11583.78;5568.581;0.07476789;0.2787398;0;
-14014.65;-10311.3;403.7075;-16733.74;-15.92457;15.62155;-15321.6;-8246.823;-0.445046;-0.1113444;0;
-18517.19;-11990.91;65.90897;-23743.96;-22.87382;22.23704;-20213.52;-9088.859;-0.1197621;-0.04626518;0;
-18637.17;-12708.72;-1.201678;-23301.59;-22.2486;22.54961;-20060.86;-9809.032;0.205195;0.083716;0;
-27352.68;-21030.12;-84.31494;-32383.09;-25.5078;13.88628;-28807.89;-15784.35;-0.1198479;0.01866454;0;
-4147.784;-2909.647;-360.2633;-6745.013;-27.22348;12.06391;-4510.811;-2708.809;0.01020718;-0.1112889;0;
18403.32;13900.06;-333.6646;21910.54;-11.52334;7.965887;19754.03;10562.38;0.3350336;-0.3710465;0;
17405.69;12509.35;-70.75813;22691.79;-8.095508;4.474831;19062.36;9824.09;0.2047623;-0.1757716;0;
17563.55;13205.69;17.78412;22083.13;-6.881925;9.025113;18988.4;10488.38;-0.0553128;-0.04566029;0;
20460.94;15492.67;18.70328;25575.45;-2.520753;8.815096;22099.17;12588.09;0.07467746;-0.2405164;0;
11185.16;8133.499;327.295;13901.76;-14.50829;7.198648;11772.23;5630.341;0.3994391;-0.04537274;0;
-13471.79;-9908.094;428.8212;-16118.11;-16.03395;8.598056;-14769.91;-7842.719;0.3340704;-0.1102945;0;
-17704.4;-11471.41;104.6468;-22986.4;-14.94611;3.297887;-19410.01;-8642.822;0.07386538;-0.370053;0;
-17451.98;-11792.33;26.17476;-22198.85;-16.40496;2.892676;-18897.85;-8952.041;0.3986279;-0.2397465;0;
-26236.66;-19992.85;-58.02798;-31304.61;-14.37875;7.310521;-27722.68;-14784.02;0.528162;0.2152658;0;
-3651.119;-2580.533;-346.2466;-6295.554;-15.43603;6.96826;-4035.074;-2441.982;-0.05707476;0.2800168;0;
18582.58;13997.12;-339.1365;22064.3;-7.316192;17.20947;19931.83;10659.67;-0.05701741;0.01986608;0;
17586.18;12722.48;-69.18126;22877.93;-4.629523;20.80913;19243.99;10048.13;0.2678766;-0.3049906;0;
17707.77;13336.64;24.29443;22223.98;-8.442288;14.82686;19132.28;10613.28;0.2676074;-0.3696515;0;
20626.17;15659.95;7.872008;25738.65;-7.563149;15.95067;22264.54;12770.4;0.3972732;0.020524;0;
11487.4;8365.531;304.6368;14194.67;-9.832726;10.37518;12077.88;5819.166;0.4618414;-0.04446396;0;
-13011.5;-9487.733;422.9742;-15670.37;-10.76085;8.422315;-14298.64;-7546.637;0.1365406;-0.1093866;0;
-17253.15;-11037.88;115.4067;-22531.76;-9.477241;10.82518;-18952.01;-8353.552;0.006468726;0.08562531;0;
-17049.53;-11436.59;43.62363;-21789.29;-9.333996;10.0105;-18485.33;-8715.487;-0.05850511;0.08553927;0;
-25841.13;-19613.06;-28.02484;-30942.97;-15.55391;12.67976;-27324.1;-14512.75;-0.05844633;0.2803554;0;
-3435.756;-2431.181;-329.6575;-6169.165;-19.08825;13.80561;-3845.931;-2376.416;-0.1883223;0.345041;0;
18583.99;13968.32;-352.7989;22012.9;-6.40942;14.39458;19914.99;10626.38;-0.05819837;-0.1100771;0;
17528.71;12678.66;-88.53017;22819.95;-3.255148;15.98771;19189.07;10016.16;0.07179479;-0.2399012;0;
17725.71;13345.45;21.15994;22222.54;-13.9018;14.9669;19147.75;10619.7;-0.1881467;-0.1746928;0;
20630.02;15669.43;27.76035;25734.14;-14.02155;14.68393;22269.14;12787.06;-0.1229903;-0.1095499;0;
11459.99;8337.658;341.3092;14173.64;-15.81612;20.09467;12058.1;5792.881;0.2669373;0.2153969;0;
-12702.45;-9236.796;463.6858;-15403.04;-18.14476;21.01224;-13991.68;-7275.437;0.2017017;0.4750498;0;
-16720.22;-10702.15;146.4417;-22066.56;-10.22229;17.91004;-18426.52;-8007.864;-0.1233376;0.3446378;0;
-16693.85;-11262.53;62.38356;-21519.23;-10.41309;17.22221;-18141.02;-8540.218;0.2665904;0.1493895;0;
-25640.59;-19446.86;-5.941691;-30777.49;-8.058105;12.38226;-27128.82;-14313.4;0.5911592;0.08427203;0;
-3296.572;-2317.419;-299.8192;-5936.336;-6.442418;8.752798;-3689.254;-2255.839;0.2657285;-0.175682;0;
18717.01;14100.24;-324.5523;22207.56;-16.08149;11.22231;20059.35;10752.39;0.2654615;-0.04557081;0;
17671.98;12824.97;-69.13564;22958.2;-17.47185;10.13931;19331.53;10167.08;-0.254544;0.3442791;0;
17815.44;13431.25;16.51581;22324.85;-21.47376;2.158334;19235.35;10701.15;-0.774027;0.01909639;0;
20751.15;15800.92;8.128421;25868;-23.72935;-0.2551597;22389.52;12931.13;-0.3184778;-0.2407922;0;
11884.54;8646.928;336.2834;14677.28;-20.89247;0.5488918;12499.07;6068.097;-0.1882231;-0.2405502;0;
-12152.65;-8800.026;459.2117;-14743.6;-21.13892;0.4813574;-13430.32;-6920.193;-0.4479034;0.01956086;0;
-16329.2;-10335.94;133.9292;-21622.1;-16.02747;-1.1937;-18045.43;-7750.101;-0.2525513;0.08450855;0;
-16286.4;-10868.51;65.81314;-21047.51;-14.06898;-1.929251;-17754.08;-8311.934;0.1375065;-0.04551105;0;
-25309.43;-19155.77;-6.3886;-30390.05;-11.77669;7.38307;-26815.83;-14116.21;0.07240101;0.01950202;0;
-3164.348;-2343.85;-312.5252;-5834.588;-10.35834;9.719994;-3564.639;-2287.055;-0.3824431;0.01948242;0;
18755.11;14059.17;-314.2258;22209.09;-7.803312;11.3848;20093.8;10707.74;-0.4470262;0.1493976;0;
17715.4;12900.04;-43.42099;23010.37;-6.187881;14.58842;19375.79;10248.62;-0.1217403;0.01931273;0;
17940.62;13545.46;41.93914;22453.19;-13.68375;9.014299;19360.82;10813.95;-0.1865853;-0.3055434;0;
20808.35;15869.91;35.54081;25935.12;-15.41131;10.27792;22450.1;13002.82;-0.3812999;0.149535;0;
12038.34;8674.372;355.0945;14837.2;-19.41432;5.779856;12657.17;6101.595;-0.05608003;0.2793195;0;
-11882.94;-8699.068;476.4577;-14470.46;-23.0785;4.635339;-13175.04;-6785.515;0.3337804;-0.3706346;0;
-16420.58;-10351.67;153.11;-21676.87;-18.56831;13.07029;-18142.79;-7664.798;0.2684776;-0.1753602;0;
-16522.09;-11034.65;63.01701;-21268.85;-19.21924;14.39681;-17966.36;-8383.638;0.07330585;0.2795874;0;
-25508.92;-19311.43;-23.03434;-30589.55;-21.74552;21.34845;-26996.34;-14157.92;-0.05670249;0.1493718;0;
-3486.627;-2483.425;-317.4413;-6116.8;-22.72805;24.60904;-3889.127;-2315.464;0.3331585;0.2141891;0;
18684.14;14062.13;-326.4302;22161.45;-21.43242;28.33523;20017.06;10721.03;0.7875952;0.5388106;0;
17792.27;12949.43;-68.20056;23085.77;-21.74567;33.46433;19454.41;10289.28;0.267065;0.2783998;0;
17867.77;13484.41;25.94567;22374.54;-20.92052;21.37414;19286.7;10760.87;-0.252942;-0.2416187;0;
20857.01;15911.69;12.41077;25968.62;-19.09084;19.74507;22495.81;13045.72;-0.05778585;0.2783628;0;
12042.74;8756.465;322.9609;14855.63;-28.04663;26.55737;12673.85;6164.141;0.007239559;0.4080178;0;
-12003.06;-8730.282;473.8573;-14613.01;-29.42595;25.72689;-13280.89;-6883.389;-0.1227024;-0.1770983;0;
-16226.37;-10277.92;166.5042;-21570.14;-25.64534;31.32748;-17954.44;-7674.087;-0.1225791;-0.04698562;0;
-16204.1;-10842.61;57.39162;-21023.57;-26.89139;32.76963;-17673.83;-8268.339;0.007478744;-0.1119058;0;
-25246.24;-19099.5;-23.21931;-30374.63;-14.94263;29.72247;-26745.36;-14052.63;0.4622426;-0.1767607;0;
-3147.044;-2266.29;-303.9767;-5774.751;-10.8408;29.42467;-3529.69;-2201.714;0.2019088;0.01831898;0;
18779.44;14127.81;-317.3363;22279.98;-16.52333;27.78752;20121.75;10775.73;0.07177123;0.08326792;0;
17836.69;12996.91;-65.9405;23121.76;-14.69905;26.68799;19493.81;10348.81;0.3315685;0.2131189;0;
18152.42;13768.64;26.00145;22656.46;-18.97118;21.83853;19568.53;11044.46;0.00639861;0.08297011;0;
21007.14;16071.8;34.67408;26133.49;-20.55971;18.6014;22647.48;13212.54;-0.1235425;-0.04704795;0;
12390.71;8908.369;350.4805;15242.56;-17.25652;20.86013;13029.33;6299.713;0.2663857;-0.04700067;0;
-11061.11;-8043.8;474.394;-13626.83;-18.51198;19.70046;-12359.91;-6269.365;0.3960527;0.1479486;0;
-15184.69;-9583.361;175.333;-20499.1;-14.40754;15.19293;-16937.73;-7128.193;-0.2540187;0.1477999;0;
-14989.86;-9904.159;101.6938;-19754.86;-12.31599;13.43611;-16469.25;-7486.16;-0.3836981;-0.2421526;0;
-23760.2;-17690.77;35.4061;-28794.75;-19.87305;14.09244;-25261.88;-12908;-0.05847587;-0.1119746;0;
-2212.55;-1607.042;-251.4384;-4763.449;-19.45094;13.40845;-2559.979;-1820.615;-0.3832538;-0.1768295;0;
19075.27;14280.04;-282.2327;22587.23;-19.43139;13.46196;20440.85;10916.78;0.006935328;-0.6314232;0;
17995.06;13215.11;-46.66112;23296.08;-19.2108;13.71636;19649.82;10601.39;0.3967324;-0.11105;0;
18158.15;13750.28;44.32443;22680.86;-14.16863;11.02339;19576.88;11002.2;0.1364644;0.2788657;0;
20995.25;16081.14;25.94536;26130.96;-14.48919;9.940582;22639.29;13253.17;0.006392601;0.1486508;0;
12734.46;9193.951;312.0411;15684.69;-2.217116;13.07867;13423.49;6536.764;0.006386178;0.2784361;0;
-10403.98;-7550.063;466.2437;-12897.87;0.5317779;12.99855;-11653.95;-5829.732;0.006379761;0.2781563;0;
-14449.85;-9081.359;180.9183;-19791.42;-3.219801;13.11945;-16211.89;-6673.463;0.0713407;-0.2418619;0;
-14173.84;-9299.744;92.60897;-18961.71;-1.810046;13.84308;-15661.76;-7052.173;0.2012037;-0.3065862;0;
-23214.12;-17161.51;28.26697;-28280.29;-17.81678;8.604624;-24735.33;-12439.97;0.1360342;0.08352586;0;
-2173.531;-1537.56;-276.2959;-4747.106;-22.62165;7.591295;-2566.656;-1691.163;-0.3188739;0.08344194;0;
19036.35;14253.38;-303.4576;22550.37;-27.08592;7.248753;20382.26;10886.15;-0.3835208;-0.1115439;0;
18033.06;13260.53;-56.35484;23320;-33.4227;5.566957;19693.31;10649.02;0.006668578;0.2783722;0;
18227.48;13811.84;6.857545;22724.51;-23.00664;11.32177;19640.57;11072.14;0.07162922;0.4080272;0;
21048.77;16148.13;-3.378578;26173.35;-22.44765;12.51597;22689.98;13316.49;0.1365246;0.08278047;0;
12803.78;9193.422;306.0474;15763.97;-22.69352;8.75247;13508.09;6546.901;0.3962568;0.1476647;0;
-10246.04;-7471.225;457.9759;-12752.13;-19.32084;8.341778;-11493.4;-5765.96;0.3958586;-0.1123531;0;
-14415.11;-9020.607;192.8519;-19808.77;-24.52634;9.472105;-16194.53;-6648.595;0.2655262;0.08266181;0;
-14386.43;-9505.373;117.0398;-19244.17;-24.23425;9.529571;-15894.65;-7272.754;0.3302267;0.3424481;0;
-23593.7;-17512.28;38.63346;-28747.23;-17.64484;7.443585;-25118.29;-12798.37;0.3948622;-0.2426021;0;
-2440.72;-1745.175;-265.4713;-5113.727;-17.09125;7.30214;-2819.822;-1917.253;0.004661428;-0.1124236;0;
18931.44;14146.53;-296.2514;22395.51;-10.44362;3.878735;20280.92;10778.37;-0.0603106;-0.04734329;0;
17897.79;13123.23;-47.35995;23184.69;-7.419013;1.932393;19549.8;10517.7;-0.1252173;-0.3721324;0;
18077.8;13670.4;38.87869;22575.08;-13.77457;8.159681;19489.51;10924.03;-0.1900589;0.2129476;0;
20974.06;16074.89;29.06329;26093.74;-12.01942;9.290192;22615.7;13252.56;0.4598055;0.08279891;0;
12819.04;9197.933;330.4919;15745.01;-20.91595;7.606345;13495.18;6540.85;0.5892782;-0.437023;0;
-10494.76;-7726.9;463.7958;-13009.59;-23.43955;8.871317;-11770.96;-6008.636;0.1339147;-0.3066492;0;
-14777.05;-9344.866;163.949;-20133.55;-13.23557;5.848232;-16550.24;-6910.471;-0.06112189;-0.3063411;0;
-14358.1;-9450.777;84.62094;-19175.15;-12.55171;5.172587;-15858.23;-7202.33;0.06887421;-0.435968;0;
-23612.96;-17548.86;24.2381;-28669.04;-5.171706;9.923056;-25148.08;-12714.43;0.1337723;-0.2406279;0;
-2636.995;-1951.561;-276.104;-5212.681;-2.1524;10.51593;-3041.211;-1943.638;0.003703248;0.2793527;0;
18935.05;14163.58;-327.0821;22424.32;-1.680746;9.500621;20270.41;10812.83;0.2635689;0.279072;0;
17965.16;13192.11;-87.46748;23270.84;0.1959765;8.888228;19622.15;10571.34;0.4582061;-0.2409472;0;
18151.86;13748.79;13.94448;22669.29;-4.091128;11.35767;19564.8;11019.55;-0.06199306;-0.2407051;0;
20990.92;16096.05;0.4060148;26126.56;-4.756603;12.21691;22632.98;13271.9;-0.06193076;0.08437348;0;
12885.31;9250.329;290.3536;15877.64;-12.25391;5.104688;13572.38;6588.64;0.7177395;0.3441581;0;
-9998.075;-7267.496;450.0596;-12418.24;-16.52851;3.692917;-11260.32;-5564.375;0.5870837;0.2788449;0;
-14195.6;-8905.476;195.2664;-19483.44;-15.2391;3.890155;-15961.21;-6500.139;0.06675505;0.3435321;0;
-13805.23;-9033.24;138.8485;-18577.42;-18.90748;3.216417;-15299.53;-6858.049;0.1966227;0.4081542;0;
-22836.92;-16809.75;76.67766;-27883.75;-10.91788;3.816031;-24372.32;-12207.45;-0.1284116;-0.1119946;0;
-2155.531;-1532.983;-244.5192;-4748.912;-6.753726;3.008402;-2567.252;-1783.074;-0.3881519;-0.1768494;0;
18965.25;14173.1;-303.4938;22445.58;-24.43044;10.44036;20299.07;10795.26;0.4568135;0.2131323;0;
18031.97;13279.97;-55.61013;23326.53;-26.28092;12.77415;19690.84;10694.06;0.4563545;0.08298349;0;
18266.1;13848.2;36.1965;22765.49;-16.34153;9.412292;19674.01;11097.66;-0.3886795;0.2128348;0;
21084.4;16209.21;16.54499;26211.29;-15.78924;9.871716;22727.82;13409.17;-0.1284196;0.2775883;0;
13184.06;9469.181;314.0351;16143.01;-3.91801;6.914608;13866.79;6788.311;0.3264808;-0.2424294;0;
-9917.906;-7319.416;470.7188;-12414.44;0.4401836;5.099182;-11211.75;-5648.372;-0.1286186;-0.6319898;0;
-14402.99;-9079.72;194.1502;-19775.8;0.5734631;5.964776;-16188.12;-6721.17;-0.1934567;-0.8912241;0;
-14020.33;-9230.797;109.1696;-18850.7;3.921789;4.887116;-15519.06;-7162.113;0.2615091;-0.6954266;0;
-23745.46;-17623.55;37.39278;-28833.81;-4.655966;3.207632;-25279.05;-12838.83;0.3262137;0.1498476;0;
-3183.719;-2303.938;-262.1661;-5859.074;-7.195908;3.405358;-3571.735;-2237.778;-0.2588202;0.08472965;0;
18727.67;13983.14;-301.1173;22138.99;-3.773401;-1.82261;20071.38;10622.8;-0.3884948;-0.5000616;0;
17806.81;13034.35;-53.75148;23095.6;-4.305473;-3.093394;19459.96;10425.11;0.261569;-0.1747224;0;
17823.47;13427.15;45.12786;22316.83;-13.94571;3.607825;19234.92;10700.79;0.1313715;0.6050613;0;
20767.75;15869.29;30.2306;25879.33;-18.21861;4.608943;22405.97;13053.42;-0.1935973;0.6694207;0;
12695.73;9141.84;323.2248;15653.47;-7.21559;11.30248;13379.36;6485.703;0.131434;0.3439113;0;
-10671.46;-7846.03;470.6539;-13166.14;-4.596371;15.6449;-11947.66;-6156.182;0.1962692;-0.04623831;0;
-15266.46;-9620.001;177.0158;-20674.59;-12.16021;9.801783;-17047.54;-7142.653;-0.06379732;-0.3710286;0;
-15088.01;-9969.95;94.39503;-19956.62;-11.54478;10.52875;-16570.86;-7706.564;0.001234119;-0.04581904;0;
-24606.17;-18478.04;29.33284;-29770.79;-7.715765;14.47004;-26155.45;-13598.26;0.1961349;0.01919434;0;
-3571.615;-2671.567;-271.561;-6418.585;-7.37322;15.79516;-4046.56;-2549.832;0.001035801;-0.175727;0;
18374.26;13685.54;-306.6142;21705.53;1.140655;16.04722;19678.75;10342.95;-0.3887693;0.1492863;0;
17496.9;12717.7;-62.80346;22801.14;3.953524;17.57158;19157.95;10106.36;-0.3883786;0.1491363;0;
17648.23;13250.35;29.47891;22134.37;3.278991;16.28137;19060.87;10528.32;-0.0631517;-0.3707523;0;
20585.98;15678.28;17.12736;25681.64;6.759296;15.99708;22222.26;12862.34;0.5216178;-0.3703797;0;
12298.94;8898.959;311.9463;15218.57;-4.90277;23.61681;12975.53;6272.318;0.4561264;-0.1101382;0;
-11918.94;-8794.109;432.291;-14378.38;-7.175019;25.46861;-13154.13;-7050.666;0.065864;0.2148092;0;
-17162.25;-10917.95;115.7343;-22494.54;-1.474382;23.03163;-18909.34;-8217.835;-0.06413686;0.344528;0;
-16775.27;-11180.55;48.7141;-21587.97;-3.482633;22.47262;-18252.35;-8579.923;-0.1290398;0.2142471;0;
-26378;-20085.5;-10.63316;-31475.05;6.903343;23.99065;-27892.37;-14821.66;0.00102458;-0.1108049;0;
-5056.929;-3751.115;-314.2823;-7957.855;9.307304;23.3637;-5527.151;-3264.819;-0.06394379;-0.1756609;0;
18045.61;13511.79;-337.7983;21293.33;4.408808;19.65628;19336.05;10219.4;0.001087801;0.279287;0;
17454.17;12602.34;-80.63486;22763.97;5.073963;19.3686;19114.13;9947.643;0.3908907;0.4739085;0;
17319.69;12956.04;22.56619;21826.54;-1.830011;9.904789;18732.23;10257;0.3255306;0.3434976;0;
20344.85;15403.39;8.160126;25445.67;-4.240046;6.813683;21976.39;12572.9;0.1952689;0.01831571;0;
11767.6;8586.146;304.4561;14619.12;-4.636951;12.96908;12402.5;6003.251;0.1950727;-0.1116374;0;
-13269.99;-9868.382;453.9187;-15736.85;-6.709373;12.88907;-14540.8;-7944.538;0.1299093;0.08337682;0;
-18937.35;-12403.09;145.1644;-24133.49;-6.769004;18.63653;-20681.03;-9358.966;0.1947461;0.1482604;0;
-18521.25;-12602.9;17.69192;-23201.65;-7.83393;20.9622;-19966.93;-9774.691;-0.06531893;-0.04679061;0;
-27853.57;-21514.19;-95.42525;-32934.14;-5.280462;23.55335;-29360.96;-16134.4;-0.195188;0.08319108;0;
-5817.659;-4395.18;-377.5157;-8843.343;-4.471849;26.14202;-6354.993;-3740.163;0.06487751;0.1480749;0;
17769.1;13350.57;-360.8789;20927.33;-3.128186;23.77135;19015.28;10085.58;0.1297797;-0.04697598;0;
17232.74;12340.23;-95.3839;22549.9;-1.11531;24.48428;18901.19;9666.063;-0.0002854214;-0.1118961;0;
17171.21;12818.6;0.132722;21667.43;-3.190295;19.16815;18578.04;10130.72;-0.1302198;-0.176751;0;
20253.26;15300.3;-12.98582;25350.28;-1.847918;16.46957;21884.33;12469.77;-0.324991;-0.1116061;0;
11663.39;8519.34;287.6886;14536.76;-1.376571;19.73518;12322.79;5928.645;0.1950743;-0.1114939;0;
-13583.96;-10088.68;413.1957;-16037.41;-0.5718806;18.57664;-14832.51;-8172.603;0.1948783;-0.3062839;0;
-19278.99;-12634.75;90.98912;-24472.09;3.046016;16.95039;-21017.93;-9535.967;-0.3900236;-0.2410088;0;
-18626.57;-12614.23;-3.055082;-23293.27;3.77989;16.46448;-20070.12;-9766.718;-0.3246644;-0.04586465;0;
-28218.75;-21854.15;-95.06826;-33272.06;9.000029;13.63477;-29715.03;-16359.44;-0.3893055;0.2790182;0;
-6273.97;-4790.336;-376.222;-9284.714;10.79965;12.14745;-6803.207;-3925.139;-0.518849;0.2137705;0;
17813.53;13440.96;-356.3069;20980.46;9.449624;15.14947;19060.02;10204.63;-0.193491;-0.3711504;0;
17349.68;12435.68;-96.17321;22674.04;10.44451;15.3352;19017.77;9736.229;-0.06336185;-0.1109081;0;
17147.23;12797.13;-2.123804;21648.98;2.46341;13.51125;18556.25;10130.6;-0.3231675;0.21404;0;
20305.39;15364.3;-16.64562;25402.38;-0.8215952;13.43069;21937.03;12520.37;-0.1279408;0.2787923;0;
11890.16;8660.487;297.1353;14753.08;4.806285;14.62289;12536.21;6064.312;0.6517959;0.6033489;0;
-13101.14;-9745.593;457.709;-15556.18;5.202621;16.21566;-14363.44;-7903.701;0.9110103;0.1479712;0;
-18718.57;-12241.82;133.4431;-23957.43;-1.165619;9.568304;-20461.98;-9299.616;0.3253888;-0.04707947;0;
-18092.91;-12242.56;17.74207;-22862.22;-1.967755;7.683168;-19555.4;-9455.517;-0.06474217;0.4727066;0;
-27720.91;-21374.99;-72.54288;-32858.23;-0.1571168;16.18204;-29235.25;-16006.11;0.06525756;0.2773296;0;
-6007.518;-4523.848;-370.3828;-9083.963;-1.363384;16.63466;-6532.69;-3891.982;-0.06474268;0.08214887;0;
17771.68;13357.68;-377.3819;20900.61;7.144453;21.50757;19023.97;10081.14;-0.5844164;0.1470337;0;
17344.15;12438.68;-117.4925;22655.77;8.410071;24.96908;19012.49;9771.146;-0.5188618;0.2118533;0;
17265.24;12915.81;0.6599803;21740.08;7.799385;13.82506;18672.75;10220.08;-0.3234384;0.5364771;0;
20247.18;15294.15;9.90467;25331.65;9.264441;12.20358;21879.74;12470.69;-0.6479501;0.6009054;0;
11810.97;8610.633;301.2483;14659.67;-2.667587;14.93762;12469.85;5991.256;-0.5173644;-0.04937181;0;
-13250.24;-9831.598;433.3009;-15748.34;-6.080182;13.51597;-14500.58;-7984.789;0.06786153;-0.5040936;0;
-19100.01;-12547.43;122.2404;-24360.24;-7.681663;15.64584;-20839.33;-9478.886;0.06779335;-0.1787504;0;
-18438.53;-12534.08;13.5784;-23197.04;-11.15755;15.22822;-19887.22;-9720.61;0.002757887;0.01633126;0;
-28201.42;-21838.85;-83.79256;-33341.81;-6.792077;16.55246;-29707.53;-16363.56;0.3275918;-0.1136198;0;
-6510.657;-4978.874;-377.4826;-9628.681;-5.647152;17.47359;-7058.484;-4098.12;0.1323606;-0.178473;0;
17671.53;13302.99;-359.6277;20764.96;-11.06649;12.1645;18902.47;10065.05;-0.2575764;-0.1133263;0;
17277.2;12360.76;-68.31882;22593.4;-11.92602;10.8796;18949.11;9661.091;-0.3222849;0.2116243;0;
16948.92;12597.06;31.05928;21435.06;-1.465189;12.20833;18353.83;9920.779;-0.1270591;0.08147692;0;
20068.5;15115.18;-4.313536;25156.42;1.148251;11.39227;21697.65;12279.54;0.1979053;-0.1784743;0;
11799.1;8595.586;294.4156;14645.42;2.152452;12.11763;12481.46;5979.333;0.2626738;0.3414438;0;
-13563.04;-10122.87;448.2923;-16065.37;4.963328;12.44037;-14794.43;-8291.021;0.1324752;0.2761333;0;
-19363.4;-12824.47;123.4268;-24618.73;-1.069879;10.88726;-21111.77;-9744.502;-0.1275273;0.1459212;0;
-18264.8;-12422.73;9.672412;-23010.76;-2.006809;11.27822;-19731.71;-9557.737;-0.4522359;0.4706113;0;
-28052.72;-21694.97;-73.04573;-33166.61;-3.343963;11.26689;-29571.61;-16303;-0.5817162;0.3402037;0;
-6475.159;-4917.645;-360.3748;-9560.669;-6.623133;11.45652;-7021.766;-4188.922;-0.9709357;0.1449599;0;
17652.39;13264.79;-353.188;20763.45;-0.7219801;15.59795;18889.93;10001.13;-0.6451234;0.01487951;0;
17205.31;12294.16;-91.91734;22538.56;-0.6539057;17.65862;18874.76;9610.22;0.1351329;0.0798319;0;
17049.84;12690.66;2.252733;21546.35;-7.619473;16.56915;18456.44;10005.27;0.2649318;0.4045884;0;
20089.6;15138.83;-2.762636;25182.16;-8.683544;17.62423;21717.17;12302.79;0.2646656;0.5341166;0;
11756.35;8579.468;295.2778;14639.55;-12.69428;20.41981;12409.19;5980.925;0.134465;0.4686125;0;
-13278.47;-9849.362;412.9531;-15740.8;-14.22177;21.80581;-14538.47;-7941.933;0.06936256;0.2732396;0;
-19382.14;-12634.42;79.90847;-24593.42;-13.33682;21.85088;-21134.26;-9529.65;0.4590969;0.2079978;0;
-18927.75;-12795.51;-18.74727;-23602.3;-14.3278;22.23082;-20388.34;-10005.42;0.5885703;-0.05208062;0;
-28690.21;-22337.37;-98.48522;-33789.69;-6.14173;23.54814;-30215.59;-16858.55;0.2631422;-0.376865;0;
-6729.093;-5236.805;-384.2582;-9887.733;-2.987727;23.39051;-7307.155;-4311.874;-0.3218283;0.07828506;0;
17743.95;13377.9;-384.5436;20796.92;-4.927108;22.6302;18961.3;10152.66;0.003331786;0.4030431;0;
17386.46;12453.12;-114.3554;22710.79;-2.109118;21.46875;19058.72;9748.468;0.4580998;0.01283408;0;
17128.46;12774.19;13.57031;21611.88;-5.25483;20.91132;18530.57;10093.13;0.2627375;-0.4419502;0;
20231.37;15283.96;6.731979;25321.82;-6.053833;20.35456;21862.3;12460.44;0.3924082;-0.3115714;0;
12240.12;8908.814;307.3241;15146.5;4.402075;14.5737;12910.78;6248.395;0.5219486;-0.05138901;0;
-12813.54;-9561.357;465.9979;-15262.93;7.411762;12.75052;-14069.34;-7818.27;0.3914894;0.01362996;0;
-18990.82;-12453.92;137.8506;-24244.43;1.710887;12.60374;-20747.25;-9496.066;0.196194;0.143551;0;
-17977.19;-12076.1;15.586;-22707.83;2.110333;12.05521;-19444.05;-9415.061;-0.1938071;-0.05149531;0;
-27858.64;-21515.11;-68.80912;-32925.63;0.9027643;11.50723;-29392.47;-16148.15;-0.3235471;-0.1164109;0;
-6637.018;-5112.973;-372.7434;-9745.961;-0.906804;10.15614;-7213.146;-4257.938;-0.3881893;-0.1812613;0;
17680.73;13302.54;-394.0455;20730.31;5.123303;20.52804;18900.62;10058.5;-0.1279299;-0.3759812;0;
17343.06;12416.72;-122.5046;22682.3;6.122533;23.72247;19017.33;9718.924;0.132068;-0.05076668;0;
17083.83;12721.49;-3.738016;21588.65;1.159888;18.27314;18490.5;10050.69;-0.3228361;0.1441864;0;
20179.49;15245.37;-28.76855;25279.74;1.024025;19.59444;21811.54;12407.79;-0.3225117;-0.1158279;0;
12211.95;8838.074;251.5101;15165.3;-1.588972;13.74736;12885.8;6211.198;0.1975511;0.07919051;0;
-12424.6;-9260.511;396.7936;-14827.8;-2.926546;11.12121;-13679.28;-7455.552;0.1323853;0.274013;0;
-18369.7;-12029.04;87.78442;-23616.42;-0.780152;16.60251;-20124.62;-9114.613;0.06728488;0.01386828;0;
-17028.1;-11304.89;2.973169;-21809.36;-1.717373;15.84902;-18510.92;-8636.659;0.002249936;-0.1160803;0;
-26086.57;-19814.2;-40.78907;-31151.12;3.509265;14.69451;-27619.85;-14655.76;-0.2576217;0.3388077;0;
-5238.805;-3937.718;-311.7525;-8146.896;5.448122;13.80896;-5739.303;-3508.805;-0.3223302;0.5333693;0;
17995.19;13497.27;-324.0267;21191.59;-1.256133;12.79034;19265.1;10195.15;-0.1920716;0.01309461;0;
17517.42;12617.02;-70.48461;22837.38;-2.392971;12.50956;19180.76;9971.166;0.003023408;-0.05188589;0;
17297.26;12932.76;30.62917;21800.2;1.293129;7.205461;18700.66;10224.11;0.00302037;0.07810093;0;
20320.57;15387.18;21.82156;25430.11;2.631;5.389742;21953.17;12582.71;0.132952;-0.3767489;0;
12583.63;9089.406;325.4127;15573.74;-2.59558;6.790907;13276.72;6400.54;0.06785109;-0.506305;0;
-11651.75;-8612.411;474.4325;-14017.06;-2.190831;6.583135;-12898.32;-6937.112;-0.1920865;-0.3108943;0;
-17203.23;-11147.65;157.9115;-22459.4;-0.7821099;5.370888;-18975.84;-8477.957;-0.06195876;-0.2456146;0;
-15751.88;-10326.23;64.61214;-20529.38;-0.4465313;4.829628;-17234.81;-8025.677;0.1330055;-0.1154331;0;
-25094.82;-18879.27;3.780892;-30165.45;7.658242;10.98702;-26634.73;-13891.35;0.06790453;0.274487;0;
-4698.438;-3604.375;-302.0223;-7632.574;9.124415;13.2534;-5212.66;-3174.91;-0.3219678;0.2742112;0;
18211.83;13593.48;-333.3748;21394.51;15.94775;11.36456;19481.56;10286.17;-0.3866116;-0.3107705;0;
17725.72;12881.41;-78.69893;23039.71;18.94584;13.02772;19391.72;10240.87;0.003580941;-0.2454909;0;
17655.73;13263;24.2347;22143.7;12.83123;8.928789;19058.96;10556.59;0.06854469;0.2744946;0;
20572.52;15663.82;11.90403;25682.19;12.95206;6.843347;22208.43;12862.78;0.003508469;0.01434937;0;
12959.91;9361.082;307.1187;15974.86;1.82061;16.01289;13663.54;6665.874;0.198407;-0.2455344;0;
-10825.38;-7964.401;476.6466;-13220;-3.27241;17.20249;-12063.65;-6369.556;0.003305583;-0.3102551;0;
-16742.69;-10657.88;181.066;-22081.36;1.4863;11.55876;-18512.81;-8011.703;-0.1915998;-0.7647147;0;
-15740.37;-10298.07;64.25517;-20614.99;0.07828734;10.81034;-17234.89;-7869.626;-0.06147256;-0.7639463;0;
-24881.63;-18667.32;-10.28758;-30050.82;-2.53376;6.512688;-26419.61;-13684.6;-0.1263781;-0.1784726;0;
-4613.403;-3406.555;-306.0504;-7578.955;-3.334521;3.826887;-5096.28;-3129.465;-0.1912185;-0.1133259;0;
18132.05;13551.13;-347.1596;21322.4;-0.1833385;6.30135;19414.3;10215.49;-0.06109167;-0.3081141;0;
17696.07;12843.66;-100.0286;22997.91;0.1516383;6.495966;19358.55;10231.29;-0.190965;0.01703221;0;
17475.47;13084.97;1.114893;21952.8;4.169974;1.063944;18880.02;10360.13;-0.0608384;0.1469498;0;
20432.76;15519.35;-21.37492;25520.12;6.041794;0.1251749;22067.7;12732.38;0.3939941;-0.1130672;0;
12889.68;9371.203;284.7896;15896.46;5.700931;4.746749;13595.83;6675.919;0.4585656;-0.2428883;0;
-11238.08;-8313.969;460.0245;-13596.49;8.843034;5.679741;-12483.62;-6684.326;-0.1266013;-0.3076116;0;
-17282.97;-11154.04;151.2798;-22609.59;-2.954848;9.558983;-19058.95;-8348.848;-0.5812454;0.01753419;0;
-16768.41;-11283.95;39.18402;-21586.27;-5.229054;11.42478;-18225.38;-8752.127;-0.320792;0.472288;0;
-27071.44;-20779.82;-37.55117;-32185.94;1.541354;15.03038;-28600.69;-15447.29;0.3292037;0.3418787;0;
-6272.725;-4856.214;-346.1239;-9403.849;-0.5362995;18.43128;-6835.841;-4029.407;0.3938403;0.08166584;0;
17965.62;13475.66;-371.0759;21003.84;16.20973;11.11174;19198.24;10231.94;-0.1262942;-0.2432529;0;
17732.02;12845.02;-107.7103;23055.74;22.22166;10.36377;19404.95;10163.6;0.003767379;-0.5028778;0;
17575.89;13199.74;-5.091074;22058.53;8.535302;13.3006;18979.46;10517.3;-0.1911384;-0.1125685;0;
20689.6;15771.46;-14.25323;25783.34;9.330033;12.75137;22325.2;12962.46;-0.6457177;0.2773486;0;
12932.07;9383.378;287.7499;15954.39;3.359787;15.61871;13635.66;6700.345;-0.2552649;0.3420373;0;
-11154.88;-8245.538;451.9406;-13514.94;-1.533709;16.20586;-12406.46;-6601.174;0.004860962;0.406661;0;
-17350.77;-11165.84;165.3491;-22656.53;9.854687;18.53398;-19125.48;-8322.126;0.1347908;0.2763177;0;
-17141.23;-11608.11;58.18985;-21936.75;8.840406;21.3955;-18596.66;-9003.401;0.5244594;-0.0487967;0;
-27061.03;-20753.22;-39.22594;-32182.69;8.764174;12.19758;-28584.99;-15593.96;0.1990957;-0.1786824;0;
-6026.353;-4516.396;-347.7502;-9194.643;10.83147;9.907907;-6599.715;-3989.521;-0.1259411;-0.1135355;0;
17830.01;13389.82;-380.5872;20851.22;-6.99565;22.55748;19048.11;10100.86;0.2639895;-0.1783887;0;
17515.04;12616.65;-135.0155;22845.99;-11.41023;24.9462;19190.53;9971.957;0.3286916;-0.3081442;0;
17306.74;12936.95;-23.60767;21791.64;-6.1065;22.10785;18712.01;10230.94;0.1334593;-0.1778999;0;
20299.63;15376.78;-26.39503;25387.44;-8.110096;23.4253;21931.62;12588.58;0.4581619;0.08214826;0;
12692.4;9231.578;281.3206;15726.79;-3.882388;22.59796;13410.33;6531.003;0.1978322;-0.1128363;0;
-11811.28;-8761.533;452.4673;-14106.27;-3.811138;23.1781;-13024.4;-7085.172;0.06769872;-0.1776903;0;
-18005.58;-11753.72;133.2979;-23263.13;1.483977;22.48498;-19764.64;-8880.787;-0.06230399;-0.3074464;0;
-16306.17;-10725.72;24.95275;-21139.31;4.697667;22.32843;-17796.83;-8251.41;-0.4520454;-0.3071375;0;
-25838.11;-19543.43;-20.17465;-30936.16;-5.220039;23.71263;-27382.39;-14360.33;-0.1917218;0.2129099;0;
-5832.366;-4413.54;-318.52;-8837.469;-6.621314;23.21992;-6367.55;-3723.923;-0.06159452;0.1477286;0;
17811.35;13341;-348.9189;20927.77;-6.548288;28.82304;19058.46;10063.5;0.06840205;0.01764547;0;
17601.08;12705.68;-89.54227;22926.41;-9.422096;31.00439;19271.34;10047.77;0.39317;0.01762773;0;
17359.41;12987.4;2.563953;21852.18;-4.589858;25.74869;18763.81;10299.83;0.06793826;-0.4371614;0;
20367.78;15453.73;-2.123768;25465.53;-3.780962;25.85678;22002.4;12653.98;0.1328373;-0.6316241;0;
12850.89;9301.305;311.7206;15898.2;-13.35536;25.96477;13569.64;6599.432;0.1976712;-0.2411854;0;
-10944.8;-8017.497;474.7472;-13271.7;-15.55274;26.00566;-12173.47;-6418.924;-0.06239678;0.08389363;0;
-16996.76;-10882.42;171.8753;-22304.71;-11.31755;26.1135;-18774.64;-8139.997;-0.06233409;0.1487767;0;
-16166.73;-10713.77;71.05003;-20964.31;-10.90404;25.61838;-17644.82;-8268.39;-0.1922061;0.2785619;0;
-25790.9;-19503.11;18.52063;-30855.3;-7.610554;29.47765;-27316.21;-14503.21;-0.192013;0.1483473;0;
-5442.25;-4068.713;-273.3825;-8489.162;-2.981207;29.8498;-5976.972;-3687.362;-0.2567874;-0.1116711;0;
17968.09;13465.52;-311.854;21052.57;-11.28458;29.21708;19210.46;10157.64;0.1332747;0.01837575;0;
17724.86;12835.34;-51.70247;23055.04;-11.74176;27.98203;19399.47;10215.68;0.1981081;-0.3064794;0;
17608.78;13234.32;68.52345;22099.65;5.149251;28.35582;19013.85;10523.03;-0.386797;-0.5010735;0;
20613.29;15713.39;49.52661;25718.65;8.426606;27.32258;22251.39;12946.77;0.003395655;0.01916872;0;
13317.53;9611.896;317.4047;16404.34;12.97249;17.64983;14053.83;6874.756;0.5880983;0.2140515;0;
-10445.23;-7764.501;469.8527;-12723.11;15.23663;13.27832;-11673.29;-6220.37;0.002801319;-0.1110003;0;
-16153.39;-10437.51;170.8744;-21451.26;14.88653;10.51868;-17944.28;-7874.925;-0.1921035;-0.1108888;0;
-14501.28;-9460.069;69.12875;-19374.85;17.21609;6.891157;-16002.69;-7350.116;0.2628609;0.01915733;0;
-24627.2;-18392.4;21.33328;-29707.14;-2.158661;4.740839;-26161.87;-13439.63;0.06769475;-0.1757639;0;
-5304.062;-3953.509;-272.1032;-8211.662;-7.381404;2.860554;-5799.177;-3440.962;-0.5170794;-0.2405547;0;
18109.36;13552.63;-325.6308;21272.52;-8.713159;1.919979;19376.56;10238.21;0.0681463;0.08452374;0;
17865.23;13010.78;-91.63985;23181.27;-14.79997;1.114255;19537.47;10390.63;0.4578819;-0.1104632;0;
17641.73;13249.38;4.419617;22124.73;-1.790656;6.337682;19050.04;10548.91;-0.1922516;-0.1753196;0;
20661.72;15780.57;-22.08713;25762.55;-0.9182007;8.675716;22301.66;13005.17;-0.1270911;0.08472597;0;
13453.08;9716.331;260.3868;16562.84;0.4892415;6.38958;14205.72;6983.543;0.2628406;0.1496082;0;
-9877.19;-7292.918;442.1431;-12181.8;4.239794;6.986006;-11082.48;-5775.986;-0.1272275;0.08449051;0;
-15981.52;-10202.61;163.5886;-21330.55;-2.998135;10.52896;-17750.72;-7519.193;-0.2570344;-0.04552907;0;
-15248.03;-10112.73;63.5838;-20098.46;-1.25381;11.32218;-16722.54;-7751.236;-0.1268414;0.2793534;0;
-25054.31;-18795.21;0.145513;-30180.97;-8.955709;10.64097;-26573.3;-13889.19;0.003220728;0.4090074;0;
-5200.044;-3797.369;-307.2626;-8272.138;-13.63478;10.69726;-5693.033;-3488.374;0.1331522;0.148727;0;
18013.34;13471.08;-348.636;21083.55;3.59292;8.007317;19279.98;10148.86;-0.1918183;0.01864291;0;
17758.6;12899.39;-102.7061;23073.01;4.191546;7.53039;19429.95;10296.59;-0.0616909;-0.04634317;0;
17606.59;13224.29;-0.3573728;22086.23;4.053613;3.302959;19017.1;10511.45;-0.06162892;-0.1762313;0;
20559.38;15674.93;-2.29354;25643.72;5.858201;1.491163;22199.17;12908.25;-0.256469;-0.1110869;0;
13340.85;9623.326;295.9495;16428.87;-6.472545;3.365125;14087.05;6896.299;0.0686254;-0.1109752;0;
-10480.2;-7830.372;467.3627;-12765.78;-7.537768;1.88818;-11673.44;-6247.808;0.003589098;-0.2407984;0;
-16692.11;-10762.2;171.3853;-22038.33;-21.2606;10.12494;-18438.55;-8108.029;-0.1263492;-0.5653931;0;
-15146.62;-9884.757;67.35909;-20035.53;-28.20546;13.39693;-16614.42;-7684.529;-0.06125489;-0.6947597;0;
-25094;-18798.73;25.14072;-30208.24;-11.83377;5.278656;-26615.24;-13792.34;-0.2560954;-0.2392903;0;
-5721.963;-4281.332;-279.3565;-8783.783;-10.68378;5.474301;-6222.7;-3722.039;-0.255838;0.2806889;0;
17924.37;13413.31;-348.3379;20978.87;-8.261172;6.406561;19185.43;10120.92;-0.1256463;0.1504722;0;
17809.58;12940.11;-94.70891;23136.51;-4.501827;5.86426;19485.17;10316.58;0.06938198;0.02038632;0;
17508.16;13123.65;19.67256;21994.82;-9.052631;9.743256;18917.42;10426.58;0.004344925;0.4101699;0;
20527.16;15667.46;2.333375;25623.74;-9.71312;10.33631;22169.38;12902.12;-0.3204961;0.08492103;0;
13625.81;9764.225;307.3964;16761.1;1.013909;11.73257;14389.79;7024.724;-0.1902394;-0.434903;0;
-9756.995;-7389.484;487.2939;-11995.19;4.830307;12.72552;-10954.18;-5862.032;0.004853749;-0.1096293;0;
-16164.14;-10411.57;200.1983;-21439.42;-10.04403;11.3061;-17928.26;-7730.215;-0.1900532;0.02041551;0;
-15055.98;-9888.13;104.9824;-19865.22;-11.64152;11.69663;-16518.85;-7602.883;0.005039838;-0.04457234;0;
-24811.08;-18600;27.65009;-29884.05;-13.50486;7.33111;-26328.94;-13696.85;0.1999368;-0.2394296;0;
-5307.579;-3946.773;-290.093;-8312.167;-17.17596;4.979403;-5817.324;-3582.023;0.2647032;-0.5640257;0;
17987.38;13447.15;-337.6524;21086.91;-4.766495;10.39983;19243.49;10127.22;0.1345026;-0.1086876;0;
17783.02;12927.08;-98.82368;23114.77;-3.020393;10.65732;19459.47;10328.72;0.06940009;0.4111604;0;
17548.4;13170.11;11.56393;22047.73;-2.816287;7.163617;18959.32;10465.83;0.004363019;0.02094317;0;
20523.56;15643.95;-6.188768;25624.73;-0.4689328;7.156418;22163.62;12886.93;-0.1905434;-0.4338492;0;
13416.38;9660.967;260.4178;16571.16;-6.497658;3.398245;14187.72;6925.646;-0.1253846;-0.2385113;0;
-10178.41;-7598.164;433.5378;-12385.35;-7.964021;1.519369;-11346.23;-6061.304;-0.06029126;0.02159772;0;
-16071.59;-10405.5;156.8035;-21354.28;-5.545121;5.804628;-17813.26;-7845.283;-0.06023068;-0.1083587;0;
-14284.52;-9297.555;55.80602;-19139.44;-5.874342;5.597847;-15763.55;-7227.394;0.2646666;0.2165869;0;
-24154.05;-17921.62;9.976074;-29258.44;-9.954276;7.065846;-25663.23;-13070.29;0.1994333;0.151402;0;
-5109.438;-3777.434;-281.3875;-8070.349;-10.21172;8.599354;-5545.258;-3372.863;0.004330853;-0.2385542;0;
18030.85;13449.49;-339.1225;21163.62;-14.22092;2.696276;19328.88;10130.29;-0.1905755;0.1514895;0;
17813.13;12974.72;-93.60809;23116.92;-15.74687;2.090782;19483.68;10380.2;-0.190384;0.2163047;0;
17585.97;13196.1;15.10325;22068.33;-7.827797;1.083937;18996.9;10495.22;0.06967663;-0.04378206;0;
20543.68;15681.42;-12.08576;25640.03;-6.547134;-1.529426;22188.31;12927.82;0.00463928;-0.04373807;0;
13614.65;9809.079;269.0351;16740.22;-1.785133;9.99287;14388.41;7067.222;-0.06033272;-0.1086615;0;
-9601.629;-7130.017;458.6849;-11870.96;0.4948123;13.46594;-10799.79;-5617.303;0.00469524;0.2812518;0;
-15965.65;-10237.87;185.5954;-21292.04;0.8291078;2.467393;-17737.51;-7627.052;0.1346252;0.4758712;0;
-14452.78;-9365.434;71.99721;-19292.73;2.569587;2.59888;-15913.67;-7207.736;0.2644246;-0.0443457;0;
-23688.52;-17478.86;26.68198;-28798.08;-4.331871;-0.0160046;-25204.74;-12681.97;0.2641589;0.0206662;0;
-4811.817;-3496.6;-256.4681;-7859.994;-5.734038;-2.561279;-5313.021;-3207.845;-0.06094321;0.3454822;0;
17937.21;13384.23;-321.0529;21005.18;-6.800003;7.555534;19194.09;10058.62;-0.450686;0.0202983;0;
17919.65;13075.07;-82.44378;23243.58;-7.731175;8.41872;19599.47;10492.72;-0.1253965;-0.1096568;0;
17763.27;13376.77;21.10268;22244.31;-2.432122;8.61121;19171.53;10667.2;0.3944682;-0.04457926;0;
20684.55;15836.57;-2.484803;25784.53;2.727886;9.875112;22325.23;13101.95;0.2641372;0.02043288;0;
13885.8;9984.546;285.4042;17112.95;-3.436797;3.234061;14694.73;7214.335;0.1989045;-0.04455499;0;
-9026.739;-6736.915;482.4558;-11221.37;-0.6876533;1.087419;-10202.52;-5282.526;0.1987046;-0.04451023;0;
-15078.73;-9676.337;218.4472;-20425.75;13.78135;-0.05238332;-16853.85;-7142.64;0.06857026;0.4752733;0;
-13496.23;-8694.524;113.9676;-18395.66;16.71426;-2.597621;-14976.24;-6676.179;0.1334687;0.344861;0;
-23003.66;-16860.29;75.57546;-28105.2;45.50037;-5.006336;-24518.48;-12204.34;0.003399915;-0.3051589;0;
-4394.5;-3226.004;-226.6142;-7275.747;58.51547;-7.144698;-4810.034;-3042.493;-0.06157084;-0.239885;0;
18220.61;13565.42;-323.4159;21404.42;37.55898;-10.55353;19536.21;10215.84;0.06842571;-0.04474191;0;
18028.35;13224.63;-106.3561;23331.51;38.59296;-13.35614;19693.75;10665.86;-0.06157773;0.02027038;0;
17779.22;13377.77;-5.331222;22260.09;36.27604;-8.988955;19189.29;10662.86;0.1983535;0.08521736;0;
20721.12;15884.6;-20.31833;25813.86;32.95803;-8.109145;22362.6;13156.04;0.3280889;0.02016439;0;
14008.6;10089.8;262.7473;17175.46;29.64239;-13.32554;14796.36;7320.934;0.1978245;0.08511147;0;
-8979.396;-6712.596;441.2841;-11248.13;23.31694;-13.24517;-10178.04;-5247.702;0.2625931;0.1499933;0;
-15341.91;-9817.989;176.5985;-20732.12;34.34557;-13.03091;-17130.72;-7218.248;0.3272966;-0.1749941;0;
-13893.1;-8994.159;101.5368;-18807.18;34.64585;-12.61598;-15374.47;-6924.452;0.197033;-0.1748183;0;
-23272.87;-17147.99;76.21307;-28435.28;26.30467;-8.048529;-24799.17;-12447.81;-0.192969;-0.1096753;0;
-4543.61;-3380.434;-219.0433;-7530.887;26.68038;-5.6961;-4992.992;-3139.286;-0.3227098;0.4101737;0;
18068.17;13419.63;-295.7064;21196.92;15.53514;-4.886642;19363.63;10075.99;-0.1274835;0.5396962;0;
17875.65;13071.63;-79.00242;23174.29;11.70113;-3.408108;19542.37;10505.13;0.06754663;-0.04555219;0;
17690.38;13299.4;25.80557;22155.87;19.9284;0.2122733;19096.99;10590.09;0.1974134;-0.1104738;0;
20589.38;15742.4;19.15797;25678.11;19.10409;0.9488722;22229.49;13011.09;-0.1276216;-0.3702321;0;
13753.19;9882.579;287.8005;16941.67;25.18046;3.627175;14554.39;7124.341;-0.1924607;-0.6946968;0;
-9213.857;-6860.596;464.9066;-11448.15;27.16489;4.494308;-10394.16;-5361.701;-0.1273;-0.3041947;0;
-15461.99;-9921.145;203.6018;-20802.47;16.75512;-0.3998393;-17250.11;-7261.325;-0.06220476;0.08591498;0;
-14064.77;-9140.829;97.87213;-18924.5;10.37527;-0.2654717;-15551.88;-7024.55;0.06779243;0.2157633;0;
-23585.02;-17408.34;52.67146;-28705.86;19.47453;-8.570906;-25113.38;-12659.87;0.00275697;0.1505792;0;
-4794.032;-3600.518;-244.0292;-7778.566;15.36912;-10.77267;-5261.471;-3294.683;0.1976562;0.08546054;0;
17971.92;13341.04;-333.2391;21087.46;9.190762;-7.479803;19252.01;10016.22;0.1324903;-0.1095273;0;
17823.59;13019.74;-101.786;23146.04;12.59778;-8.409987;19494.57;10449.76;-0.06254487;-0.239352;0;
17553.23;13160.57;23.98746;22049.31;-43.27742;2.315488;18960.77;10453.94;0.002485313;0.1506926;0;
20456.57;15621.99;7.971395;25558.39;-61.58702;5.461237;22096.27;12902.25;0.06745016;0.2155085;0;
13895.96;10000.5;286.0736;17159.81;-23.94832;10.14443;14717.64;7224.068;0.5871211;-0.04457742;0;
-9213.033;-6906.46;476.3622;-11320.9;-27.34051;15.22482;-10370.87;-5452.447;0.6514985;-0.2394346;0;
-15695.87;-10217.43;192.2917;-20995.68;-3.869744;8.042593;-17477.28;-7578.101;-0.1287642;-0.1092594;0;
-13812.13;-9014.186;73.51751;-18673.13;7.253555;9.240083;-15293.88;-6949.033;-0.06366749;0.1507198;0;
-23388.96;-17175.68;37.50858;-28467.04;-12.17854;6.216688;-24917.86;-12464.87;0.1312985;-0.109301;0;
-5111.311;-3695.249;-245.7774;-8091.118;-8.616329;3.933083;-5586.604;-3389.367;-0.06373544;-0.3040932;0;
17862.92;13325.49;-312.3093;20951.28;-18.58801;12.70371;19140.02;9997.982;-0.0636714;-0.3037877;0;
17944.78;13101.64;-77.92568;23264.47;-21.85088;13.62871;19615.65;10538.11;-0.2585095;-0.4983844;0;
17822.6;13452.17;26.9437;22305.62;-18.27895;13.54803;19229.01;10746.02;-0.4531517;-0.3029816;0;
20932.45;16100.78;3.631454;26020.07;-20.27032;14.73999;22570.14;13387.83;0.06704234;-0.04280785;0;
14238.06;10283.77;276.5687;17523.19;-17.97277;12.04598;15046.69;7488.649;0.6516811;0.08716984;0;
-8614.138;-6377.365;476.1123;-10716.86;-19.22751;11.69896;-9801.416;-4958.841;0.2612222;0.02211491;0;
-14479.67;-9398.513;221.4804;-19814.36;-9.227859;11.82117;-16287.35;-6865.507;0.001090343;-0.04287465;0;
-12508.2;-8103.34;97.33575;-17444;-5.802335;11.54137;-14020.68;-6294.829;0.3259259;0.3469725;0;
-22009.13;-15988.39;53.80664;-27148.48;-11.22151;8.582642;-23553.65;-11544.86;0.1956638;0.4115912;0;
-3861.797;-2915.135;-228.4337;-6752.799;-9.669995;6.564529;-4296.229;-2779.271;0.06553249;-0.2384958;0;
18302.2;13537.57;-337.6804;21475.63;-12.87546;10.57679;19605.97;10171.01;0.2603687;-0.3032235;0;
17985.74;13244.8;-123.0113;23281.05;-12.05824;10.23125;19650.5;10710.84;-0.129697;-0.3678862;0;
17732.63;13317.74;12.95025;22202.86;-19.74928;9.015272;19136.42;10597.26;-0.4544034;-0.3025492;0;
20689.05;15883.58;-9.941888;25770.69;-24.15007;9.14018;22323.99;13186.63;0.260694;0.02259154;0;
14459.55;10445.39;254.8569;17821.29;-6.443284;4.174441;15328.08;7639.648;0.3903667;0.2824382;0;
-8153.4;-6090.64;474.6152;-10181.44;-4.628148;3.09852;-9271.558;-4760.174;-0.1947316;0.3471218;0;
-14425.64;-9262.376;236.2579;-19823.83;-1.408317;3.162389;-16241.01;-6694.979;-0.1295686;0.151871;0;
-13372.73;-8919.486;114.6284;-18299.16;4.621318;3.025246;-14883.14;-6916.246;0.1304309;-0.1731184;0;
-24288.51;-18096.2;34.49093;-29375.97;-18.3581;2.88824;-25831.95;-13184.64;-0.1945368;-0.2379118;0;
-5944.575;-4425.071;-264.2686;-8963.194;-23.89839;2.751372;-6440.761;-3758.579;-0.06440666;-0.04277068;0;
17817.54;13277.95;-323.3482;20876.19;-7.464654;9.379735;19086.01;9992.85;0.3254621;0.3470764;0;
17929.16;13119.2;-104.8205;23237.03;-6.652871;11.44678;19600.14;10529.3;0.130233;0.5416296;0;
17651.4;13261.59;-9.419311;22120.27;-9.995089;13.64572;19055.91;10584.64;-0.06479984;0.4761181;0;
20781.46;15975.11;-34.97512;25849.98;-9.31546;16.7131;22420.19;13248.83;0.0002326178;0.150803;0;
14367.6;10371.21;245.6377;17687.97;-11.11476;11.13684;15203.12;7618.405;0.06519973;-0.1741853;0;
-8721.907;-6646.002;470.2935;-10763.23;-12.17532;10.9247;-9882.662;-5164.938;0.3899709;-0.2389776;0;
-15761.12;-10194.93;224.1163;-21116.89;-4.660998;11.11468;-17575.98;-7393.515;0.2596444;0.1510666;0;
-14974.18;-10018.66;105.7786;-19865.74;-1.775926;9.361951;-16449.44;-7699.819;-0.06545321;0.4107842;0;
-25406.21;-19151.78;39.28383;-30519.54;-11.01754;15.38089;-26931.11;-14079.36;-0.2602895;0.08553467;0;
-6534.284;-4889.52;-273.7233;-9741.336;-11.67703;16.03526;-7092.974;-4213.536;-0.4549299;-0.1744206;0;
17570.54;13126.67;-354.6731;20490.03;-10.59357;12.87107;18791.93;9844.524;-0.1946035;0.02065664;0;
17790.82;12942.77;-117.1703;23104.47;-12.05582;12.79116;19465.63;10349.39;0.1304288;0.1505706;0;
17445.46;13082.2;21.47157;21912.3;-3.939383;7.017894;18849.94;10407.85;0.0003630411;-0.1094501;0;
20538.36;15691.38;22.184;25603.2;-1.523551;4.130637;22169.88;12965.38;0.06533002;-0.1743075;0;
13783.74;10019.3;280.7192;17035.67;-5.407762;6.939709;14569.33;7279.031;0.3251337;0.08573705;0;
-9992.739;-7504.778;437.9674;-12082.45;-4.731767;5.392128;-11163.72;-5963.381;0.2598397;0.1506183;0;
-16815.47;-10974.82;153.7325;-22131.51;-3.455191;3.3103;-18584.35;-8171.666;0.1946113;0.2804016;0;
-14898.25;-9696.255;52.45693;-19804.54;-2.714785;1.565479;-16372.38;-7488.154;-0.130421;0.2801199;0;
-24913.39;-18642.74;19.74876;-30029.4;-5.190303;0.5591618;-26440.16;-13632.38;-0.520094;-0.1099657;0;
-6357.437;-4854.23;-255.0236;-9489.098;-6.457886;-0.5800489;-6886.534;-4145.055;-0.259702;-0.1748225;0;
17520.29;13041.28;-303.4772;20498.63;-0.48955;-3.727603;18759.9;9771.742;0.1953303;-0.2396142;0;
17598.06;12762.78;-60.93469;22930.99;0.9174615;-4.259721;19273.22;10171.78;0.2601014;-0.2393734;0;
17159.55;12790.25;43.65212;21649.32;-4.173675;-7.202629;18565.69;10120.97;-0.2598987;0.02073645;0;
20167.85;15331.59;9.266144;25256.38;-4.437901;-7.128408;21803.27;12607.59;-0.5195069;-0.3690884;0;
13570.15;9784.876;272.2496;16811.31;-5.973683;-6.853314;14374.29;7052.616;0.06572116;-0.4986522;0;
-10183.67;-7687.116;447.6222;-12245.87;-8.513276;-6.377547;-11320.99;-6142.216;0.4554592;-0.3682165;0;
-17786.8;-11578.14;172.7478;-22989.04;-2.811295;2.269415;-19537.14;-8587.094;0.1951322;-0.2379119;0;
-16215.83;-10673.11;67.51769;-21021.68;-3.947546;5.14734;-17671.83;-8148.307;-0.194868;-0.04277078;0;
-25627.44;-19342.5;16.66287;-30727.32;-6.756619;13.04603;-27146.53;-14234.96;0.06519721;0.1521742;0;
-6706.721;-5069.749;-265.4777;-9903.323;-8.558491;19.06114;-7264.111;-4403.203;0.1950664;0.476858;0;
17265.6;12879.84;-324.6342;20185.13;-14.30969;9.999538;18487.59;9614.193;-0.454803;0.1515422;0;
17494.08;12621.51;-95.78223;22825.58;-15.29969;9.788542;19176;10033.27;-0.3893787;0.2163573;0;
17091.96;12744.01;28.04869;21581.15;-17.62884;14.19946;18499.44;10071.49;-0.4539548;0.1511725;0;
20096.17;15238.22;11.357;25178.71;-11.24812;12.84565;21729.92;12526.15;-0.7783354;-0.3687181;0;
13481.67;9787.831;272.5112;16753.52;-35.08225;15.98082;14302.29;7043.469;0.002054807;0.02145641;0;
-10351.31;-7742.119;452.8497;-12371.19;-39.86977;15.76382;-11460.51;-6184.666;0.3918568;0.1513695;0;
-17713.27;-11595.74;170.8799;-22961.66;6.588365;9.585669;-19456.34;-8637.059;0.001659003;0.02128275;0;
-15851.07;-10377.32;49.11311;-20727.67;13.88276;7.76762;-17311.14;-8015.095;-0.3881467;0.1511961;0;
-25790.59;-19436.01;-2.785178;-30884.29;48.49789;0.9276775;-27307.78;-14263.04;-0.7125934;-0.4336619;0;
-7246.749;-5490.386;-278.6906;-10457.62;68.94569;-3.694955;-7806.394;-4588.921;-0.452008;-0.5631608;0;
17168.53;12838.05;-327.995;20055.45;34.71585;0.4615776;18389.01;9593.36;-0.0617498;0.2170131;0;
17538.04;12650.3;-93.86107;22864.11;36.48963;-1.213399;19216.57;10042.27;0.1332143;0.1518277;0;
16920.33;12576.82;26.01679;21406.25;27.74543;-4.025402;18325.64;9916.708;0.06811308;-0.4330309;0;
19916.48;15057.62;3.642502;24998.16;21.22082;-5.026101;21552.47;12335.09;-0.1268574;-0.04279178;0;
13342.28;9645.823;262.009;16563.39;21.26587;-7.298409;14150.13;6908.788;0.0681721;0.671892;0;
-10695.05;-8047.121;436.0643;-12776.59;13.80976;-7.62599;-11821.63;-6510.834;0.2630056;0.4763148;0;
-18156;-11918.04;139.853;-23413.76;28.59899;-10.2306;-19916.02;-8934.633;-0.3219647;-0.1738372;0;
-16150.16;-10561.19;29.62715;-20993.56;29.44091;-10.89009;-17608.21;-8146.141;-0.3866085;-0.1086952;0;
-26155.82;-19780.61;-5.869164;-31245.07;29.00918;-9.807482;-27676.16;-14598.97;0.003583972;0.2812181;0;
-7603.773;-5802.394;-294.4057;-10944.5;32.53001;-10.93628;-8244.327;-4877.168;-0.256289;0.2159682;0;
16989.98;12683.13;-339.7432;19765.31;19.6366;-3.423381;18146.57;9450.424;-0.1260968;0.02084915;0;
17376.59;12486.5;-99.91285;22715.46;16.53639;-1.142583;19064.33;9871.087;0.1988666;-0.1091065;0;
16766.29;12429.25;-5.453638;21251.8;22.2132;-5.696152;18169.53;9771.135;-0.3210719;-0.3688662;0;
19835.74;14958.85;-25.45373;24902.82;20.91808;-4.55178;21465.04;12231.26;-0.3857167;-0.1086262;0;
13041.18;9512.218;262.3022;16298.45;18.01667;-10.03968;13851.27;6792.748;-0.1904271;0.2163197;0;
-11432.97;-8554.654;428.7361;-13462.19;16.59205;-11.36919;-12556.03;-6925.436;-0.1252684;0.151135;0;
-18867.73;-12544.97;117.8051;-24110.98;16.24059;-8.142651;-20612.6;-9422.5;0.2646615;0.02104839;0;
-16843.09;-11215.73;11.63071;-21697.64;16.62641;-8.60335;-18297.24;-8726.002;0.1994283;-0.1738748;0;
-27087.02;-20673.33;-22.23896;-32147.44;7.432675;-4.173953;-28603.03;-15394.88;-0.1905762;-0.3036348;0;
-8149.045;-6234.41;-303.4659;-11408.6;2.870856;-3.298981;-8756.778;-5170.978;0.004517341;0.1514418;0;
16947;12719.28;-344.8587;19770.9;16.46465;-1.554171;18124.79;9502.188;-0.2553566;0.2162569;0;
17367.36;12449.94;-94.9814;22707.18;17.38611;-0.6818313;19053.7;9821.851;-0.5799367;-0.1737644;0;
16842.2;12508.23;10.31116;21325.57;15.22519;-2.556668;18248.12;9856.131;0.005352109;-0.2385572;0;
20119.09;15253.43;-21.4801;25184.08;18.35772;-2.420133;21752.27;12526.75;0.07031407;0.08651923;0;
13489.21;9836.802;263.4764;16801.32;1.594764;-11.32619;14321.4;7108.292;-0.05969126;0.02146495;0;
-10977.68;-8283.917;446.026;-12941.28;-2.426302;-15.73556;-12078.54;-6721.512;0.3301728;-0.04352396;0;
-18732.2;-12428.69;145.588;-23963.85;6.886886;-9.825433;-20481.54;-9296.227;0.3948084;-0.04348022;0;
-17267.38;-11620.84;18.63046;-22050.19;5.674517;-10.48539;-18702.29;-9075.023;0.1995096;0.02153081;0;
-28016.62;-21549.18;-60.61407;-33039.31;15.38073;-13.95784;-29515.12;-16175.16;0.06937446;-0.1733928;0;
-8971.262;-6836.647;-368.7108;-12395.08;19.91963;-12.93914;-9627.505;-5601.041;-0.1905646;-0.4980553;0;
16728.18;12602.66;-405.5403;19420.59;12.66594;-20.96384;17867.88;9430.175;-0.1254058;-0.4975549;0;
17409.79;12466.95;-132.7229;22767.29;14.39453;-23.82298;19101.61;9819.562;0.06962225;-0.1722182;0;
16859.59;12530.77;-0.6246203;21350.22;15.45179;-10.00093;18264.38;9885.188;0.1345196;0.02285684;0;
20058.43;15185.47;-26.5797;25123.13;16.50799;-7.98139;21688.13;12464.36;0.4592212;-0.2370355;0;
13472.68;9854.832;253.7592;16764.98;17.96527;-5.093227;14295.79;7109.396;0.7186291;-0.2367973;0;
-11029.62;-8263.64;449.3589;-13009.77;17.94722;-1.270143;-12134.75;-6764.621;0.1981683;0.2831794;0;
-19123.54;-12667.06;146.7156;-24315.73;25.63235;-9.038704;-20866.16;-9539.895;-0.2568022;0.3478622;0;
-17464.23;-11678.16;4.030417;-22249.09;27.88377;-8.627724;-18904.28;-9124.872;0.2631946;0.2175779;0;
-28222.64;-21713.72;-68.10925;-33253.14;26.04709;-12.10211;-29717.38;-16221.88;0.3928648;0.08742462;0;
-9592.025;-7325.422;-364.0639;-12974.58;27.29371;-14.50127;-10231.72;-5863.53;-0.2572034;0.1523041;0;
16427.4;12384.79;-389.4664;19131.95;20.36741;-7.252726;17569.86;9258.17;0.2627938;0.4120205;0;
17265.04;12292.32;-121.8812;22613.99;16.66228;-7.245439;18954.46;9613.372;0.6523338;0.0218024;0;
16480.56;12161.45;-5.051788;20972.29;23.00952;-2.21456;17887.42;9536.668;-0.2578645;-0.3680235;0;
19753.32;14871.59;-13.54244;24814.5;21.71361;1.471665;21382.01;12142.44;-0.4525074;-0.3676538;0;
13179.14;9621.845;274.6076;16466.84;14.79291;-9.112873;14010.53;6881.724;0.3275554;-0.4322517;0;
-11490.46;-8605.604;446.1671;-13471.02;11.89766;-10.5103;-12578.05;-7042.914;0.5870956;-0.36685;0;
-19342.93;-12916.39;136.9053;-24528.92;8.268382;-5.074301;-21073.97;-9780.396;-0.06316771;-0.5613834;0;
-17006.06;-11279.97;12.70512;-21803.87;5.580757;-5.872937;-18442.35;-8806.381;-0.3879409;-0.3659173;0;
-27323.86;-20871.46;-32.87849;-32364.39;2.025176;-0.3745574;-28815.09;-15570.81;-0.1276818;0.1541891;0;
-8810.307;-6724.778;-313.3607;-12126.34;-0.1203127;1.635246;-9428.744;-5532.878;-0.3874229;0.08906682;0;
16731.77;12604.47;-349.3089;19502.49;-0.6560553;-4.930603;17893.91;9405.097;-0.2570989;0.1539447;0;
17351.41;12399.29;-91.72779;22697.02;-1.593401;-5.059614;19039.2;9760.229;0.1329635;-0.3659488;0;
16633.75;12303.52;24.18116;21127.45;0.2168611;-6.863008;18038.46;9656.032;-0.06207212;-0.3006137;0;
19841.99;14972.02;-11.10666;24912.48;-0.3855931;-8.19571;21473.42;12251.38;-0.1269771;0.2843944;0;
13372.62;9723.049;252.4283;16682.63;8.121261;-5.843133;14199.71;6966.095;0.2629545;-0.1056954;0;
-10944.99;-8185.365;431.2409;-12863.18;12.60108;-6.908989;-12049.14;-6688.279;0.1327556;0.2192475;0;
-18742.88;-12386.45;123.993;-23900.15;1.937521;-3.552961;-20492.62;-9319.499;0.1326222;0.738766;0;
-16615.07;-10958.93;1.289447;-21408.53;3.07465;-3.549391;-18074.56;-8567.914;0.4573257;0.1533176;0;
-26989.45;-20571.16;-21.13808;-31992.46;0.1911725;-3.947722;-28507.17;-15341.16;0.06706212;-0.1067059;0;
-8557.74;-6584.572;-289.6537;-11870.28;-2.086195;-3.005995;-9189.577;-5429.252;-0.257842;-0.04163129;0;
16831.9;12626.24;-342.5547;19568.72;12.71901;-12.3804;17987.28;9430.111;-0.1276482;-0.1065568;0;
17498.52;12563.56;-92.8827;22851.84;15.11712;-14.7123;19186.53;9928.896;-0.1924873;0.3483217;0;
16856.93;12518.01;31.60123;21355.38;14.76714;-14.63054;18258.85;9860.715;-0.2572612;0.3479717;0;
20014.04;15153.38;-17.4059;25089.47;15.22179;-17.02716;21643.5;12452.03;-0.3869374;0.02278531;0;
13755.69;10032.91;225.2552;17125.91;15.54129;-10.57981;14601.7;7231.652;0.003255446;0.2176645;0;
-10164.22;-7556.504;436.4851;-12065.37;15.45833;-9.36355;-11268.1;-6193.386;0.2631215;-0.2373257;0;
-17975.97;-11828.28;176.7394;-23165.04;4.591804;-10.62676;-19742.84;-8870.438;-0.1269469;-0.3020545;0;
-15952.95;-10490.84;41.59838;-20780.15;2.242665;-9.477429;-17421.92;-8202.154;-0.1268193;0.6077918;0;
-26257.74;-19912.29;-6.231899;-31319.68;-12.62907;-9.668856;-27788.54;-14805.1;0.1331775;0.412279;0;
-8020.341;-6179.582;-281.9777;-11342.99;-21.9935;-8.587414;-8650.835;-5137.549;0.003108957;0.02206071;0;
17009.67;12733.23;-357.8592;19769.4;-0.6715604;-10.72218;18170.54;9499.414;-0.4516656;-0.0429288;0;
17569.55;12664.23;-118.4635;22915.48;1.673639;-11.1133;19254.54;10047.68;-0.2563097;-0.2377877;0;
17019.4;12661.88;31.08044;21503.14;-7.706141;-6.547417;18417.94;9995.857;0.1987192;-0.1725814;0;
20118.06;15277.83;7.826506;25183.42;-6.559322;-4.397446;21745.55;12577.93;0.003617536;-0.04247333;0;
13951.85;10124.03;267.3132;17323.68;-8.092973;-9.416625;14798.31;7311.216;0.06858125;0.02253669;0;
-9665.716;-7241.821;466.866;-11598.25;-8.018468;-10.61279;-10789.36;-5925.214;0.2634144;0.1524487;0;
-17456.32;-11387.58;162.862;-22710.03;-1.647398;-0.6889012;-19252.73;-8513.848;0.3930843;0.2822303;0;
-15477.96;-10114.23;29.46845;-20322.2;2.373721;1.321218;-16968.09;-7959.536;0.4576567;0.08704462;0;
-26090.54;-19741.69;4.951153;-31145.56;-5.398196;-0.3546219;-27640.71;-14651.75;-0.06254186;-0.1729122;0;
-8257.946;-6307.61;-284.2678;-11629.17;-5.995985;1.320247;-8899.234;-5167.473;0.002488324;0.02216356;0;
16956.96;12688.59;-351.9012;19662.98;3.186092;-4.642439;18115.04;9475.955;0.1324205;0.152076;0;
17624.35;12712.38;-99.28376;22959.72;2.245861;-5.977372;19307.73;10086.81;-0.1925493;-0.1079462;0;
16905.27;12555.93;23.61365;21388.48;9.610995;-3.225127;18307.26;9899.247;0.327383;-0.1728051;0;
20084.83;15231.68;-7.800546;25141.81;7.993748;-3.288869;21712.08;12528.9;0.6518907;0.08723792;0;
13925.43;10131.75;276.4706;17280.97;6.981338;-4.290308;14772.9;7334.099;0.2614316;-0.04278442;0;
-9981.088;-7492.439;483.4949;-11888.57;6.504832;-5.156714;-11071.35;-6168.128;0.456071;-0.2376435;0;
-18101.79;-11853.34;180.9578;-23321.34;-19.62432;0.4078676;-19861.77;-8909.314;0.1957433;-0.04250264;0;
-16369.82;-10794.11;46.73397;-21214.72;-25.09695;1.546168;-17832.11;-8475.092;-0.3241921;-0.1723946;0;
-26844.98;-20476.18;-10.92466;-31919.43;-46.17051;0.2719384;-28370.53;-15241.34;-0.1289643;-0.1072541;0;
-8586.223;-6619.041;-326.2239;-12023.64;-57.77939;1.343392;-9247.304;-5389.473;-0.1938021;0.2176904;0;
16803.3;12584.04;-401.3738;19467.04;-30.25857;-2.877761;17939.33;9391.625;-0.1936073;0.1525044;0;
17491.39;12566.24;-164.2145;22838.4;-26.61085;-3.142801;19180.21;9934.302;0.001489234;-0.04255091;0;
16874.48;12532.41;-32.36573;21361.36;-19.28309;-3.943438;18278.73;9880.514;-0.323349;0.2173612;0;
19999.01;15128.88;-45.77957;25066.06;-11.56153;-4.073442;21627.11;12433.83;-0.3879914;0.4120449;0;
13603.23;9927.267;224.0683;16968.36;-3.846754;-3.19857;14452.91;7123.388;0.1321372;-0.30301;0;
-10222.77;-7515.555;425.8041;-12129.68;3.324407;-4.267083;-11300.06;-6197.046;0.1969717;-0.7574769;0;
-18106.92;-11833.14;147.5316;-23315.88;0.9765417;5.650434;-19851.06;-8793.308;0.1318065;0.08785968;0;
-16232.8;-10701.67;27.33431;-21084.14;3.252736;7.520279;-17685.57;-8288.222;0.5214781;0.4126081;0;
-26604.63;-20217.48;-12.09522;-31687.54;-5.18965;6.574961;-28119.97;-14999.98;0.2610847;-0.2374799;0;
-8517.864;-6524.268;-298.6265;-11922.26;-9.002829;8.376894;-9176.251;-5316.835;-0.583753;-0.4321433;0;
16796.26;12602.57;-373.3356;19488.02;-7.519914;-0.07118967;17928.99;9411.139;-0.5181991;-0.1068724;0;
17589.91;12659.42;-129.0519;22929.41;-8.450362;-0.6739645;19276.87;10026.15;0.002060289;-0.04179765;0;
16852.6;12501.77;26.39036;21331.56;-17.08206;-8.711056;18252.77;9848.956;-0.06290912;-0.3665923;0;
20017;15168.27;7.154747;25075.78;-18.94091;-12.78814;21644.59;12471.22;-0.1927806;-0.561126;0;
14004.13;10203.48;256.0849;17359.88;-13.96538;-3.397924;14855.38;7399.389;0.1322498;0.02414386;0;
-10006.73;-7506.608;443.6551;-11910.51;-15.22415;-4.198305;-11103.57;-6184.222;0.06714959;0.5438583;0;
-18281.41;-12042.16;155.0729;-23508.46;4.349679;4.848426;-20052.03;-9036.898;-0.3227219;0.1535078;0;
-16260.62;-10723.31;15.98689;-21121.35;10.64195;8.393589;-17725.71;-8383.189;-0.06252829;-0.1714831;0;
-26865.38;-20470.14;-52.41668;-31946.27;4.134521;3.361496;-28394.84;-15230.98;0.06746922;-0.2362782;0;
-8968.307;-6904.103;-346.3881;-12472.43;7.144476;5.300562;-9643.224;-5620.729;-0.38737;-0.3659754;0;
16629.25;12445.41;-396.7021;19218.98;-1.302796;-3.61325;17755.2;9262.003;-0.3220134;0.02419634;0;
17469.77;12527.73;-138.9328;22820.85;-2.909077;-6.221892;19156.83;9892.109;0.06811422;0.4139761;0;
16845.03;12504.1;2.198398;21328.84;-7.661576;-4.072248;18242.05;9850.686;-0.1268562;0.6084622;0;
20045.22;15179.09;-15.60736;25097.68;-11.94079;-6.412498;21668.1;12490.89;-0.2566635;0.2830141;0;
13842.1;10101.82;255.9593;17238.69;-2.685387;-1.516422;14697.74;7271.756;0.0034638;-0.2370091;0;
-9988.763;-7367.146;453.1654;-11880.89;-1.812032;-1.313949;-11078.44;-6138.048;0.00346032;-0.1718036;0;
-18037.52;-11821.25;170.5862;-23293.04;-2.346075;-1.647544;-19815.08;-8856.011;0.1983589;0.1532058;0;
-16018.79;-10558.91;52.72398;-20916.79;-0.06654208;-0.9090762;-17500.92;-8261.688;0.3930616;0.4129212;0;
-26490.17;-20126.7;-4.081726;-31606.67;-3.817519;-4.324231;-28035.7;-14985.22;0.06782992;0.3475389;0;
-8639.078;-6636.561;-311.0171;-12118.19;-4.88541;-4.654801;-9331.06;-5410.579;-0.5169443;0.02235303;0;
16757.73;12558.18;-365.6457;19379.55;6.17156;-7.7982;17871.52;9364.512;-0.7113269;-0.1725715;0;
17583.99;12651.15;-102.3011;22922.31;9.246818;-9.330972;19272.37;10018.27;-0.5806774;-0.2373654;0;
16890.34;12542.08;22.53585;21361.8;1.132226;-6.508373;18288.94;9884.624;0.004612065;0.1526772;0;
20109.37;15251.77;-17.57602;25152.63;1.064715;-6.099936;21731.15;12564.81;0.1995095;0.2174911;0;
