Fp1;Fp2;O1;O2;POLY3;POLY4;A1;A2;Video;Audio;event;
-17302.06;-10586.09;-33.68685;-20507.64;-4.876143;9.312057;-17952.83;-8025.664;0.04924525;0.1010892;0;13:14:40 Глаза закрыты;
-25450.57;-18281.35;4.015566;-28483.73;-5.207012;9.77158;-26058.02;-13085.21;0.5039672;0.4907917;0;
-16677.85;-12480.34;-223.0931;-19545.87;-5.000709;1.456;-17089.63;-9361.285;0.1786241;0.1654618;0;
14099.5;10360.06;-413.5231;14699.28;-5.263128;-1.090693;14586.01;7456.281;0.1134772;0.2302629;0;
20878.63;14345.69;-198.5748;24439.58;-8.74144;-1.826409;21968.17;11324.25;0.2432979;0.1650642;0;
17972.63;12359.04;27.33943;21150.1;-10.54034;-3.901045;18895.83;9549.927;-0.3416526;-0.2249057;0;
20738.19;14673.05;5.432333;24066.61;-6.913404;-0.5479783;21741.7;11871.08;-0.2113747;0.100157;0;
18657.67;13204.08;180.745;21542.57;-6.303246;1.060041;19424.74;9959.093;0.1136744;0.2949584;0;
-5551.916;-4294.91;477.0706;-5714.979;-9.378371;-3.763674;-5862.217;-3970.902;-0.1463092;-0.03017474;0;
-23129.41;-15870.13;247.066;-26117.98;-8.966805;-4.228772;-23981.2;-11879.42;-0.01622746;0.09979028;0;
-17661.25;-10830.1;-5.586651;-20880.49;-9.895801;5.554741;-18317.94;-8171.528;0.1786909;0.2296247;0;
-26081.07;-18852.73;2.118218;-29120.88;-10.22065;8.094511;-26696.33;-13650.09;0.1785113;0.09945928;0;
-16878.9;-12636.32;-234.8429;-19772.18;-3.646297;10.16273;-17297.06;-9567.717;0.04839727;-0.0955427;0;
13998.77;10329.55;-421.6379;14574.25;-1.097038;13.16675;14481.86;7418.442;0.1782833;-0.2903487;0;
20811.52;14282.96;-219.8624;24366.86;-6.320848;8.933714;21897.27;11253.51;0.3080389;-0.290057;0;
18018.91;12406.06;13.77248;21188.42;-8.123158;9.393618;18939.01;9601.698;-0.08207471;0.2299732;0;
20735.85;14677.39;5.793891;24057.3;2.200131;8.111504;21738.43;11863.25;-0.4068289;0.3596768;0;
18610.46;13185.73;197.5042;21512.54;3.805511;7.098609;19378.4;9953.068;-0.2115181;0.0344787;0;
-6092.392;-4772.081;505.8538;-6208.173;-3.565703;10.10559;-6397.938;-4307.411;-0.08137092;0.09941141;0;
-23919.65;-16636.12;257.5482;-26878.96;-3.763191;10.2294;-24762.42;-12561.2;0.04864553;0.1642789;0;
-17770.77;-10938.33;-12.57496;-21004.8;-16.15064;10.42007;-18416.45;-8332.102;0.308466;-0.3556249;0;
-26065.71;-18827.08;-17.59105;-29122.2;-22.63212;10.34262;-26668.39;-13560.53;0.5030581;-0.2253329;0;
-17235.75;-12959.61;-257.7964;-20142.73;-11.2889;12.20774;-17647.95;-9702.247;0.4375853;0.4245669;0;
13883.6;10218.72;-427.3738;14448.63;-11.94812;12.73134;14362.02;7379.358;0.3072109;0.0993036;0;
20872.76;14332.58;-222.5784;24435.16;-16.02195;11.91475;21952.05;11283.52;0.2419349;-0.4205349;0;
17944.32;12339.39;6.701997;21115.46;-15.53636;13.10847;18859.56;9540.791;0.3066591;-0.4850797;0;
20656.39;14579.33;9.303327;23978.19;-23.35763;5.928252;21657.45;11757.32;0.1764163;-0.2896903;0;
18451.9;13090.64;194.1073;21321.96;-26.1472;3.71198;19213.04;9868.559;0.04630436;-0.1594645;0;
-6378.789;-4966.366;479.7217;-6577.441;-19.75792;10.33932;-6695.357;-4484.867;-0.1486442;0.1005651;0;
-24271.01;-16900.79;225.4923;-27260.03;-20.14021;10.46289;-25111.57;-12742.85;-0.0835275;0.4253007;0;
-18516.63;-11557.48;-34.10393;-21703.48;-15.16348;14.73929;-19155.62;-8766.63;0.1764258;0.4898407;0;
-27236.61;-19935.57;-42.09688;-30247.08;-10.32547;17.73859;-27824.38;-14580.77;-0.0186535;0.2944465;0;
-18148.61;-13675.98;-307.2494;-21063.68;-26.05523;12.5632;-18539.81;-10388.69;-0.6033408;0.2291833;0;
13488.29;10022.4;-477.0427;14011.22;-28.03878;13.6223;13969.05;7215.456;-0.7326693;0.3588877;0;
20675.23;14109.08;-256.6739;24222.22;-16.02151;14.01051;21753.25;11053.88;0.04767501;-0.09624429;0;
17788.6;12184.5;-35.18341;20961.28;-15.00006;13.92945;18704.78;9384.187;0.3724638;-0.4209843;0;
20565.12;14479.88;-44.86193;23888.02;-5.139353;19.87682;21564.44;11659.16;0.04725286;0.2291121;0;
18293.74;12961.78;142.0892;21144.54;-0.3777908;21.06241;19048.18;9748.91;0.2421074;0.5537186;0;
-7003.059;-5472.315;431.3478;-7218.667;-5.066461;22.51488;-7329.521;-4912.708;0.2418641;0.2932929;0;
-25124.91;-17747.24;171.6229;-28085.38;-3.65485;23.02811;-25958.23;-13366.99;0.1116864;-0.03183853;0;
-18882.26;-11959.54;-89.12172;-22063.18;0.5683811;23.07196;-19523.5;-9037.883;0.2415089;-0.2267086;0;
-27486.14;-20192.29;-80.53644;-30481.91;4.519925;23.38369;-28080.19;-14777.54;0.04636419;0.0333886;0;
-18654.55;-14111.18;-311.3863;-21502.83;-10.15302;16.66202;-19025.49;-10562.28;0.1112849;0.09832241;0;
13287.89;9929.856;-458.6867;13831.89;-13.89387;14.83674;13776.37;7254.91;0.1111731;-0.4215151;0;
20704.71;14147.91;-240.4759;24248.04;0.05156726;11.80772;21778.37;11044.26;-0.2787426;-0.3561243;0;
17726.08;12110.29;-13.25463;20905.28;-1.086584;9.786372;18645.28;9323.192;-0.01859318;0.2289397;0;
20547.55;14477.25;-9.36826;23861.73;11.64053;11.38413;21544.46;11652.62;0.1763275;0.1637423;0;
18374.39;13029.04;179.9522;21240.33;16.25054;10.76984;19135.99;9805.348;0.04621566;-0.09629162;0;
-6671.852;-5149.706;485.5708;-6880.936;2.972319;15.24676;-6993.095;-4684.195;0.565908;0.03373982;0;
-24871.34;-17450.72;242.6579;-27834.1;3.170403;16.10221;-25715.06;-13174.94;0.4354047;0.228608;0;
-19117.11;-12156.1;-39.97521;-22261.71;-6.746744;19.70311;-19753.21;-9110.798;-0.4745756;0.2933456;0;
-27530.64;-20228.86;-52.17889;-30532.75;-9.955146;21.35777;-28121.02;-14806.24;-0.3441641;-0.2266879;0;
-18237.38;-13725.74;-290.2255;-21117.46;-11.48538;17.5184;-18623.75;-10464.84;-0.08394891;-0.4213622;0;
13479.71;10070.39;-449.1976;14041.94;-15.96182;17.16588;13963.29;7265.051;0.04607013;-0.03113472;0;
20696.26;14131.95;-228.3883;24249.5;1.000776;12.32599;21769.35;11067.71;0.5007952;-0.03110344;0;
17881.62;12267.83;-2.178616;21059.26;4.750815;10.57205;18796.06;9463.844;0.30539;-0.1610069;0;
20657.85;14593.36;-15.3573;23977.61;1.731931;7.346364;21653.97;11774.43;-0.01975356;0.03405694;0;
18473.93;13071.55;173.2352;21347.92;4.342159;5.530443;19230.65;9840.912;0.110201;0.1639574;0;
-6399.066;-5010.207;484.9513;-6543.727;2.462762;6.663596;-6716.671;-4557.571;0.2400249;0.1637927;0;
-24456.56;-17098.7;242.3669;-27364.59;3.129873;5.518191;-25288.54;-12884.99;0.1748164;-0.226176;0;
-18457.52;-11507.53;-31.83267;-21615.55;-0.2221745;13.81841;-19100.97;-8714.79;0.04470606;-0.4208507;0;
-27145.08;-19857.23;-45.85612;-30102.11;-1.562098;16.61768;-27740.2;-14460.53;-0.08527354;-0.1605585;0;
-18576.88;-14034.23;-292.0612;-21381.91;-2.83235;15.26133;-18954.18;-10441.92;-0.2151225;-0.09542983;0;
13173;9803.714;-453.3741;13737.87;-4.839236;17.45643;13654.24;7142.254;-0.4098084;0.1645354;0;
20663.8;14101.81;-216.631;24214.89;1.930781;14.08986;21733.46;10996.76;-0.08455992;0.1643701;0;
17672.22;12059.8;33.97641;20866.01;4.809228;13.87476;18589.9;9266.56;0.3053291;-0.2905664;0;
20494.61;14420.6;-5.600358;23824.56;-1.090102;13.25797;21491.41;11603.33;-0.1497491;-0.1603398;0;
18422.64;13076.62;143.3616;21283.64;0.451235;11.16818;19179.11;9830.343;-0.2795333;-0.03024401;0;
-6563.226;-5036.861;462.2135;-6751.416;2.594235;16.64944;-6876.266;-4606.845;0.1105516;-0.09518096;0;
-24408.97;-17013.64;234.5664;-27333.99;2.725351;17.16857;-25224.86;-12894.17;-0.2793635;0.03484936;0;
-18310.51;-11401.46;-29.1931;-21452.15;15.24854;10.6541;-18929.53;-8737.284;-0.6039195;-0.030153;0;
-27217.03;-19937.3;-29.42925;-30193.16;18.24733;9.035922;-27801.95;-14638.53;0.04636072;-0.09509005;0;
-18534.16;-13931.14;-277.9935;-21378.3;19.36807;8.490979;-18916.67;-10477.14;0.3061835;0.2298422;0;
13194.49;9878.523;-452.5013;13762.29;22.63016;7.343737;13678.45;7129.117;-0.01896086;0.09967659;0;
20555.36;13983.95;-244.8695;24111.87;10.68471;3.384487;21627.44;10894.87;-0.08390915;0.1645438;0;
17715.38;12108.23;-23.26597;20895.93;7.994654;0.5678033;18630.2;9319.708;-0.2787269;0.2943131;0;
20516.56;14422.12;-37.56352;23839.99;7.183314;5.523848;21511.64;11584.9;-0.3434141;0.09911538;0;
18073.83;12798.97;158.0009;20928.6;3.626122;5.1164;18821.08;9583.575;0.1117023;-0.09588625;0;
-7479.76;-5774.074;480.3207;-7680.703;6.301796;3.50379;-7808.033;-5206.562;0.1765574;0.03414478;0;
-25407.56;-17951.95;233.1183;-28339.71;4.353081;3.835185;-26239.21;-13607.21;-0.1484567;-0.03085687;0;
-18981.23;-12056.97;-44.82005;-22119.92;5.084665;-0.7904915;-19616.59;-9152.274;-0.08334018;-0.09579321;0;
-27834.9;-20530.59;-57.95589;-30828.07;4.2089;-1.057507;-28431.19;-15127.2;-0.2131911;0.09920508;0;
-18934.66;-14330.71;-302.4154;-21797.06;2.731778;-3.132915;-19314.92;-10848.03;-0.3429116;-0.2257313;0;
13182.09;9864.663;-446.5858;13748.68;2.527963;-3.330716;13672.17;7142.864;0.04723701;-0.2904719;0;
20598.47;14017.69;-210.6616;24141.62;-2.43107;0.6245017;21667.18;10918.66;0.3720263;0.3594935;0;
17603.82;12000.05;10.78258;20768.74;-2.294906;2.030516;18512.36;9206.498;0.1117831;0.2941649;0;
20316.01;14216.86;-27.64645;23635.85;-11.536;8.994578;21309.85;11366.98;-0.08323127;0.09896728;0;
18029.62;12769.42;151.9942;20843.36;-15.87867;12.6025;18766.47;9575.661;0.1767217;0.09886784;0;
-7764.318;-6054.678;462.9351;-8051.458;-0.1215996;15.87188;-8120.417;-5447.352;0.2415115;-0.1611009;0;
-26447.18;-19002.66;190.3879;-29424.21;2.088349;19.60685;-27309.11;-14392.6;-0.01860054;0.03396302;0;
-20054.57;-13137.49;-99.82946;-23185.27;2.555742;18.71649;-20714.55;-9795.877;-0.3434186;0.2937983;0;
-28569.12;-21296.92;-101.8687;-31587.35;5.701005;20.84102;-29190.91;-15738.06;-0.4730082;-0.03133366;0;
-19716.29;-14974.73;-338.7722;-22702.92;0.3366423;20.55215;-20140.15;-11391.3;-0.1476962;0.03366517;0;
12694.62;9569.971;-488.8718;13128.72;0.336304;21.80417;13143.43;6961.977;-0.08258043;0.0985987;0;
20440.04;13859.46;-248.017;23955.18;0.8718296;22.05019;21498.27;10708.95;-0.08249746;-0.2913044;0;
17381.09;11763.91;-2.844072;20544.87;0.5361609;22.36295;18282.72;8974.029;0.04752012;-0.2260444;0;
20212.15;14114.23;-17.56819;23507.62;0.9377638;27.83296;21192.57;11251.61;0.04747237;0.2939215;0;
17766.04;12526.57;165.9354;20581.44;1.472685;28.74275;18490.42;9319.351;0.1773594;0.4235608;0;
-8146.259;-6330.934;472.5051;-8433.432;-1.476532;33.67049;-8529.275;-5618.681;-0.2126229;-0.1615708;0;
-26109.09;-18635.1;216.5493;-29146.21;-3.551153;35.51205;-27012.57;-14154.7;-0.342344;-0.4212779;0;
-19519.29;-12622.08;-69.4621;-22749.71;9.24579;30.58674;-20231.77;-9561.228;0.04780409;0.2288189;0;
-28404.98;-21115.87;-92.14648;-31486.26;12.51903;28.74759;-29080.44;-15653.94;0.04775606;0.2935563;0;
-19405.77;-14728.17;-330.8089;-22341.75;5.472876;27.84793;-19845.91;-11269.22;0.1776428;-0.0315754;0;
13051.26;9841.524;-467.0641;13574.5;6.740174;25.81046;13508.64;7132.419;0.2424316;0.09839102;0;
20627.59;14040.15;-232.1189;24151.18;3.183428;16.74207;21677.37;10907.49;0.1772207;-0.2265446;0;
17562.51;11949.43;-12.93321;20713.83;3.046508;12.17053;18450.8;9128.358;-0.01785943;-0.2912843;0;
20376.95;14281.22;-35.1278;23670.8;2.573956;12.09132;21348.88;11424.15;-0.1477762;-0.2260242;0;
18101.56;12842.15;164.9788;20919.17;1.365921;9.533817;18820.93;9584.482;0.1122417;-0.6156012;0;
-7348.107;-5551.589;486.0891;-7624.073;10.27316;7.983752;-7750.122;-5078.923;0.1121289;-0.1602112;0;
-25168.07;-17713.29;238.6779;-28252.01;11.53563;6.703054;-26130.31;-13534.71;0.1769836;0.1647865;0;
-18775.21;-11895.65;-32.31649;-22073.34;16.21211;7.835029;-19552.41;-9065.565;0.1118384;-0.2901505;0;
-27559.7;-20270.59;-28.92633;-30675.48;19.21091;7.291293;-28289.77;-14944.86;0.111726;-0.1599243;0;
-18572.71;-14066.82;-257.22;-21573.14;12.62655;11.23584;-19080.82;-10751.75;0.1765811;-0.1597636;0;
13358.47;9991.637;-415.7567;13823.68;12.74856;12.89912;13770.2;7208.107;0.1114363;-0.02966838;0;
20681.78;14116.57;-213.5185;24202.56;5.702174;7.393682;21724.18;10990.48;0.1762917;0.1652635;0;
17853.27;12226.71;-2.722348;20997.64;1.677956;6.917372;18731.33;9394.385;0.04617988;0.1001301;0;
20650.7;14579.32;-14.02643;23938.79;9.11101;4.432053;21611.07;11708.18;-0.0838012;0.0350621;0;
18215.34;12846.13;179.8434;21038.6;9.503997;2.150302;18920.95;9588.854;0.04621768;-0.4847119;0;
-6834.822;-5318.11;497.7215;-7123.33;4.739025;5.3632;-7268.801;-4710.442;0.4359753;-0.4192575;0;
-24332.27;-16996.3;261.543;-27405.61;4.867985;4.88893;-25315.98;-12817.68;0.3705699;-0.1589668;0;
-18042.84;-11189.15;-15.95545;-21316.79;6.403335;3.745308;-18829.33;-8654.635;-0.3444432;0.1660296;0;
-26556.86;-19300.62;-17.61046;-29686.08;7.201184;4.076459;-27315.9;-14151.67;-0.2791298;0.3607648;0;
-17592.73;-13209.9;-244.6505;-20554.09;12.75268;0.1874754;-18126.54;-9981.197;0.2408894;-0.02940175;0;
13672.41;10177.39;-422.3933;14219.84;16.08877;-0.750474;14080.56;7309.739;0.2406474;-0.09433955;0;
20770.21;14214.47;-225.7082;24303.23;10.84866;1.795631;21806.71;11101.45;0.1754382;0.1006573;0;
17946.51;12332.61;3.903301;21084.02;8.961753;1.927793;18814.51;9481.264;0.2402293;0.2304908;0;
20713.1;14624.89;-8.609958;24003.34;23.62213;4.404102;21667.55;11753.86;0.04508588;0.5550959;0;
18446.93;13118.55;169.403;21274.13;26.9473;6.208216;19144.5;9834.488;0.1100079;0.6195055;0;
-6850.416;-5198.054;462.7259;-7135.444;14.93113;4.527405;-7315.209;-4760.171;0.1098974;0.1641116;0;
-24428.62;-17116.38;197.2066;-27565.74;13.57598;5.393634;-25464.23;-13094.1;-0.3449844;-0.4207594;0;
-17460.65;-10794.87;-61.56467;-20837.3;7.065606;7.732617;-18296.75;-8380.387;-0.1497358;-0.2904019;0;
-25910.62;-18688.99;-27.97279;-29097.99;1.900943;8.863435;-26725.18;-13642.33;0.3701534;0.09969398;0;
-17409.29;-13043.94;-261.4836;-20369.83;8.596838;9.457376;-17990.1;-9842.169;0.2398468;0.1645611;0;
13808.5;10267.44;-446.1747;14377.68;8.31978;9.581839;14203.01;7392.031;0.1096711;-0.03050625;0;
20884.26;14342.49;-245.983;24413.26;0.0733738;13.65817;21913.15;11214.4;0.1095609;0.0994591;0;
18124.14;12496.72;-20.36479;21248.29;-2.003781;15.05097;18981.06;9647.286;-0.2803532;0.4241959;0;
20936.08;14867.73;-23.82695;24225.26;2.619933;10.95001;21880.31;11976.98;-0.6049082;0.03396558;0;
18471.78;13080.51;165.8517;21284.29;3.689027;10.67107;19152.54;9798.034;-0.4093984;-0.09600323;0;
-6329.812;-4832.233;467.7988;-6626.823;2.680943;7.043392;-6817.878;-4389.685;0.2406864;-0.1608741;0;
-23509.11;-16223.63;221.6241;-26637.38;4.084768;4.490963;-24589.01;-12272.59;0.5652813;-0.5505165;0;
-17388.79;-10685.26;-40.10775;-20755.72;4.349083;10.51479;-18267.94;-8247.276;0.4347786;-0.3550613;0;
-25924.7;-18705.22;-27.96416;-29144.78;4.745879;11.44199;-26776.44;-13703.73;0.1744723;0.2300015;0;
-16718.78;-12500.68;-256.8522;-19791.76;9.966023;6.473876;-17359.29;-9564.577;-0.605311;0.09983574;0;
14145.12;10446.79;-417.9974;14618.78;11.16146;6.400389;14504.7;7476.582;-0.8645722;-0.2251013;0;
20861.05;14325.87;-197.4224;24382.99;12.08825;5.322231;21890.29;11236.04;-0.4089321;-0.1599078;0;
18158.3;12538.46;30.02108;21283.55;13.21518;3.64231;19007.6;9657.376;-0.1486518;-0.5495511;0;
20862.11;14794.86;7.908266;24139.36;5.699811;10.53777;21802.18;11917.27;0.04639956;-0.2241623;0;
18657.82;13229.48;186.4356;21485.89;2.277832;11.33098;19340.54;9928.082;0.1113203;0.165867;0;
-6056.668;-4639.575;488.5807;-6355.429;6.628824;10.38183;-6556.665;-4266.998;0.1761758;-0.2241037;0;
-23355.42;-16167.68;230.3911;-26547.81;5.952578;12.11296;-24458.53;-12267.66;0.3709008;-0.2238785;0;
-16794.38;-10271.69;-29.27246;-20236.22;-1.219723;1.718673;-17709.77;-7988.551;0.2405934;-0.09371886;0;
-25493.91;-18343.33;5.958009;-28743.85;-2.357574;-0.7614224;-26379.72;-13418.87;0.110417;-0.2235594;0;
-16950.47;-12673.07;-230.7415;-19990.41;-4.9008;3.593111;-17593.86;-9587.383;-0.3444654;-0.02843271;0;
14078.71;10392.42;-421.6167;14599.2;-5.298018;2.785828;14445.31;7483.394;-0.5390213;0.2964326;0;
21005.51;14477.65;-214.4845;24517.66;-3.885198;6.801882;22029.9;11349.94;-0.01874093;0.1662;0;
18285.38;12667.54;16.7243;21382.22;-4.752926;8.20169;19130.18;9804.2;-0.6034282;0.1010657;0;
21056.31;14982.42;10.41379;24323.12;10.79189;6.518875;21992.49;12082.64;-0.9276586;0.2958662;0;
18614.04;13217.58;196.4348;21401.28;15.73754;6.043444;19284.43;9928.962;-0.1471183;0.4904709;0;
-6135.697;-4741.794;488.9185;-6508.288;12.10538;11.52985;-6663.286;-4294.651;0.1778662;0.1651414;0;
-23383.72;-16105.25;230.3382;-26647.33;15.57584;13.12586;-24524.25;-12193.6;0.3076222;-0.4197307;0;
-17255.01;-10493.52;-41.91281;-20759.28;5.177713;5.409751;-18196.2;-8136.348;0.4372478;-0.2893742;0;
-26096.42;-18857.83;-39.93417;-29405.09;1.890957;4.265605;-26999.96;-13868.74;0.04700435;0.1007206;0;
-17342.13;-12932.71;-264.1251;-20482.63;8.319418;0.4434144;-18016.43;-9922.672;-0.2778796;0.2955214;0;
13777.8;10246.59;-417.8916;14204.04;6.368676;-2.303209;14120.29;7305.051;-0.6024371;0.03535511;0;
20804.43;14261.38;-209.7636;24307.59;6.62972;1.182095;21826.65;11143.92;-0.4718971;-0.1595824;0;
18073.73;12462.39;16.3492;21171.95;5.483983;0.2431466;18914.75;9583.78;-0.08161886;-0.2893568;0;
20852.92;14775.29;9.445612;24110.39;0.8567721;2.788254;21784.91;11867.33;-0.01656951;-0.3540334;0;
18498.13;13144.94;195.9205;21253.33;-1.220194;3.723091;19158.79;9866.792;-0.01655286;-0.02884093;0;
-6751.925;-5228.912;495.9165;-7188.275;-2.96028;2.915677;-7301.347;-4712.174;0.3083005;0.1660901;0;
-24523.33;-17165.16;221.2591;-27799.31;-3.292098;4.319267;-25670.21;-13091.96;0.4379254;0.1009559;0;
-17909.13;-11066.42;-55.32427;-21415.81;-10.79088;-0.7086711;-18853.5;-8583.486;0.2425833;0.2307891;0;
-26401.98;-19118.04;-18.80264;-29723.7;-12.92349;-1.779686;-27309.99;-14060.9;-0.01752978;0.1655899;0;
-17764.46;-13380.83;-241.7498;-20888.12;-6.681213;0.0976244;-18424.59;-10202.5;-0.4073162;-0.09444591;0;
13650.28;10094.37;-418.1681;14070.98;-6.138637;-1.510064;13998.56;7252.153;-0.2769723;0.100551;0;
20765.99;14214.29;-201.5285;24252.75;0.1641713;5.725488;21781.24;11058.79;0.1780774;0.295352;0;
17901.37;12291.15;25.91918;21003.89;2.977046;7.796206;18740.9;9423.311;0.3078332;0.03518587;0;
20763.51;14688;6.277998;24020.85;3.710988;-0.5843723;21694.11;11778.42;0.0476545;-0.09478416;0;
18333.19;12968.27;189.4921;21097.89;5.582294;-1.454563;18992.19;9687.285;-0.1472954;-0.2246236;0;
-6536.571;-5029.065;492.0401;-6959.042;5.509336;-2.59169;-7088.729;-4479.348;0.04775462;-0.09446322;0;
-23607.96;-16298.95;251.1822;-26879.96;7.848324;-4.263659;-24765.75;-12342.55;-0.1471954;0.2304684;0;
-17340.12;-10598.56;-7.783912;-20812.26;-5.68987;-1.981955;-18297.46;-8284.009;-0.2769822;0.1652695;0;
-26279.43;-19033.9;-5.152409;-29558.27;-10.70702;-2.381861;-27194.3;-14032.12;0.2430349;0.1001361;0;
-17535.34;-13108.52;-244.7143;-20634.04;3.905775;-2.982314;-18200.65;-10019.05;-0.01707869;0.1000355;0;
13638.77;10119.73;-421.8636;14089.45;4.772507;-3.71613;13983.69;7211.053;-0.4068656;0.03496761;0;
20651.55;14103.87;-213.2007;24152.63;3.226494;-1.368115;21666.92;10975.6;-0.2765221;0.09989983;0;
17906.94;12288.91;11.11967;21012.87;5.434054;-0.9648429;18743.59;9406.119;-0.2112769;-0.09510259;0;
20726.41;14662.6;-12.97315;23990.4;-1.33656;-4.781778;21654.99;11760.17;-0.01616257;-0.4198437;0;
18535.46;13136.36;182.3011;21317.82;-2.474293;-5.312837;19197.78;9844.479;0.243723;-0.2245198;0;
-6372.096;-4927.126;501.0982;-6742.292;2.350965;-7.45083;-6926.806;-4501.909;0.1785108;0.1655098;0;
-23951.57;-16666.19;248.5964;-27185.75;2.549673;-7.778259;-25114.78;-12717.66;-0.1465053;0.1653435;0;
-17406;-10693.55;-2.933351;-20888.59;3.887258;-9.31105;-18367.64;-8316.93;-0.08139072;-0.09469201;0;
-25982.96;-18754.53;21.22933;-29251.34;4.754008;-9.904541;-26907.99;-13752.49;0.4384298;-0.3544662;0;
-17589.34;-13181.63;-223.9032;-20655.05;5.084024;-4.335128;-18263.13;-10010.63;0.1131525;-0.4840447;0;
13641.24;10091;-396.0603;14096.29;6.752879;-2.589216;13984.08;7236.081;-0.2117978;-0.3536237;0;
20851.73;14303.02;-179.521;24354.59;1.990671;0.9633597;21867.81;11152.04;0.2431864;-0.1583664;0;
18010.93;12399.53;40.34586;21121.01;0.7832222;3.842536;18849.02;9526.787;0.04803997;-0.09323988;0;
20883.15;14809.78;6.91585;24143.82;8.016104;2.030257;21810.88;11900.67;-0.3418123;-0.02817885;0;
18512.13;13119.79;172.1852;21285.93;9.079776;2.430115;19164.97;9835.872;-0.01663219;0.3616535;0;
-6479.267;-4985.771;468.332;-6884.844;8.602139;4.504022;-7051.559;-4502.262;-0.1465502;0.1014208;0;
-23677.64;-16386;221.8757;-26911.54;8.995636;4.298548;-24855.21;-12445.6;-0.1464029;-0.09358317;0;
-17180.51;-10459.41;-10.94909;-20607.35;8.048593;3.088658;-18149.58;-8163.634;-0.01632111;0.686119;0;
-25704.38;-18478.52;22.18588;-28984.17;7.37092;2.549691;-26649.15;-13568.07;-0.01630471;0.2956255;0;
-16903.32;-12657.17;-228.7728;-19999.97;7.429886;-3.682162;-17605.28;-9602.063;0.04867901;-0.4193123;0;
14001.38;10347.28;-411.6384;14488.55;7.690841;-6.692694;14336.99;7440.866;-0.01633724;-0.1590216;0;
20880.08;14362.36;-207.1867;24392.81;0.1136755;-3.872686;21896.55;11228.89;0.1785812;-0.1588618;0;
18208.65;12584.48;15.98754;21313.22;-2.364685;-4.538624;19043.18;9701.961;-0.08146761;0.03619982;0;
21028.55;14973.54;-1.769605;24291.94;-0.2188553;-8.084037;21955.76;12070.44;-0.4062225;0.1660981;0;
18719.54;13285.91;182.7957;21519.21;-2.629533;-9.415572;19380.76;9984.915;-0.08097757;-0.0289708;0;
-5921.597;-4590.695;501.7328;-6273.376;6.951303;-7.262658;-6481.707;-4235.475;-0.2108309;0.1659604;0;
-23284.18;-16037.48;246.6848;-26531.15;10.09215;-7.724241;-24460.48;-12202.87;-0.210619;-0.02910844;0;
-17160.26;-10417.92;-37.2955;-20642.08;-1.505916;-7.582514;-18124.33;-8092.698;0.1793966;-0.3539159;0;
-25712.01;-18472.21;-32.30739;-29008.91;-2.709852;-7.842826;-26652.8;-13508.51;-0.08065299;-0.4185276;0;
-16978.13;-12675.15;-261.3941;-20056.4;-2.037544;-10.51426;-17679.25;-9608.205;-0.08057195;-0.4181071;0;
13950.29;10302.2;-419.7236;14459.54;-3.776809;-11.91022;14294.96;7402.248;0.114411;-0.222785;0;
20908.89;14376.77;-191.5258;24423.24;1.183479;-11.49648;21928.74;11243.28;0.1792634;-0.1575938;0;
18127.11;12510.88;32.38235;21231.63;2.857229;-10.88208;18963;9631.273;0.1790833;-0.1574354;0;
20966.71;14916;-20.18628;24230.43;-3.978145;-19.64566;21895.41;12012.96;-0.08096603;0.1025922;0;
18778;13326.86;159.8997;21585.37;-5.313318;-21.8363;19444.95;10023.8;-0.01591733;-0.1573803;0;
-5842.706;-4545.303;494.1179;-6175.831;-0.0166935;-17.72852;-6393.225;-4204.202;0.1790007;-0.6769609;0;
-23222.31;-15980.69;247.1047;-26456.99;-0.6198891;-19.25125;-24404.57;-12200.69;0.1138535;-0.6762807;0;
-17156.66;-10424.03;-14.30922;-20626.68;3.266476;-9.519629;-18127.29;-8096.816;0.1137391;-0.2857971;0;
-25587.5;-18372.5;7.912742;-28895.82;4.468642;-7.098677;-26529.09;-13430.98;0.5034289;-0.4154446;0;
-16640.01;-12367.24;-222.9479;-19748.23;-1.095553;-11.1775;-17347.96;-9459.614;0.4379557;-0.5449618;0;
14119.52;10435.89;-387.8128;14619.65;-0.8260325;-9.75963;14460.62;7457.049;-0.2771251;-0.1546102;0;
20890.49;14354.8;-173.5619;24398.22;-10.67182;-19.73004;21908.54;11244.51;-0.4067814;0.1054145;0;
18170.81;12561.6;45.62744;21260.1;-14.61321;-23.26019;19002.12;9667.793;-0.08153594;0.3002106;0;
20986;14916.55;21.3594;24241.34;-4.952982;-20.82549;21912.05;12010.8;-0.01648667;0.3648763;0;
18673.75;13265;202.0127;21461.04;-4.278419;-23.81874;19333.41;9965.24;0.04849724;0.234575;0;
-6006.803;-4612.727;494.1784;-6373.845;-3.135045;-20.71365;-6566.378;-4283.662;0.3732852;0.364274;0;
-23218.05;-15965.01;249.0236;-26489;-0.5872754;-20.8268;-24407.23;-12185.37;0.5028448;-0.02589612;0;
-17241.01;-10556.51;1.991174;-20737.48;-4.537824;-27.10215;-18231.88;-8291.153;0.3724049;-0.1558048;0;
-26491.84;-19255.39;-7.506053;-29785.96;-5.47127;-29.48624;-27435.61;-14264.32;0.242096;0.4290579;0;
-17823.96;-13396.79;-252.9533;-20944.61;4.514563;-26.10752;-18504.42;-10220.85;0.1768854;0.3636594;0;
13712.28;10157.57;-419.1154;14148.69;6.920924;-25.81336;14056.98;7295.181;-0.2780637;0.1034246;0;
20858.34;14315.52;-223.5112;24347.19;1.488962;-32.55258;21868.29;11165.07;-0.4726864;0.4931248;0;
18027.52;12413.83;11.59535;21119.85;2.559193;-33.7255;18860.56;9526.813;-0.212342;0.622564;0;
20981.1;14924.84;10.31871;24223.74;-9.165026;-33.08883;21905.73;12025.82;-0.08219398;0.4920037;0;
18826.32;13398.26;194.3252;21619.51;-15.45246;-33.18948;19486.8;10081.99;0.2427253;-0.09319675;0;
-5799.524;-4432.077;510.3773;-6164.741;2.380287;-30.94576;-6368.079;-4199.105;0.1775141;-0.5478745;0;
-23104.01;-15839.01;274.6545;-26404.82;4.922514;-30.04395;-24311.35;-12151.75;0.1123684;-0.352422;0;
-17279.15;-10537.1;12.32277;-20824.43;-6.804079;-24.4543;-18279.5;-8265.999;-0.1476139;-0.2871005;0;
-26217.58;-18967.08;3.486701;-29561.85;-6.461473;-21.41556;-27171.19;-14042;-0.4723023;-0.1568773;0;
-17276.63;-12902.47;-243.9081;-20417.41;-10.54179;-21.528;-17973.01;-9890.725;-0.01705632;0.03818231;0;
13849;10252.46;-406.7373;14303.39;-12.07144;-18.96108;14188.13;7320.427;-0.08200653;-0.0268234;0;
20728.46;14186.33;-196.5434;24223.68;-6.031094;-20.88447;21737.74;11048.21;-0.01695678;0.2980403;0;
18010.43;12403.36;27.15111;21098.78;-6.359826;-20.66254;18840.78;9521.995;0.4378316;0.6225775;0;
20855.86;14789.3;8.648743;24111.43;3.091036;-16.08706;21781.02;11870.16;-0.1473144;0.2971152;0;
18394.77;13011.4;177.071;21159.81;6.705252;-14.53035;19043.05;9732.384;-0.082199;-0.1579547;0;
-6329.306;-4856.902;475.2744;-6748.167;-1.138366;-16.25724;-6913.066;-4402.608;0.5025896;-0.09282865;0;
-23454.43;-16159.54;245.2091;-26725.62;-1.806808;-16.10694;-24660.6;-12236.48;-0.01765407;0.0371993;0;
-17326.51;-10571.39;-7.84773;-20798.89;-1.537549;-13.27754;-18317.94;-8201.486;-0.2125384;-0.02780542;0;
-25771.72;-18525.82;-6.574855;-29092.22;-2.205589;-12.8623;-26736.96;-13628.64;0.2424466;-0.09274482;0;
-16701.54;-12492.82;-227.5197;-19835.63;-6.958795;-11.24178;-17440.08;-9568.744;0.04730096;-0.02768429;0;
14081.24;10362.43;-388.0228;14546.33;-7.889808;-10.29285;14397.45;7421.382;-0.2126159;0.1022782;0;
20849.62;14322.7;-198.7278;24347.81;-11.63292;-13.3636;21865.2;11198.63;-0.08246762;0.2321101;0;
18047.6;12441.14;17.14468;21143.27;-14.03311;-13.68509;18877.24;9547.813;-0.01741741;-0.09295981;0;
20859.64;14787.51;-2.081646;24116.6;-1.694149;-14.2072;21784;11887.79;0.04756743;-0.4177031;0;
18618.64;13239.53;185.2169;21405.14;1.857527;-14.59482;19275.44;9929.166;0.112487;0.1024553;0;
-6228.979;-4723.951;497.733;-6605.329;1.052353;-13.17351;-6808.448;-4409.999;0.307276;0.1023524;0;
-23483.67;-16181.04;243.4854;-26765.35;4.80234;-12.35648;-24693.79;-12445.2;0.3069672;-0.5474238;0;
-17020.48;-10308.6;-8.164101;-20542.53;3.055226;-11.27234;-18024.69;-8058.002;-0.01817793;-0.2870044;0;
-25270.08;-18046.28;23.29704;-28616.89;4.123883;-9.653544;-26243.54;-13189.93;-0.278029;0.4928921;0;
-16233.16;-12098.83;-221.9781;-19346.13;8.808788;-8.371169;-16949.91;-9261.474;-0.4076844;0.2974948;0;
14360.27;10562.97;-418.2813;14869.45;9.871665;-6.82215;14700.33;7558.132;-0.4722421;-0.4824122;0;
20843.49;14321.7;-205.1398;24359.9;11.06719;-4.872912;21859.2;11214.21;-0.3418328;-0.3519929;0;
18105.38;12502.9;35.10195;21205.56;11.25714;-4.332152;18937.68;9611.604;-0.2115547;-0.02680247;0;
21002.02;14930.05;24.55634;24265;12.92077;2.236406;21929.79;12026.6;-0.1463748;-0.2216776;0;
18591.62;13203.92;211.7032;21390.2;14.51538;5.315251;19249.8;9903.734;-0.211195;0.3632513;0;
-6057.226;-4594.232;504.1715;-6403.729;5.056324;-4.134439;-6623.597;-4271.159;-0.2759502;0.4928209;0;
-23220.28;-15928.99;266.5185;-26454.81;2.774067;-6.206633;-24415.62;-12152.72;-0.3406402;-0.02741298;0;
-17414.24;-10711.06;24.48158;-20880.53;6.253904;-1.846628;-18401.22;-8347.677;-0.01546125;-0.3522221;0;
-25912.88;-18693.85;20.11541;-29224.3;4.707379;-2.782534;-26865.58;-13753.33;-0.3402824;-0.2219335;0;
-16532.83;-12280.47;-220.0029;-19627.08;12.87432;-3.985431;-17236.47;-9450.029;-0.9246466;0.2330609;0;
14168.39;10470.38;-392.6949;14691.29;16.61243;-4.383324;14516.8;7458.456;-0.7937828;0.102892;0;
20688.06;14156.92;-192.8224;24205.41;7.888201;-8.866653;21709;11061.05;-0.4681485;-0.2220481;0;
17929.27;12329.87;34.2104;21028.19;7.544507;-10.93409;18761.72;9437.031;-0.07787406;0.1030117;0;
20769.41;14681.37;8.610754;24033.96;14.77157;-8.042963;21698.47;11781.74;-0.1427632;0.2328429;0;
18427.85;13103.25;180.8436;21209.56;16.36432;-8.436779;19086.38;9813.775;-0.07765236;0.03770689;0;
-6560.037;-4963.484;488.9601;-6930.743;14.00335;-8.562267;-7125.383;-4607.451;0.4421644;-0.2871677;0;
-24086.55;-16684.38;252.0408;-27333.8;12.8502;-7.816852;-25272.18;-12793.83;0.4417201;-0.09197713;0;
-17827.66;-10970.97;-2.615873;-21314.18;18.46435;-10.82323;-18808.74;-8567.717;0.1814069;-0.09188471;0;
-26212.88;-18917.71;8.615486;-29530.24;19.2491;-10.9462;-27153.73;-13945.42;0.05128994;-0.8714005;0;
-17167.78;-12884.25;-228.5396;-20285.72;14.54169;-10.60041;-17853.42;-9821.891;-0.01372894;-0.6756229;0;
13909.11;10258.74;-408.7193;14374.06;15.86625;-11.52739;14255.34;7361.456;0.05125219;-0.02527058;0;
20705.07;14167.46;-200.8035;24206.75;1.784131;-5.68854;21720.43;11028.06;-0.07873399;0.1696568;0;
17851.61;12249.98;24.70687;20954.13;-3.040433;-4.343165;18684.84;9373.707;-0.07865487;0.104519;0;
20726.67;14645.13;3.880004;23988.4;8.349477;-6.013253;21655.25;11734.69;0.05135884;-0.2204227;0;
18331.35;12983.6;197.2008;21095.45;6.532426;-4.667674;18980.36;9697.854;0.05130723;-0.2851686;0;
-6550.6;-5021.385;509.6892;-6968.038;17.31048;-10.62434;-7130.958;-4644.811;0.1811904;-0.1549474;0;
-24055.54;-16642.53;269.6256;-27324.89;20.77571;-12.22114;-25242.17;-12714.55;0.1810083;-0.1547917;0;
-18313.71;-11390.59;11.1876;-21798.39;10.03757;-7.989053;-19299.14;-8819.604;-0.2089776;-0.2196035;0;
-26868.25;-19573.06;-8.298223;-30215.04;9.291522;-7.84706;-27828.92;-14529.54;-0.468637;-0.3493175;0;
-17456.91;-13059.3;-272.8756;-20647.62;2.315961;-6.030636;-18165.16;-10104.69;-0.3382314;0.2357396;0;
13784.51;10268.21;-426.243;14196.39;-1.035269;-4.149177;14114.66;7327.505;-0.2079569;0.5603395;0;
20644.1;14093.95;-175.8154;24143.04;-6.125419;-6.355322;21654.76;10962.86;-0.01284591;0.4298417;0;
17775.16;12168.52;51.21603;20879.96;-11.20948;-6.147987;18605.11;9289.506;0.182069;0.4943771;0;
20629.26;14547.15;8.529753;23886.88;-3.830825;-0.5154876;21552.02;11626.85;-0.07798329;0.4938804;0;
18263.99;12942.94;193.0847;21000.46;-3.960698;1.29357;18906.03;9676.128;0.05202975;0.3634495;0;
-6966.2;-5361.727;496.4256;-7439.751;-6.837106;-1.25296;-7568.577;-4863.51;0.3768142;-0.09168714;0;
-24587.21;-17176.97;231.0599;-27880.17;-6.428095;-2.323428;-25801.33;-13134.51;0.4414029;-0.4813991;0;
-18346.1;-11392.6;-29.07288;-21805.27;-6.354287;2.769488;-19330.05;-8826.003;0.5059267;-0.415948;0;
-26710.19;-19374.57;-28.57515;-30032;-4.941382;3.637483;-27660.79;-14289.7;0.245549;-0.02572601;0;
-17351.98;-13138.78;-280.8259;-20522.65;-9.692816;-3.600206;-18062.78;-9994.567;-0.2094691;0.6239733;0;
13977.09;10278.15;-429.828;14418.14;-11.02225;-4.400384;14313.98;7443.887;-0.3391933;0.4934116;0;
20753.13;14210.93;-198.9339;24262.98;-4.714532;-8.883698;21771.23;11058.49;0.2458536;-0.2217249;0;
17865.75;12269.87;19.3439;20969.32;-4.576073;-10.3484;18699.83;9390.651;0.1806392;0.1033346;0;
20708.58;14620.09;-0.212586;23969.46;-2.629092;-8.462475;21639;11718.74;-0.144379;0.3631001;0;
18215.49;12892.01;198.469;20976.9;-1.956865;-9.123801;18869.42;9595.904;0.5054395;0.2328006;0;
-6638.426;-5046.372;514.5793;-7054.97;-5.170079;-1.143787;-7215.998;-4691.139;0.3749969;0.1675993;0;
-24017.56;-16595.62;264.5315;-27273.01;-5.365955;-0.004049468;-25203.95;-12707.17;0.0497834;0.03749622;0;
-18269.67;-11326;0.9449004;-21730.69;-11.92465;5.957314;-19229.41;-8787.511;0.1147007;-0.1574435;0;
-26597.52;-19279.28;-3.944217;-29933.08;-14.52463;8.96556;-27534.8;-14284.88;-0.2752186;-0.0273506;0;
-16957.03;-12670.31;-260.1552;-20118.89;-14.77846;2.124414;-17671.45;-9801.807;-0.01507268;0.1675789;0;
13954.8;10360.44;-436.555;14426.48;-17.57665;3.194006;14289.62;7391.233;-0.01505753;0.03747584;0;
20581.05;14042;-229.0798;24102.41;-12.06663;-9.468734;21603.04;10931.27;-0.4048465;-0.2873985;0;
17806.37;12195.99;-5.883571;20912.99;-11.51864;-13.74601;18643.06;9306.835;-0.1445703;-0.3520771;0;
20610.26;14538.86;-19.121;23877.18;-14.72225;-8.909544;21543.17;11641.63;-0.2093924;-0.2217886;0;
18337.64;12982.5;177.8929;21117.23;-14.43904;-12.04867;18999.07;9687.146;-0.2741493;-0.2865331;0;
-6552.694;-4969.687;482.1237;-6939.517;-13.68759;1.493626;-7117.682;-4612.248;-0.07897183;-0.4161799;0;
-23813.29;-16495.52;231.7648;-27087.29;-10.92815;5.31003;-24993.95;-12675.51;-0.2088272;-0.4157617;0;
-17222.65;-10519.77;-13.31372;-20737.4;-19.75843;-2.66603;-18189.12;-8247.166;0.1162194;-0.2204419;0;
-25668.1;-18425.67;2.223109;-29002.09;-20.8103;-2.261454;-26610.75;-13492.83;-0.07879942;0.429453;0;
-16912.03;-12671.89;-223.2908;-20002.01;-7.460155;-3.196943;-17616.09;-9582.64;-0.5334916;0.4939888;0;
14006.26;10312.42;-383.1891;14530.87;-3.902685;-4.131492;14352.24;7421.759;-0.07818419;-0.02624629;0;
20793.41;14260.5;-198.4436;24313.5;-1.821683;-6.00274;21814.75;11124.61;-0.01313828;0.1037148;0;
17935.79;12322.93;-3.73256;21038.06;-0.6817526;-6.800504;18771.1;9441.63;-0.07809243;0.2335453;0;
20775.12;14711.03;-9.350984;24044.56;12.98296;-11.28141;21707.05;11814.54;0.2468227;0.1033759;0;
18508.16;13096.35;200.5217;21296.91;18.52962;-13.41352;19170.96;9782.246;-0.1432293;0.2332067;0;
-5909.518;-4465.022;503.371;-6295.647;1.430722;-9.046277;-6475.16;-4239.415;-0.2730201;0.3629071;0;
-22902.04;-15643.06;252.8659;-26194.6;-1.048962;-9.171153;-24098.81;-11967.53;-0.2077784;0.2326077;0;
-17079.46;-10416.3;-9.959366;-20591.66;-3.593503;-5.411016;-18068.52;-8101.274;-0.272537;-0.3523321;0;
-25660.21;-18455.27;-18.11713;-28989.19;-6.871446;-3.731005;-26620.09;-13580.92;0.1175409;-0.2220434;0;
-16301.05;-12137.29;-262.2731;-19407.41;-9.946;-5.602656;-17012.33;-9354.082;0.05245548;-0.09188557;0;
14350.45;10581.31;-412.9024;14871.32;-13.75342;-4.659388;14697.26;7561.272;-0.0775319;-0.2866953;0;
20774.07;14252.01;-172.7955;24296.87;-4.496204;-7.735799;21796.84;11158.21;0.2473827;-0.2214399;0;
18075.28;12465.21;53.54566;21170.28;-3.219864;-8.129924;18911.75;9565.04;0.3121015;-0.02631533;0;
20882.13;14822.99;17.96284;24147.53;-2.613416;-8.456669;21815.15;11932.92;-0.07801618;0.2985478;0;
18625.77;13194.61;202.3053;21411.09;0.2022486;-8.515155;19285.71;9876.396;-0.2078725;0.2332805;0;
-5687.198;-4299.468;516.2097;-6075.716;-4.754447;-6.965991;-6263.068;-4106.91;0.1171731;-0.09179062;0;
-22773.31;-15570.36;268.2997;-26067.76;-4.48125;-6.289163;-23985.32;-11945.56;0.1820227;0.2331383;0;
-16687.28;-10099.89;3.709895;-20228.94;-0.4582598;-3.067784;-17694.77;-7909.923;0.2468072;0.6227081;0;
-25083.7;-17902.63;10.26537;-28435.92;2.288867;-1.992975;-26059.11;-13031.26;0.05165714;0.4921477;0;
-16254.61;-12072.82;-222.1438;-19326.46;-3.742629;1.893916;-16969.54;-9112.281;-0.5980682;0.2317839;0;
14230.86;10441.46;-387.884;14782.42;-4.542175;3.566586;14578.83;7496.858;-0.3375979;0.2965183;0;
20797.55;14271.71;-192.03;24318.61;7.184036;2.022395;21818.19;11147.1;0.1824801;0.03635099;0;
17841.86;12246.73;13.7315;20943.4;8.985478;2.824158;18677.62;9368.8;-0.14254;-0.2885222;0;
20644.98;14557.22;-3.008265;23920.15;14.8036;-2.872107;21577.56;11649.88;-0.2073641;-0.1582977;0;
18322.84;12987.47;180.6837;21098.33;18.27232;-4.67776;18979.25;9689.492;-0.01225371;-0.09317125;0;
-6284.091;-4694.509;472.1212;-6721.72;12.29212;-4.070214;-6857.375;-4352.3;-0.1421761;-0.02811029;0;
-23145.75;-15823.48;231.2207;-26490.17;12.81563;-5.874541;-24345.21;-12109.26;-0.01209854;0.361722;0;
-17204.3;-10557.04;-18.355;-20738.32;7.913609;-3.859272;-18192.5;-8269.376;0.1828156;0.1664565;0;
-26079.92;-18879.67;-23.28719;-29435.41;6.83393;-4.592207;-27038.25;-13948.65;0.3125666;-0.4833841;0;
-16908.95;-12587.29;-264.0959;-20091.94;2.004292;-2.176207;-17627.53;-9748.843;0.1173505;-0.2230291;0;
13953.41;10313.9;-408.8982;14396.39;-2.150908;-0.6334128;14293.85;7305.557;-0.1426367;0.1020317;0;
20580.26;14043.56;-168.7328;24088.55;8.300103;-5.321582;21606.12;10956.67;-0.07752608;-0.02800548;0;
17784.47;12182.89;54.01231;20879.06;6.6178;-4.244507;18620.41;9292.371;-0.1424155;0.03699001;0;
20530.39;14437.58;15.27436;23796.12;16.52414;-9.799704;21466.09;11538.09;-0.2722071;-0.1579492;0;
18208.41;12896.51;202.9615;20964.12;21.12923;-12.2681;18856.76;9621.14;-0.4018683;-0.2877252;0;
-6708.257;-5146.465;511.7117;-7140.129;2.888644;0.1356998;-7295.083;-4822.6;-0.1415951;-0.09253403;0;
-24339.98;-16913.83;250.8284;-27594.37;3.690025;2.011086;-25515.92;-12982.92;0.4432532;-0.1574084;0;
-18389;-11449.84;-20.97465;-21853.86;-13.46131;5.157141;-19353.32;-8905.772;0.5077752;-0.2222176;0;
-27562.37;-20255.63;-29.32437;-30849.68;-21.41839;9.103951;-28489.55;-15087.98;0.1824283;-0.351929;0;
-18928.92;-14336.14;-276.3426;-22056.93;6.199611;-0.6174772;-19599.57;-10904.9;-0.01265705;-0.4165427;0;
13052.39;9732.363;-437.9367;13460.08;10.27922;-1.889532;13396.99;7023.554;0.5070944;0.03864725;0;
20558.46;13996.73;-216.8107;24061.36;11.94383;0.7245785;21578.35;10815.82;0.5715522;0.1685431;0;
17565.91;11955.44;19.69463;20689.49;17.35684;-1.017584;18411.17;9098.937;-0.07869551;0.03843906;0;
20454.78;14375.16;2.808318;23721.7;18.47847;1.327719;21390.82;11464.76;-0.07861643;0.2982698;0;
18187.2;12884.14;174.9221;20948.66;22.74681;0.3216412;18851.29;9619.08;0.05139725;0.5578395;0;
-7021.286;-5390.485;471.847;-7452.417;18.3697;-0.01359661;-7583.621;-5023.792;-0.01362174;0.2974096;0;
-24956.59;-17491.17;221.3111;-28184.97;18.75338;-0.08056588;-26116.96;-13410.23;0.1163266;0.2321434;0;
-19369.24;-12408.83;-46.38622;-22767.55;18.13133;-7.381381;-20310.83;-9498.917;0.1162097;0.6217142;0;
-28504.85;-21208.04;-66.14215;-31767.14;16.23807;-9.718367;-29416.5;-15922.92;0.05112563;0.4911548;0;
-19210.41;-14579.07;-317.8866;-22360.77;23.25436;-10.31145;-19886.85;-11293.38;0.1810089;0.0358899;0;
13080.35;9823.166;-463.3065;13473.05;24.30272;-12.37744;13417.09;7071.789;0.3757291;-0.2889829;0;
20498.32;13929.73;-233.0502;23995.77;19.3218;-10.35563;21516.94;10757.76;0.2454169;-0.2886925;0;
17660.23;12041.81;2.73747;20779.75;17.62745;-10.41221;18507.15;9176.635;-0.2096011;0.03643429;0;
20598.91;14529.18;-13.66329;23858.17;22.43251;-10.60257;21536.33;11628.79;-0.4042925;0.2962671;0;
18309.35;12960.58;157.3114;21094.37;23.28062;-9.788248;18973.49;9679.591;-0.1440169;0.03609999;0;
-6722.364;-5155.472;459.6263;-7106.912;13.74639;-11.3189;-7286.716;-4799.44;-0.01393754;-0.6136097;0;
-24426.74;-17001.12;223.08;-27661.36;11.12061;-11.50847;-25602.08;-13029.1;-0.07889087;-0.6779605;0;
-18594.05;-11652.73;-28.40849;-22020.03;12.71702;-7.812971;-19562.9;-9022.441;0.05112308;-0.2225079;0;
-27781.62;-20469.36;-41.10793;-31024.91;11.3641;-6.800376;-28701.27;-15280.76;-0.07886297;-0.2872517;0;
-18849.86;-14325.01;-292.0655;-21939.43;9.74509;-9.070963;-19502.15;-10934.86;-0.1437511;-0.5468324;0;
13329.82;9940.064;-435.3092;13770.05;7.993986;-9.597712;13685.99;7219.289;0.2461974;-0.3513809;0;
20772.79;14205.04;-217.1844;24271.65;11.06741;-8.650307;21790.38;11021.28;-0.07888667;-0.09115846;0;
17838.16;12220.14;12.62159;20953.18;10.38573;-9.043512;18682.72;9351.208;-0.2087421;-0.02609952;0;
20717.25;14655.59;12.20286;23986.99;8.968775;-9.570289;21652;11765.33;-0.2085323;0.03889405;0;
18528.79;13131.96;176.7485;21315.28;8.089108;-8.957827;19192.71;9813.247;-0.3382575;0.233757;0;
-6040.164;-4540.057;475.0146;-6441.293;2.120108;-15.44599;-6604.003;-4313.924;-0.07804824;0.4284241;0;
-23370.07;-16032.72;256.9904;-26624.91;-0.6960371;-17.97576;-24553.84;-12327.46;-0.2728719;0.1681243;0;
-17590.21;-10780.41;7.263876;-21051.72;-2.905164;-10.45573;-18563.28;-8408.854;-0.2076303;-0.286816;0;
-26315.14;-19058.3;1.165889;-29621.96;-4.643558;-9.909481;-27255.62;-14093.82;0.05244768;-0.2865278;0;
-17038.57;-12796.59;-250.5681;-20137.18;-9.662734;-9.765558;-17727.4;-9840.606;-0.0775397;-0.481142;0;
14152.4;10479.27;-410.6576;14649.38;-11.66276;-8.550053;14504.75;7531.914;-0.01249445;-0.4806585;0;
20905.84;14361.79;-189.9495;24418.3;-9.641306;-12.2254;21929.51;11243.68;-0.07744924;-0.1553388;0;
18156.2;12545.97;37.42406;21260.95;-10.50227;-12.94993;18997.21;9663.42;-0.07737142;0.03971928;0;
20987.54;14916.79;25.53304;24259.73;-2.989633;-10.72648;21922.83;12029.8;0.247543;0.1696141;0;
18555.46;13163.93;190.3932;21335.38;-0.6430804;-10.04599;19216.58;9843.974;0.182327;0.1694436;0;
-6054.307;-4494.742;480.556;-6473.741;-0.7088072;-13.51889;-6621.277;-4287.663;0.05220907;0.104306;0;
-22890.54;-15638.15;237.7731;-26193.3;2.104944;-13.50531;-24072.97;-12039.72;-0.01281073;0.03923387;0;
-16513.36;-9961.582;-13.0118;-20029.21;-5.801401;-10.67845;-17489.18;-7733.657;0.05216948;0.1041618;0;
-24746.99;-17583.39;23.13936;-28091.71;-7.402186;-9.127239;-25703.06;-12736.17;0.1170844;0.03908979;0;
-15493.3;-11520.9;-202.458;-18543.3;-4.314265;-7.10858;-16177.88;-8845.879;0.05199942;0.1689852;0;
14740.49;10782.65;-385.2719;15346.38;-5.917521;-5.56083;15119.67;7693.466;0.3118165;0.1038481;0;
20917.56;14401.84;-184.5949;24455.75;-1.69104;-0.3306954;21945.81;11337.29;0.1815685;-0.221093;0;
18168.34;12560.75;45.50628;21265.43;-0.8860337;1.277105;19005.25;9656.191;-0.1434506;0.03899852;0;
20900.06;14829.58;35.15324;24181.96;-5.104702;5.16071;21837.89;11956.73;0.3114649;0.168894;0;
18610.95;13197.84;205.4854;21402.04;-4.965851;7.432944;19276.68;9863.75;0.1812173;-0.2210797;0;
-5387.54;-3897.292;514.5766;-5781.683;-8.979349;0.05747507;-5941.747;-3789.865;-0.2087689;-0.5456943;0;
-21729.72;-14658.07;283.1288;-25033.13;-10.98006;-1.617034;-22906.15;-11173.48;0.05131027;-0.0903746;0;
-15544.41;-9312.4;13.77637;-19076.97;-6.548397;-2.754119;-16520.99;-7267.231;0.1811934;0.2345529;0;
-24193.56;-17111.91;29.14542;-27531.97;-7.07768;-4.693857;-25143.5;-12411.4;-0.01389069;-0.1554868;0;
-15246.94;-11243.94;-200.2686;-18302.3;-5.731398;-6.497558;-15932.49;-8613.006;-0.4686481;-0.2202979;0;
14748.3;10756.94;-388.2384;15328.32;-5.590941;-7.830688;15118.59;7654.429;-0.4681772;0.2996622;0;
20874.05;14374.14;-180.2026;24406.84;-5.184157;-8.023767;21903.54;11323.81;0.1169993;-0.02547563;0;
18188.9;12575.03;52.37724;21287.03;-2.566004;-8.953466;19031.4;9675.271;0.3117837;-0.4152541;0;
20906.95;14845.72;24.35429;24190.63;-16.16108;-4.657684;21848.54;11978.15;0.3114704;-0.02503279;0;
18708.18;13245.35;192.8233;21502.05;-19.69482;-3.983175;19381.57;9921.646;0.3761248;0.03995971;0;
-5198.847;-3850.846;490.2143;-5611.784;-6.077371;-2.371582;-5740.229;-3773.211;0.4407142;-0.02504779;0;
-21775.32;-14706.36;249.8892;-25105.77;-4.062509;-0.8285919;-22944.45;-11211.44;0.2453694;0.03994472;0;
-15743.68;-9496.399;6.260398;-19295.63;-3.254143;-4.109923;-16720.93;-7417.018;0.05022082;0.03990459;0;
-24777.58;-17719.64;21.637;-28121.04;-0.7726269;-2.9001;-25727.19;-12927.42;0.2450724;0.3647012;0;
-16204.38;-11988.91;-218.6077;-19297.11;1.304254;-9.260443;-16901.79;-9146.181;-0.1449779;0.2344001;0;
14305.42;10509.91;-393.5813;14824.14;3.446398;-10.79162;14659.85;7497.882;-0.4047016;-0.1556395;0;
20907.93;14394.61;-176.6384;24428.74;1.233108;-4.283679;21938.04;11316.72;0.1154438;-0.09051578;0;
18159.78;12547.65;61.56007;21262.34;0.5613075;-3.743512;19004.12;9661.427;0.1802951;-0.2203595;0;
20869.62;14802.84;34.19944;24142.47;5.785656;2.02066;21809.29;11931.43;0.1151466;-0.2851054;0;
18647.83;13221.84;199.5819;21425.29;7.990645;4.028117;19318.31;9907.189;0.5048349;0.04001774;0;
-5742.595;-4324.191;513.2861;-6165.047;-2.667304;7.841975;-6289.709;-4180.096;0.569295;0.2348796;0;
-22672.98;-15511.67;290.8038;-26006.78;-4.406912;11.18312;-23842.88;-11918.41;0.178919;-0.02522582;0;
-16317.38;-9899.947;33.56263;-19882.15;0.3539145;2.397363;-17289.18;-7767.515;0.1787392;-0.2201025;0;
-25196.85;-18078.01;25.36113;-28555.28;0.08513913;1.055295;-26146.51;-13252.98;-0.1462771;-0.02497931;0;
-16652.37;-12373.5;-231.7539;-19788.12;5.644759;1.38915;-17362.75;-9424.347;-0.5359342;0.1049805;0;
14106.7;10402.68;-407.7137;14577.07;7.179328;-0.8895438;14451.4;7443.524;-0.1455916;0.104875;0;
20815.59;14291.03;-180.8553;24327.39;10.11985;1.187699;21845.69;11193.83;0.1793914;-0.09013242;0;
18105.3;12495.5;43.41687;21204.98;11.71727;0.5166762;18949.96;9623.521;-0.1456256;-0.1550092;0;
20927.86;14854.52;3.159078;24193.51;10.63377;-1.761141;21868.12;11973.95;-0.470316;0.1699833;0;
18501.66;13122.46;178.271;21278.34;12.16333;-2.831098;19168.51;9820.912;-0.1450067;0.03987779;0;
-6026.733;-4519.646;488.389;-6455.05;-0.5085443;-1.756526;-6587.8;-4302.659;0.3748778;-0.1550643;0;
-22929.05;-15666.64;252.7509;-26254.47;-5.933041;-1.352864;-24110.79;-11981.43;0.3095337;-0.02497382;0;
-16985.8;-10368.05;5.308654;-20527.02;3.985907;-4.365736;-17954.57;-8072.347;0.179288;-0.2848181;0;
-25893.13;-18700.83;1.024221;-29266.06;2.641755;-3.825486;-26834.12;-13799.71;0.1141405;-0.08962987;0;
-16711.9;-12500.91;-250.2411;-19867.16;1.433652;-7.170667;-17415.56;-9632.605;-0.2108109;0.4301989;0;
14199.9;10469.37;-397.0096;14685.17;2.705009;-8.704069;14548.74;7478.29;-0.3405337;0.10493;0;
20807.74;14280.51;-182.6869;24315.74;-8.617214;0.2801455;21837.23;11195.47;-0.0803222;-0.09007751;0;
18092.37;12486.93;17.98963;21183.12;-11.2215;1.485557;18934.36;9603.934;0.1146605;0.5596864;0;
20790.5;14713.07;-7.85921;24060.32;-5.58317;4.699245;21728.69;11833.06;-0.0803567;0.4941567;0;
18509.53;13137.6;177.8991;21263.6;-6.113424;7.440701;19171.74;9839.061;0.1795934;-0.02607857;0;
-6419.3;-4909.767;490.157;-6863.781;-0.6149248;-0.4035343;-6990.604;-4651.921;0.6341844;0.2987843;0;
-24122.92;-16833.01;236.7291;-27433.4;1.796591;-1.273907;-25312.09;-13042.01;0.1138084;0.2335168;0;
-17563.65;-10855.25;-38.1363;-21110.88;-1.420395;-3.550047;-18540.82;-8519.658;-0.4060447;0.1683148;0;
-25663.59;-18435.54;-22.57454;-29034.51;-1.083199;-6.158692;-26610.07;-13529.4;-0.0808;0.4929824;0;
-16711.95;-12490.43;-244.1124;-19801.46;-0.8146673;-2.736496;-17397.51;-9534.17;0.04921586;0.3625524;0;
14172.12;10476.24;-401.5847;14712.69;-2.019298;-3.403576;14538.46;7522.951;0.1141338;0.1023187;0;
20906.44;14376.17;-194.2227;24423.73;-3.156344;-3.534122;21934.74;11270.24;0.04905173;-0.2226208;0;
18148.31;12542.28;14.61759;21241.81;-5.83249;-2.994707;18991.51;9666.09;-0.405769;-0.1574298;0;
20933.04;14857.08;-0.9205434;24202.72;-5.893003;-5.068047;21872.23;11977.29;-0.2754265;-0.02733693;0;
18557.63;13183.97;175.6166;21343.76;-6.825086;-4.728162;19223.79;9875.367;0.1796216;-0.0922768;0;
-6070.833;-4525.772;454.2688;-6480.164;-17.2007;-4.25453;-6627.068;-4351.613;0.1794411;0.2326526;0;
-23105.06;-15832.71;210.5128;-26419.21;-19.59432;-3.44646;-24291.64;-12204.76;0.04932613;0.2973862;0;
-16922.7;-10304.09;-30.6714;-20439.32;-23.5941;-2.438253;-17904.07;-8038.974;-0.08065812;-0.09271666;0;
-25738.12;-18532.22;-4.138277;-29075.42;-26.4498;-1.966923;-26688.62;-13630.47;0.04935761;-0.2225582;0;
-16836.09;-12573.76;-232.5818;-19974.01;-19.2569;3.125634;-17548.2;-9674.523;0.24421;-0.1573672;0;
14053.05;10391.04;-408.6813;14539.23;-19.57235;4.931033;14396.62;7418.595;0.308932;-0.02727441;0;
20771.75;14245.43;-195.0029;24289.33;-7.831032;3.452454;21800.47;11152.98;0.2436542;0.03772033;0;
18053.61;12428.39;20.99083;21155.31;-2.39718;3.315019;18893.88;9552.367;-0.0814273;0.03768243;0;
20821.57;14768.47;-10.46758;24092.77;-11.16966;3.713585;21757.57;11889.26;-0.3412148;0.1026119;0;
18571.71;13130.59;182.3835;21355.1;-9.282424;3.040025;19236.57;9829.36;0.1788667;0.1674762;0;
-5973.906;-4597.449;493.7624;-6373.011;-17.31105;-1.316798;-6542.028;-4334.402;0.6984258;0.03737319;0;
-23050.96;-15904.3;243.345;-26340.88;-21.78163;-3.592895;-24252.89;-12223.74;0.1130179;0.102303;0;
-16588.42;-10094.84;-11.19357;-20107.85;-8.966372;-5.263736;-17589.27;-7922.296;-0.2119324;0.03723284;0;
-25199.68;-18058.78;7.823753;-28529.94;-8.086707;-6.799055;-26166.37;-13190.2;-0.08178474;-0.09273925;0;
-16561.1;-12385.14;-233.8127;-19668.78;-11.96335;-10.07426;-17275.17;-9401.266;-0.1466699;0.297158;0;
14175.52;10394.13;-408.6928;14668.44;-9.941595;-11.26983;14519.14;7465.442;-0.1465225;0.03699002;0;
20891.16;14368.76;-192.7499;24415.79;-20.04566;-10.38773;21921.4;11269.1;-0.4062447;-0.2878838;0;
18173.71;12560.55;34.0955;21286.87;-22.63846;-10.91316;19017.02;9683.181;-0.2109344;0.1671768;0;
20988.56;14928.95;8.433495;24258.18;-12.43431;-4.070178;21923.6;12055.44;0.1790815;-0.0278932;0;
18711.87;13264.33;171.5618;21520.35;-11.75223;-1.386771;19382.73;9953.581;0.1789016;-0.2877345;0;
-5518.543;-4144.708;476.1893;-5885.054;-10.53498;-3.260899;-6068.949;-3960.806;0.5035586;-0.09254339;0;
-22398.71;-15244.37;261.5841;-25685.04;-11.39505;-1.917964;-23579.81;-11648.55;0.5680199;0.03748428;0;
-16460.42;-9990.371;16.53803;-19975.76;-1.536983;-3.322679;-17445.88;-7789.314;-0.01725691;0.102414;0;
-25087.89;-17967.6;26.62571;-28418.67;3.488404;-4.525033;-26045.7;-13139.79;-0.2121416;0.03734371;0;
-16110.29;-11998.94;-208.5485;-19220.43;-20.56161;0.3021632;-16811.33;-9222.71;-0.5367652;-0.02766116;0;
14305.51;10458.86;-389.1387;14809.58;-24.8952;1.373587;14662.53;7435.157;-0.2113891;-0.0926007;0;
20825.69;14311.97;-186.7398;24344;-20.91808;-5.057911;21858.75;11248.38;0.1786274;-0.4823117;0;
18178.1;12568.01;31.86927;21278.6;-23.97754;-5.387743;19025.17;9687.664;-0.4712255;-0.286925;0;
20915.51;14849.81;12.89365;24183.6;-15.84912;-8.865442;21857.45;11978.54;-0.4057847;0.2980693;0;
18694.09;13255.05;192.353;21484.52;-14.02454;-10.66495;19368.89;9961.604;0.1793291;0.2328025;0;
-5700.865;-4351.843;487.0583;-6092.027;-10.12568;-4.224118;-6243.453;-4146.568;-0.4055572;-0.1572355;0;
-22823.34;-15680.96;242.7384;-26147.56;-5.561152;-3.617027;-23992.74;-12006.95;-0.6000517;-0.02714282;0;
-16628.56;-10166.48;-22.63788;-20206.47;-10.7795;2.682881;-17598.89;-7913.373;0.2451267;0.1677865;0;
-25577.03;-18453.16;-8.622163;-28954.9;-10.90239;6.632056;-26513.05;-13476.39;1.024488;-0.09225148;0;
-17199.82;-12866.51;-221.9438;-20360.44;-1.648035;0.6640332;-17884.53;-9728.036;0.5037203;0.0377759;0;
13782.05;10127.22;-393.9623;14235.1;-0.1061378;1.66811;14142.35;7264.515;-0.5362632;0.23264;0;
20778.01;14247.54;-198.3052;24288.9;-2.852697;1.197553;21811.03;11129.55;-0.2758551;0.1674389;0;
17953.16;12352.73;11.07014;21052.37;-2.64876;-0.4781013;18801.62;9493.793;0.1142262;0.3621727;0;
20826.97;14740.08;-21.33095;24081.73;-7.66994;6.354394;21770.49;11856.06;-0.2756926;0.1019394;0;
18427.67;13093.71;174.8263;21206.29;-8.599263;6.414992;19100.91;9821.244;-0.2104483;0.1668043;0;
-6492.638;-4931.86;495.583;-6886.153;-13.0786;3.260471;-7031.75;-4566.164;0.04963254;0.5564407;0;
-23740.04;-16379.51;253.847;-27028.03;-15.00784;1.649604;-24897.45;-12507.24;0.11455;0.3609796;0;
-17719.66;-10943.55;-8.18278;-21258.3;-9.500406;-0.8972828;-18681.83;-8534.661;-0.08046711;0.2306822;0;
-26660.48;-19432.82;-18.54435;-30031.35;-9.022346;-1.633193;-27574.92;-14414.14;-0.08038626;0.1005157;0;
-17714.07;-13283.54;-245.4429;-20861.61;-3.989438;-14.22404;-18372.78;-10168.19;-0.01533815;-0.09448731;0;
13577.18;10098.26;-380.0348;14043.92;-2.244117;-19.0324;13935.24;7222.009;0.0496446;0.2304444;0;
20571.8;14025.07;-173.0068;24079.98;1.978673;-12.71706;21600.11;10911.46;0.1145621;0.4900822;0;
17816.02;12210.81;25.23939;20913.6;4.990795;-13.57506;18665.59;9349.132;-0.08045507;0.3596551;0;
20648.64;14556.87;-3.771403;23912.58;-1.511931;-9.341616;21591.01;11676.31;-0.2103089;0.229359;0;
18201.63;12911.08;190.9002;20975.96;-1.241992;-6.317997;18871.03;9637.131;-0.08016291;0.3590632;0;
-6849.189;-5168.3;513.1088;-7279.555;-5.461278;-7.651308;-7403.813;-4887.007;0.04985232;0.4236698;0;
-24396.44;-16970.77;260.7823;-27706.42;-6.794962;-5.165251;-25558.9;-13073.85;-0.2100671;0.228342;0;
-18344.95;-11454.99;-12.15519;-21863.82;-7.592417;-3.619576;-19305.02;-8885.362;-0.07992138;-0.1616915;0;
-27116.95;-19824.02;-21.24777;-30456.25;-10.66527;-3.013092;-28037.4;-14697.45;0.05009361;-0.2264964;0;
-18120.63;-13719;-280.721;-21277.78;2.674683;4.424919;-18780.41;-10443.64;-0.2098261;0.0336006;0;
13430.78;9931.791;-438.7656;13863.18;4.815449;6.161907;13791.46;7166.604;-0.1446479;-0.09636784;0;
20566.41;14005.84;-222.8549;24067.04;1.729152;4.414281;21594.12;10853.7;0.05039945;-0.1612384;0;
17663.13;12065.72;-16.8594;20771.86;3.267656;5.481451;18515.53;9223.657;-0.1445532;0.2936951;0;
20454.58;14352.58;-25.41627;23733.44;-6.648614;-1.75797;21399.96;11465.7;-0.2093753;0.1634653;0;
17899.05;12665.11;171.6196;20637.32;-9.253901;-2.82793;18559.22;9403.611;0.1156718;-0.226503;0;
-7414.44;-5580.049;470.4219;-7874.325;-11.18699;-6.375062;-7969.635;-5054.043;0.1805229;-0.03137342;0;
-24653.34;-17240.52;221.0899;-27910.67;-14.2572;-9.114957;-25797.55;-13247.16;0.05040682;-0.2262439;0;
-17729.63;-10921.14;-29.19403;-21232.87;-10.49183;-0.1302073;-18675.7;-8464.166;0.3102255;-0.3559513;0;
-25810.18;-18532.13;-6.488599;-29180.28;-10.54864;0.8075626;-26740.45;-13556.83;0.5697832;0.1641451;0;
-16811.04;-12624.54;-238.0844;-19929.02;-10.40334;5.160642;-17488.78;-9705.107;0.3743086;0.1639802;0;
13953.84;10261.36;-410.8832;14460.47;-9.321164;7.901635;14322.16;7314.548;0.3089652;0.09884809;0;
20613.71;14075.33;-206.4479;24134.61;-7.369415;4.54467;21652.2;10988.16;0.1137527;0.3586181;0;
17903.09;12301.21;6.090308;21009.8;-5.553349;4.808035;18755.87;9439.158;-0.341133;0.3582578;0;
20716.47;14628.05;-20.41812;24002;-3.873806;3.932426;21665.59;11751.65;-0.1458882;0.2279631;0;
18173;12863.48;173.1926;20936.93;-1.324318;4.129424;18840.45;9592.559;-0.0158069;0.1627667;0;
-6816.037;-5157.645;481.3011;-7249.672;-2.528436;-1.702119;-7367.713;-4755.169;0.04917632;0.03266848;0;
-23967.92;-16620.65;210.1411;-27234.24;-0.9856536;-2.973084;-25120.6;-12737.64;0.2440289;-0.3571684;0;
-17613.1;-10839.97;-63.08912;-21080.96;-1.386805;-1.965353;-18555.24;-8410.185;0.1788164;-0.2268748;0;
-25977.84;-18721.66;-24.13902;-29278.44;-2.59086;-2.901139;-26896.94;-13742.35;0.2436041;0.5529612;0;
-16628.41;-12525.2;-228.0747;-19717.72;7.5258;5.206589;-17307.8;-9627.88;0.1783919;0.09763425;0;
14225.29;10435.67;-404.5068;14742;8.522615;6.942791;14592.32;7482.995;-0.08165667;-0.3572353;0;
20743.22;14211.25;-198.5318;24273.4;6.035806;11.89243;21781.69;11128.37;-0.01660728;0.2927971;0;
17965.29;12363.46;36.73705;21080.79;6.09709;15.49756;18816.17;9494.977;-0.08155794;0.2275356;0;
20827.78;14746.05;6.121756;24111.53;-5.09482;8.180969;21774.99;11878.47;-0.2114107;-0.1624971;0;
18371.54;13021.58;181.3088;21163.73;-9.645028;7.837835;19043.78;9727.95;-0.01629622;-0.0973665;0;
-6246.693;-4632.264;500.0444;-6634.593;-11.71144;5.217747;-6794.984;-4338.79;0.3085569;0.1626007;0;
-22944.75;-15681.18;261.318;-26211.6;-15.24965;2.399221;-24105.7;-11994.14;-0.01658988;0.3573394;0;
-16765.25;-10176.95;4.37193;-20235.78;-17.98001;6.683596;-17712.23;-7917.071;-0.2114752;0.4219477;0;
-25107.12;-17911.69;32.66581;-28403.54;-19.97168;6.542914;-26024.37;-13067.54;0.1785413;0.09668696;0;
-15660.91;-11664.32;-180.0882;-18741;-18.47774;0.5079979;-16332.55;-8979.41;0.1133946;-0.2932143;0;
14578.15;10661.61;-363.0652;15120.26;-18.39281;-1.836793;14954.04;7601.673;-0.2115561;-0.162985;0;
20827.06;14318.78;-191.7863;24360.06;-13.88634;2.451838;21866.75;11270.44;-0.4062455;0.0970482;0;
18235.78;12626.54;19.31603;21340.95;-11.99736;2.449374;19086.22;9741.313;-0.2109353;0.03198333;0;
20994.23;14932.62;23.57572;24278.48;-9.104915;0.839323;21942.15;12069.58;0.1790807;-0.09798349;0;
18642.59;13211.6;222.374;21444.41;-6.550171;1.441326;19320.56;9910.629;-0.01600128;-0.03291769;0;
-5613.599;-4182.064;521.8593;-5994.984;-12.30437;-3.11484;-6148.542;-4030.373;0.04898214;0.03208272;0;
-22418.93;-15256.01;284.657;-25692.03;-14.36811;-3.915505;-23569.78;-11656.43;0.1788676;-0.4227209;0;
-16518.13;-10092.19;20.45673;-20016.39;-6.65051;-3.375707;-17466.4;-7793.493;0.1786879;-0.3573288;0;
-25101.86;-18002.82;0.2275826;-28426.14;-4.165581;-4.912801;-26023.2;-13086.44;0.04857365;0.357671;0;
-15878.03;-11858.33;-224.7533;-18942.02;-18.76343;3.598724;-16550.53;-9060.225;-0.4062465;0.4872463;0;
14521.8;10604.29;-356.3518;15087.05;-20.88803;6.140337;14895.47;7602.773;-0.2109363;0.2268873;0;
20917.92;14416.84;-147.0207;24458.25;-17.38442;0.3737574;21960.04;11364.58;-0.145757;-0.228112;0;
18244.98;12636.77;52.3394;21364.09;-18.70612;0.8422624;19102.04;9757.263;-0.3405126;-0.4227849;0;
21001.62;14935.96;33.1558;24286.41;-5.290739;-2.641574;21952.94;12088.13;0.1795683;0.2273134;0;
18754.32;13317.63;216.0774;21567.14;0.206934;-5.452081;19446.61;10008.19;0.04945316;0.1621176;0;
-5591.406;-4180.589;508.2758;-5948.99;-6.357357;2.122224;-6104.266;-4068.607;0.04940347;0.03202005;0;
-22581.63;-15429.72;254.9547;-25875.38;-5.748733;2.789921;-23720.32;-11806.3;0.1792885;0.4217919;0;
-16444.14;-10008.65;-11.23035;-19975.66;5.175383;-2.504412;-17388.19;-7703.743;-0.3406304;0.3564008;0;
-24833.44;-17706.54;20.10894;-28163.69;8.318015;-2.434912;-25751.75;-12854.17;-0.2103534;0.42101;0;
-15765.88;-11721.08;-196.5211;-18822.65;2.61623;-9.063654;-16425.79;-8968.455;0.04972731;0.09575027;0;
14552.78;10637.81;-376.202;15134.24;2.814672;-11.86771;14940.32;7608.182;0.04967735;-0.1642153;0;
20868.97;14364.13;-172.598;24410.24;-3.953311;-4.353939;21911.47;11312.23;0.4394315;0.2257537;0;
18183.28;12573.14;32.20692;21290.63;-7.834105;-3.009905;19039.93;9706.185;0.04918589;0.03062487;0;
20998.59;14936.84;20.80527;24286.62;-3.338254;-5.686076;21951.76;12081.84;-0.3406676;-0.03437325;0;
18681.5;13236.41;226.9464;21482.65;-4.94249;-5.144499;19366.4;9943.442;0.3093481;0.2255307;0;
-5532.734;-4172.33;517.6658;-5906.714;-5.407015;-1.857288;-6056.994;-4012.664;0.1791026;0.03040202;0;
-22423.21;-15275.2;271.566;-25682.87;-5.266884;-0.6497295;-23562.18;-11644.98;-0.4057834;-0.1645305;0;
-16634.19;-10183.84;18.95121;-20117.99;-10.8213;0.9583917;-17563.37;-7863.565;-0.1455063;-0.09939789;0;
-25299.07;-18184.22;27.9745;-28611.62;-12.21694;2.632002;-26202.59;-13248;0.3094113;0.03063667;0;
-16147.23;-12030.73;-211.2146;-19208.69;-10.26228;-0.1168208;-16808.25;-9206.697;0.244133;-0.0993288;0;
14374.42;10534.93;-397.643;14935.41;-10.92156;-0.1836864;14757.31;7532.41;-0.08094898;-0.1641963;0;
20854.97;14343.98;-188.0517;24387.13;-8.700757;1.356984;21901.38;11294.62;-0.6655737;0.09583803;0;
18204.93;12590.76;34.69727;21311.44;-8.357223;1.556569;19064.49;9722.007;-0.9897416;0.1607091;0;
21036.89;14987.96;2.803414;24314.12;-9.219481;2.157851;21990.29;12142.72;-0.2741064;-0.1642891;0;
18868.47;13392;182.2729;21683.56;-9.343939;2.557581;19559.22;10091.75;0.2459078;-0.09915671;0;
-5404.375;-4093.311;496.4005;-5754.87;-10.60735;1.952164;-5911.2;-3958.68;-0.07917604;-0.3589264;0;
-22442.07;-15338.51;258.2087;-25726.97;-10.46297;1.213391;-23568.04;-11742.02;-0.1440638;-0.5534678;0;
-16310.42;-9938.073;3.811357;-19835.42;-15.40895;5.56594;-17252.52;-7686.226;0.1159503;-0.03317295;0;
-24765.3;-17701.55;37.32193;-28117.2;-16.73264;6.565091;-25686.56;-12816.72;0.05086645;0.2267298;0;
-15938.85;-11841.91;-187.5557;-19061.67;-14.57237;2.003777;-16602.4;-9025.55;-0.209054;0.09656726;0;
14377.49;10503.8;-367.2299;14902.48;-14.89349;1.398917;14757.79;7490.94;-0.1438766;0.09647022;0;
20796.61;14287.93;-169.9287;24325.73;-12.39931;-0.9467688;21836.9;11231.34;-0.01379738;-0.09852875;0;
18055.74;12455.13;35.74814;21153.88;-12.52155;-2.82134;18911.51;9590.063;-0.3386202;0.03150494;0;
20887.52;14817.93;4.727794;24160.25;-8.154708;-0.9429826;21838.28;11961.21;-0.2083453;0.4862447;0;
18582.87;13178.05;175.356;21376.94;-7.008414;-1.544881;19267.63;9887.107;0.1816681;0.6156908;0;
-5760.89;-4321.232;480.1828;-6170.639;-9.880784;-2.615056;-6285.144;-4102.362;0.1814856;0.0953334;0;
-22610.94;-15421.32;242.4914;-25944.12;-8.866478;-3.014326;-23758.88;-11770.95;0.1813032;-0.2945665;0;
-16550.13;-10052.33;-10.70325;-20100.88;-17.69883;-2.810349;-17503.39;-7824.034;0.4409904;0.09553359;0;
-25097.93;-17971.89;14.13877;-28468.98;-19.28863;-2.338644;-26022.45;-13079.23;-0.0142241;0.4202743;0;
-16109.2;-11995;-217.9463;-19233.15;-21.54643;-4.278799;-16780.35;-9128.927;-0.7288505;0.1599827;0;
14303.31;10471.79;-387.0328;14831;-25.67797;-4.140534;14677.43;7482.573;-0.2083795;0.09485456;0;
20752.3;14237.35;-180.7318;24281.83;-9.442537;-3.667493;21791.57;11174.43;0.2466013;-0.03517545;0;
17958.28;12363.78;22.94127;21063.58;-6.954803;-3.730791;18812.31;9506.425;-0.2733852;-0.2300421;0;
20810.39;14725.55;-10.08082;24087.98;-5.809715;0.4927605;21761.69;11862.31;-0.2081432;0.03005839;0;
18383.78;13066.69;152.6132;21163.01;0.3590403;1.831924;19060.96;9789.847;0.3118047;0.1599629;0;
-6455.417;-4803.479;446.0935;-6864.485;-16.52053;1.830083;-6995.571;-4489.63;0.4414261;-0.3599366;0;
-23341.22;-16058.74;225.4122;-26621.67;-16.03542;2.899971;-24497.72;-12311.28;0.3110479;-0.3595749;0;
-17036.94;-10448.12;-7.806576;-20521.46;-12.46933;1.35645;-17995.08;-8160.863;0.1158333;0.2254925;0;
-25463.48;-18302.23;19.76554;-28777.19;-11.58615;1.020172;-26402.38;-13421.42;0.05074954;0.4851353;0;
-15999.63;-12087.52;-203.0173;-19090.43;1.21887;0.2154741;-16697.92;-9270.358;0.1156659;-0.1000583;0;
14549.35;10569.51;-372.0408;15084.4;2.825236;-1.258367;14906.92;7581.803;0.180517;-0.4247945;0;
20697.29;14199.42;-149.2475;24235.85;30.75367;-0.654256;21737.03;11142.63;0.1803356;0.0953711;0;
17936.83;12340.13;71.72895;21051.78;42.37804;-2.194206;18789.97;9476.979;0.05021974;0.03030792;0;
20780.97;14701.78;19.66738;24072.03;21.30306;-3.732609;21731.14;11841.42;-0.2746674;-0.3595266;0;
18308.78;12945.79;187.735;21102.92;21.14794;-5.202361;18984.64;9672.449;-0.1444568;-0.2292306;0;
-6219.627;-4735.352;481.0395;-6605.463;14.83005;-10.01978;-6758.551;-4422.502;-0.01437693;-0.09906563;0;
-23204.4;-15927.04;234.1019;-26432.36;8.318412;-12.4211;-24348.76;-12135.52;-0.4691339;0.09593596;0;
-17249.61;-10544.41;-6.293884;-20690.75;11.52426;-15.48977;-18191.75;-8142.892;-0.1438258;0.2257742;0;
-25424.97;-18212.27;-2.867404;-28720.72;9.034432;-17.88553;-26343.93;-13290.87;-0.01374657;0.4854167;0;
-15992.3;-11885.89;-241.2915;-19041.39;-3.433227;-18.53739;-16659.08;-9140.546;-0.6634062;0.290027;0;
14279.24;10485.35;-394.0815;14855.08;-8.1852;-20.26026;14658.24;7458.784;-0.01306617;-0.2949705;0;
20656.38;14140.95;-175.7482;24202.35;-0.07167417;-17.3597;21698.72;11098.02;0.571653;0.03016256;0;
18000.04;12395.55;42.31882;21120.1;0.731705;-16.40449;18856.47;9529.821;-0.4034315;0.354969;0;
20822.84;14758.03;-5.246691;24116.8;2.33856;-19.06727;21775.45;11909.2;-0.4679935;-0.03519176;0;
18541.63;13155.14;165.9382;21366.59;4.680735;-18.37834;19226.56;9871.722;0.1821502;0.09477829;0;
-6070.543;-4565.946;499.7442;-6404.678;6.953207;-18.02496;-6588.727;-4320.959;0.1169998;-0.03525164;0;
-23113.06;-15883.15;269.1858;-26353.04;8.486463;-17.33702;-24241.01;-12180.63;0.05191493;-0.1651509;0;
-16813.21;-10275.25;6.609667;-20285.63;14.23871;-15.44414;-17745.31;-8015.341;0.4416668;0.09488443;0;
-25328.34;-18172.77;27.13958;-28603.29;18.17652;-14.55784;-26237.53;-13197.62;0.3112883;0.09478909;0;
-16468.93;-12356.47;-196.7908;-19507.65;4.695296;-9.92145;-17127.75;-9317.111;-0.3386979;0.1596612;0;
14080.26;10283.84;-361.1353;14637.56;1.340699;-6.964354;14461.84;7382.252;-0.4682922;0.2244681;0;
20454.93;13931.23;-146.1772;24003.59;10.91755;-10.70828;21498.7;10851.37;-0.337887;0.02934051;0;
17443.26;11838.61;75.20222;20571.01;11.24234;-10.42959;18299.98;8983.07;-0.4674821;-0.1006237;0;
20458.58;14417.71;45.95383;23744.86;7.010513;-6.132321;21412.22;11577.08;-0.2721104;-0.03555521;0;
18287.98;12849.01;218.0711;21095.14;6.401233;-5.791245;18971.08;9537.106;-0.1419023;0.02944786;0;
-5790.021;-4174.501;512.3602;-6171.052;10.21222;-3.039248;-6315.223;-3952.325;-0.07679238;-0.1005164;0;
-20886.47;-14114.2;256.2863;-24230.13;13.015;-1.964467;-22022.82;-10694.12;-0.2716173;-0.1653828;0;
-13243.43;-7877.941;18.61691;-16859.49;6.236764;-6.182296;-14214.12;-6134.004;-0.206377;0.0946528;0;
-22310.1;-15559.18;86.17361;-25685.69;6.297846;-6.979879;-23276.28;-10998.64;0.1186671;0.2894597;0;
-14851.69;-10734.94;-123.7606;-17902.46;13.59254;-7.240798;-15532.49;-8115.441;-0.2062889;0.1592342;0;
14257.25;10258.55;-308.7151;14841.17;14.38316;-7.166539;14640.52;7139.346;-0.07614689;0.02913949;0;
20017.45;13543.94;-113.2218;23575.56;24.08062;-10.44138;21058.84;10529.59;0.4436684;-0.03585713;0;
17087.47;11496.87;83.96481;20208.6;27.40533;-11.30167;17941.27;8628.132;-0.01154884;0.0941136;0;
20196.59;14115.2;15.43048;23477.91;20.88106;-7.271456;21147.12;11259.53;-0.2714066;0.02905168;0;
18244.28;12898;158.2026;21033.49;18.783;-7.197167;18925.32;9622.187;-0.07623186;-0.3607816;0;
-6032.875;-4464.635;466.1387;-6436.944;21.10865;-0.02288333;-6563.063;-4245.126;0.05377942;-0.2304844;0;
-22282.92;-15112.11;243.8444;-25593.64;20.3505;3.192199;-23426.33;-11516.11;0.1836601;0.09458395;0;
-15760.86;-9482.76;-1.730454;-19285.82;4.187778;-2.303488;-16707.47;-7394.62;0.1834755;0.02952155;0;
-25063.87;-17984.67;20.229;-28362.05;-1.175064;-1.698327;-25986.89;-13040.22;0.05335648;-0.03547545;0;
-16715.45;-12475.17;-205.1624;-19747.51;-4.924927;-3.170245;-17381.13;-9353.451;-0.01166447;0.1594622;0;
13983.81;10222.62;-362.8769;14545.35;-10.74713;-4.305769;14363.98;7335.969;0.05331459;0.4191714;0;
20632.4;14122.13;-160.3639;24171.17;-0.01906;-2.091006;21672.21;11039.09;-0.01170632;0.2238482;0;
17841.85;12243.92;25.01665;20957.12;1.855993;-2.356837;18697.37;9396.273;0.2481748;-0.1012135;0;
20741.16;14672.59;-7.991907;24023.99;-0.1546276;-2.555417;21694.08;11819.06;0.3128928;-0.1011118;0;
18399.89;13039.6;189.2763;21183;3.662945;-2.284918;19078.29;9756.28;0.1826437;0.02892449;0;
-6070.802;-4561.456;501.0544;-6489.401;1.78423;-3.220383;-6608.26;-4336.007;0.3773622;-0.2309739;0;
-23052.51;-15741.27;273.6337;-26351.88;4.661849;-3.083181;-24202.3;-12055.35;-0.2077231;-0.03583983;0;
-17353.21;-10570.35;38.41434;-20855.66;11.35595;-3.080083;-18291.73;-8225.152;-0.5973184;0.4839349;0;
-25976.78;-18725.47;35.03367;-29311.87;15.29665;-3.679835;-26887.08;-13802.74;-0.2069141;0.09364463;0;
-16348.16;-12346.65;-223.2936;-19478.3;19.16605;0.5437876;-17014.81;-9534.349;-0.07677154;-0.3612209;0;
14429.85;10528.53;-389.2201;14931.6;20.68703;1.748812;14809.77;7537.53;-0.01172706;0.02894613;0;
20760.62;14253.15;-192.6307;24293.79;33.25855;-2.338782;21804.43;11205.95;0.1182194;0.4187211;0;
18006.52;12416.76;7.165632;21122.37;37.44469;-3.006261;18861.52;9558.062;0.1181006;0.4183004;0;
20665.94;14593.33;2.613841;23956.39;30.57553;-2.668326;21620.01;11744.65;0.05301461;0.1580107;0;
18282.62;12927.37;195.6704;21050.24;31.54919;-3.268491;18956.41;9652.677;0.182896;-0.1669848;0;
-6190.167;-4689.914;484.1412;-6630.119;17.11653;-5.20759;-6734.761;-4420.219;-0.1421245;-0.2967517;0;
-23439.41;-16114.71;242.0262;-26708.74;10.60259;-6.40805;-24585.75;-12350.06;-0.401851;-0.1665188;0;
-17279.24;-10475.34;-0.3296648;-20763.89;15.07992;-4.927987;-18229.37;-8115.612;-0.2715126;0.1584852;0;
-25484.5;-18249.53;8.837934;-28814.41;9.706131;-4.856052;-26413.93;-13259.66;-0.1413051;0.02839127;0;
-16297.92;-12282.4;-230.5194;-19319.95;19.94416;-6.659712;-16954.94;-9296.842;-0.07619573;-0.1665393;0;
14384.98;10525.55;-388.8799;14999.6;23.54144;-6.586038;14777.09;7600.433;-0.4659232;-0.1014046;0;
20843.01;14331.74;-171.2858;24382.26;2.216968;-7.450198;21884.1;11260.69;-0.270553;-0.03633537;0;
18005.15;12408.95;47.30772;21111.25;-1.401606;-8.112541;18860.95;9559.3;0.4443596;0.1586032;0;
20854.61;14795.23;21.55436;24142.35;2.41722;-1.540184;21809.19;11948.36;0.1840437;0.3533458;0;
18405.57;13010.49;194.0554;21183.35;-2.340631;1.341507;19080.7;9720.347;-0.01104323;0.4829255;0;
-5834.574;-4346.426;503.4079;-6261.468;14.13879;-6.4966;-6374.704;-4157.106;-0.07599948;0.2875382;0;
-22446.98;-15203.05;275.86;-25730.86;17.54083;-7.896713;-23586.52;-11579.21;-0.1408904;-0.1025548;0;
-16826.79;-10219.43;15.01061;-20293.06;4.863557;1.08669;-17756.14;-7902.216;0.1191205;0.2873523;0;
-25260.05;-18094.46;8.639348;-28590.65;5.529232;2.760171;-26177.14;-13244.15;0.05403344;0.3520309;0;
-15400.87;-11505.35;-245.0543;-18472.48;-5.528386;-1.797319;-16065.8;-8889.445;-0.2058902;-0.2979962;0;
14834.03;10839.53;-419.3297;15439.77;-8.33587;-2.532326;15225;7765.619;-0.01078131;-0.4276315;0;
20835.86;14343.43;-195.2708;24387.96;-8.729636;-2.060901;21879.91;11329.54;-0.2056725;-0.1023651;0;
18260.12;12657.44;34.65368;21368.34;-13.00777;-3.398489;19114.84;9785.282;-0.4653352;-0.03729487;0;
21052.25;15009.02;25.57653;24348.47;7.769275;-4.399695;22007.78;12178.93;-0.1400309;0.0926773;0;
18658.47;13207.66;215.8614;21468.28;13.25383;-5.533985;19343.71;9905.813;-0.07492288;0.2225189;0;
-5419.633;-4040.507;511.2147;-5821.831;7.145915;-7.805844;-5946.102;-3949.181;0.1200544;0.2222953;0;
-21911.96;-14852.28;278.1773;-25224.68;11.08987;-8.065932;-23056.34;-11360.05;0.1849011;0.1571046;0;
-15718.89;-9452.466;45.35841;-19228.58;5.988516;-13.55025;-16667.87;-7331.231;-0.07515402;0.02701201;0;
-23975.75;-16938.73;69.67558;-27310.55;6.585711;-15.07724;-24903.69;-12167.09;-0.2699805;0.09195223;0;
-14833.22;-11010.06;-170.3676;-17848.1;7.18133;-11.57904;-15484.47;-8326.879;-0.4646113;-0.2979442;0;
14996.55;10871.15;-355.4158;15656.31;6.370807;-12.17025;15407.56;7820.516;-0.2692424;-0.4275796;0;
20998.82;14526.9;-150.8332;24551.17;11.78941;-3.919362;22046.53;11507;-0.07406985;-0.03734586;0;
18289.09;12689.32;52.2164;21391.4;10.70584;-1.102141;19143.24;9827.483;-0.009028084;0.1575937;0;
21041.66;15001.04;1.564368;24333.96;19.00145;-2.976556;21997.17;12169.19;0.1209157;0.2224027;0;
18759.83;13276.51;171.0089;21559.79;20.58898;-0.8301108;19443.44;9976.717;-0.1390752;0.1572119;0;
-4938.791;-3686.075;481.7277;-5354.892;13.66941;-7.661414;-5465.621;-3614.309;0.1209339;-0.03784812;0;
-21321.42;-14302.39;251.6559;-24643.23;13.99047;-9.730064;-22465.08;-10872.26;0.3806818;-0.4276142;0;
-15719.38;-9426.153;0.326098;-19227.7;-2.83545;-6.639195;-16664.43;-7285.666;-0.009504791;-0.4921518;0;
-24086.76;-17045.55;10.28951;-27448.46;-9.396685;-8.37408;-25015.8;-12294.92;-0.4642666;0.1580161;0;
-14565.68;-10755.87;-232.8174;-17624.99;-1.41664;-6.825058;-15229.95;-8270.049;-0.4638001;0.4177267;0;
15126.78;10996.73;-388.2396;15766.31;-2.620665;-6.952166;15525.84;7858.455;-0.2684321;0.2873723;0;
20990.45;14523.27;-159.6673;24539.73;-5.230976;-10.6961;22036.04;11541.38;-0.3331297;0.3520509;0;
18373.1;12782.44;38.09694;21474.06;-6.296471;-10.95329;19227.12;9907.156;-0.1378929;0.2867298;0;
21084.66;15035.52;2.326616;24377.46;2.684837;-14.29137;22039.44;12213.01;-0.07278705;-0.1033624;0;
18686.11;13250.33;186.3568;21499.65;5.361456;-15.34873;19369.46;9955.316;0.1221881;-0.2981605;0;
-5265.094;-3861.373;490.0324;-5649.298;5.824584;-12.31914;-5797.803;-3781.709;0.641804;0.3518125;0;
-21504.19;-14487.17;263.1538;-24805.46;9.838195;-11.97185;-22659.22;-11012.08;0.3163225;0.2215243;0;
-15340.06;-9194.777;16.63818;-18868.21;-2.362828;-8.208896;-16299.48;-7146.989;-0.07379942;0.02639969;0;
-23998.05;-16959.47;32.48848;-27359.27;-4.905074;-6.258142;-24937.1;-12189.25;-0.2686273;0.1563079;0;
-15072.72;-11199.6;-190.0417;-18072.62;4.6107;-5.849957;-15727.83;-8390.159;-0.5282267;-0.4935226;0;
14906.05;10766.57;-370.4631;15585.99;5.878864;-4.303471;15320.3;7772.963;-0.2028593;-0.3630921;0;
20989.46;14519.59;-187.542;24533.65;3.126291;-3.361508;22034.79;11480.35;-0.2026554;0.02707683;0;
18197.07;12608.39;29.92788;21300.69;2.387192;-1.884506;19048.98;9761.327;-0.3323865;0.02704962;0;
20916.12;14867.19;18.04439;24218.51;11.62819;-3.021322;21873.6;12031.29;0.1876862;0.2219245;0;
18511.24;13084.53;205.1353;21291.36;14.42955;-2.214491;19181.42;9796.698;0.3174323;0.1567342;0;
-5344.678;-4000.188;519.8334;-5773.085;0.8173925;-3.618907;-5893.232;-3836.813;0.057244;0.3514787;0;
-21583.81;-14541.18;291.8629;-24875.59;-5.948583;-4.753859;-22730.16;-11060.72;-0.2026829;0.2211908;0;
-15923.3;-9626.611;44.58443;-19398.44;6.649697;3.020694;-16860.99;-7471.931;-0.2024792;-0.2987702;0;
-24498.8;-17435.52;45.67968;-27826.55;3.628906;4.625249;-25419.88;-12660.5;-0.007373748;-0.1035679;0;
-14911.4;-11033.1;-214.2044;-17944.27;-7.158382;3.749824;-15566.09;-8564.533;-0.3322031;0.4162749;0;
14907.2;10830.59;-394.133;15553.08;-9.026224;5.755544;15309.99;7686.72;-0.5267712;0.4808239;0;
20739.36;14267.1;-170.6303;24289.51;-38.22123;-0.8144448;21785.3;11290.9;0.2533661;0.1555041;0;
18124.47;12542.11;55.31827;21226.83;-47.76101;-1.885353;18978.46;9669.646;0.2531115;0.09038051;0;
20779.14;14719.89;33.44553;24078.22;-44.43147;0.9966851;21733.49;11899.52;-0.2668815;0.4151264;0;
18341.25;12957.98;220.0369;21134.66;-50.34769;0.1250275;19022.63;9670.617;-0.3315807;0.2198073;0;
-5821.609;-4302.795;499.5189;-6248.069;-28.66247;4.880568;-6357.835;-4161.839;-0.1363455;-0.430087;0;
-22343.47;-15204.3;229.0902;-25657.3;-21.19893;5.545493;-23495.25;-11652.53;0.2535956;-0.4946222;0;
-15961.07;-9624.806;-12.51868;-19451.65;-24.12439;4.468194;-16909.43;-7500.778;0.4482428;0.1555482;0;
-24075.96;-16972.78;29.9257;-27392.69;-17.06755;3.659909;-25004.2;-12269.81;0.382825;0.02545721;0;
-14805.54;-11003.66;-196.35;-17804.28;-15.50919;4.259079;-15452.99;-8420.315;-0.07233103;-0.4293398;0;
15040.4;10903.38;-367.9258;15714.21;-12.07833;4.589714;15457.6;7832.652;-0.3970951;-0.2340063;0;
20953.48;14496;-158.38;24510.63;-5.43476;-9.346982;22002.57;11495.56;-0.07185934;0.09106553;0;
18281.71;12690.68;42.80313;21387.31;-3.955431;-15.03108;19139.04;9830.107;-0.1367545;0.2209087;0;
21032.48;15006.82;3.60793;24331.95;-0.2004118;-7.98295;21992.23;12184.4;-0.2665518;0.09075205;0;
18718.03;13244.09;182.733;21540.24;1.206309;-9.783346;19407.7;9952.337;0.1884875;-0.4290779;0;
-5086.305;-3818.039;496.7977;-5454.582;-6.498062;-11.38111;-5607.361;-3740.145;0.1233307;-0.6885161;0;
-21539.52;-14504.09;276.8776;-24813.02;-6.826325;-10.69984;-22682.44;-11063.94;0.05823947;-0.6878242;0;
-15946.17;-9645.175;23.92948;-19416.04;-18.54111;-17.78916;-16889.47;-7490.752;0.1881156;-0.1024271;0;
-24425.46;-17384.26;36.27422;-27744.29;-24.28326;-19.31183;-25351.94;-12649.1;-0.2668448;0.4174146;0;
-14744.75;-10940.68;-186.4472;-17756.31;-9.991617;-10.85276;-15401.77;-8488.707;-0.136642;0.2870605;0;
15071.27;10929.87;-363.9362;15748.36;-8.90985;-7.760762;15481.93;7791.596;-0.006569985;0.2218047;0;
20843.51;14385.49;-178.804;24402.28;-8.632478;-9.360432;21891.75;11411.88;0.05840396;0.2215818;0;
18276.68;12701.14;17.02736;21386.21;-6.48035;-6.738814;19132.49;9838.48;0.2532473;-0.0385102;0;
20965.7;14909.08;-1.324287;24273.5;-5.335739;-4.253675;21925.07;12088.88;-0.07184388;-0.1034388;0;
18401.95;13026.05;199.2325;21208.56;-3.053202;-3.378744;19086.49;9749.731;-0.006804343;0.09156713;0;
-5815.428;-4329.086;498.8816;-6192.046;-5.996895;5.734208;-6329.207;-4166.403;0.1881045;0.1564425;0;
-22222.68;-15039.24;252.4727;-25495.8;-5.588728;7.737812;-23344.68;-11476.43;0.1229482;-0.3634535;0;
-16232.72;-9813.218;12.85491;-19730.51;-7.12433;6.725293;-17169.85;-7665.059;0.3177266;-0.7528923;0;
-24952.79;-17837.07;35.98661;-28285.22;-8.724762;7.52233;-25875.65;-13017.6;0.2524401;-0.2323971;0;
-15557.1;-11620.42;-209.8947;-18584.83;-1.816143;-1.862595;-16210.43;-8850.671;0.1222517;0.4175099;0;
14715.22;10699.29;-395.2468;15349.53;-0.006632772;-4.673884;15119.16;7700.533;-0.07277314;0.6119924;0;
20820.57;14344.39;-193.4353;24359.59;-4.293534;-9.625803;21866.28;11324.59;-0.1376674;0.6113774;0;
18101.06;12530.99;19.23042;21199.26;-3.552285;-13.16617;18955.13;9688.251;0.05737299;0.2209591;0;
20826.15;14756.42;-9.836802;24122.62;-3.81616;-13.2869;21782.86;11927.21;0.05731535;-0.1040997;0;
18277.29;12969.45;163.2892;21058.51;-3.678603;-16.01979;18953.12;9698.141;-0.1376443;-0.3638645;0;
-6260.003;-4612.204;464.6454;-6685.296;0.4109298;-7.765037;-6801.242;-4385.857;-0.007571281;-0.2985315;0;
-22823.42;-15567.2;239.479;-26125.8;1.884385;-6.149644;-23978.86;-11938.36;0.4472077;0.02660519;0;
-16775.18;-10276.13;11.18113;-20285.46;2.685799;-4.602858;-17735.69;-7983.638;0.5766931;-0.03838889;0;
-25344;-18190.92;26.95883;-28698.48;3.754827;-0.7133445;-26278.82;-13324.21;0.1213422;0.09158438;0;
-15674.42;-11708.25;-216.8988;-18750.3;7.971589;-11.89853;-16340.85;-9089.989;-0.2036164;0.1564597;0;
14648.17;10696.54;-373.274;15243.92;11.04406;-13.896;15039.3;7624.498;0.05645752;-0.1035669;0;
20707.12;14232.42;-151.9319;24245.79;5.205816;-7.585829;21751.88;11231.61;0.1863355;-0.3633322;0;
18099.1;12524.06;56.19433;21195.93;5.334307;-8.716917;18954.1;9675.338;0.1211809;-0.4929018;0;
20837.26;14771.45;25.09097;24125.91;8.67785;-3.68456;21790.07;11937.82;0.3809285;-0.2325372;0;
18219.11;12922.09;200.2433;21006.05;8.803828;-1.939302;18893.4;9663.601;0.5754477;0.2874352;0;
-6494.065;-4862.129;484.774;-6906.205;11.4743;-10.10903;-7035.165;-4559.355;0.4449349;-0.1026576;0;
-23298.65;-16000.22;239.8473;-26608;10.32369;-11.84043;-24451.95;-12261.37;0.2495858;-0.4273912;0;
-17175.59;-10577.03;8.534919;-20708.75;21.4991;-10.42189;-18124.23;-8243.094;0.1843676;0.09277699;0;
-25807.89;-18610.02;26.65785;-29162.43;26.76879;-11.55012;-26725.99;-13627.08;0.05424771;-0.03725092;0;
-16339.14;-12224.64;-217.5431;-19404.77;3.298596;-13.28001;-16992.59;-9336.168;-0.07574148;-0.3620502;0;
14388.96;10568.98;-378.1811;14983.38;-1.593863;-14.20443;14787.22;7616.556;-0.3355348;-0.03684971;0;
20732.84;14228.6;-167.485;24276.66;6.579412;-15.86467;21779.48;11193.4;0.05460646;0.288024;0;
17900.53;12331.47;40.78184;21008.69;4.228277;-17.32236;18757.84;9491.485;0.4443556;0.2227673;0;
20687.38;14626.96;15.78466;23978.88;8.712007;-15.49641;21646.45;11800.16;-0.2707316;0.4174455;0;
18215.22;12913.99;192.1645;20989.99;9.707631;-16.08368;18892.87;9645.44;-0.1405249;0.5469607;0;
-6522.281;-4801.771;494.6318;-6937.103;4.472964;-15.06284;-7057.873;-4529.725;0.2494204;0.02667238;0;
-22990.79;-15762.53;246.072;-26270.83;2.995577;-14.31089;-24126.06;-12108.06;-0.270569;-0.1682564;0;
-16573.45;-10182;-14.13837;-20076.29;6.274121;-19.78899;-17512.66;-7960.602;-0.2053298;-0.2330547;0;
-25419.23;-18274.34;2.461253;-28746.67;6.000373;-20.97474;-26340.62;-13399.26;0.1846806;-0.1678532;0;
-16038.88;-12007.65;-239.2947;-19076.14;2.44437;-20.2839;-16691.61;-9234.832;-0.01040701;0.4170215;0;
14562.6;10643.96;-401.6756;15168.8;2.441914;-21.06725;14961.18;7633.707;-0.1403312;0.1567331;0;
20735.03;14256.64;-186.2551;24284.04;-6.469148;-19.03665;21782.2;11240.83;0.05471179;-0.03832638;0;
18108.41;12532.54;19.4225;21221.22;-9.81155;-18.48166;18966.51;9690.901;-0.01031053;0.1566142;0;
20870.88;14823.47;0.4749948;24167.91;-2.970164;-18.59706;21827.85;11996.17;-0.4650716;0.02652211;0;
18311.06;12958.54;180.7433;21101.81;-2.833458;-17.77458;18987.21;9688.866;-0.0748002;0.09146281;0;
-6051.775;-4493.823;494.9974;-6464.64;-1.758884;-16.55108;-6595.489;-4283.992;0.3800463;-0.1035311;0;
-22637.45;-15396.67;287.5884;-25932.28;-0.9528334;-15.26178;-23784.64;-11782.87;0.1847624;-0.4282638;0;
-16723.55;-10203.21;28.74187;-20204.15;3.000239;-15.78231;-17660.36;-7935.473;0.1196095;-0.2978988;0;
-25281.71;-18113.71;28.97848;-28579.18;6.011334;-15.1636;-26202.7;-13220.23;-0.01044541;-0.1676648;0;
-15672.74;-11705.13;-190.7371;-18718.03;-1.229351;-11.86632;-16341.09;-8970.981;0.05453243;-0.03756164;0;
14658.36;10701.72;-360.585;15252.59;-2.031423;-10.11284;15048.77;7688.18;0.1844123;-0.2324259;0;
20851.59;14373.04;-168.6315;24390.96;1.38687;-9.231905;21898.44;11360.34;0.1192597;-0.167225;0;
18195.12;12619.25;35.29494;21300.01;0.6485424;-6.543433;19049.96;9772.857;0.1841072;0.3526818;0;
20919.8;14877.98;2.541552;24215.57;3.929444;-9.283036;21875.46;12058.96;0.1189549;0.4172947;0;
18491.72;13119.25;177.3261;21285.32;4.327638;-8.871811;19170.13;9843.421;0.1838027;0.2219734;0;
-6013.876;-4433.101;473.3116;-6413.403;1.912392;-0.62424;-6555.971;-4209.177;0.1186506;0.09181566;0;
-22408.89;-15296.54;236.7516;-25693.59;1.239909;1.385875;-23564.64;-11724.4;-0.01140326;-0.1031786;0;
-15835.74;-9623.72;11.01763;-19331.54;0.7701484;5.604285;-16793.4;-7517.449;0.3134449;0.02685972;0;
-24343.73;-17266.55;37.49325;-27667.02;1.372587;8.143884;-25282.55;-12518.35;0.4430646;0.1567674;0;
-15129.77;-11257.77;-209.5296;-18166.33;-0.9733168;4.384778;-15800.79;-8628.498;0.1177827;-0.1032595;0;
14974.52;10877.36;-385.0433;15595.17;2.10912;3.710543;15364.94;7815.176;-0.07723764;-0.2980577;0;
21028.32;14571.92;-170.2485;24581.08;-1.644043;4.108713;22070.49;11574.43;0.117742;-0.03788888;0;
18451.71;12868.32;51.5455;21561.75;1.50544;3.367772;19303.61;10012.31;0.2475584;0.02711653;0;
21180.54;15162.26;25.92843;24476.43;8.671224;-2.529988;22134;12343.59;-0.01255974;-0.2977474;0;
18658.05;13203.71;210.1223;21473.79;9.465817;-4.670778;19338.14;9915.435;0.1823549;-0.3624156;0;
-5217.847;-3845.264;519.8804;-5606.218;46.09512;-7.479368;-5764.792;-3750.087;0.3770737;-0.1671494;0;
-21172.38;-14210.95;287.0216;-24467.79;59.37804;-10.82088;-22342.45;-10810.63;-0.07807658;-0.1669815;0;
-15177.9;-9145.167;43.94901;-18677.7;43.51089;-2.102467;-16148.8;-7099.858;-0.01303079;-0.03687899;0;
-23802.37;-16816.16;46.52853;-27141.51;46.28021;-0.2248324;-24762.38;-12131.6;0.116917;0.09309276;0;
-14384.05;-10628.71;-201.3155;-17371.95;32.77075;-3.707597;-15059.44;-8181.778;-0.4029392;0.02803187;0;
15287.45;11067.55;-362.782;15986.58;21.61841;-1.359591;15693.55;7927.084;-0.4675017;0.2878731;0;
21093.38;14660.01;-156.6459;24651.71;30.97478;-5.17613;22138.01;11693.58;-0.07722789;0.0926818;0;
18610.34;13022.69;38.16366;21719.89;22.23612;-4.568083;19461.77;10153.66;-0.07715029;-0.1023134;0;
21334.26;15335.48;19.9938;24635.29;13.57262;1.129935;22288.58;12532.35;-0.1420401;0.2226262;0;
18972.97;13447.89;219.2485;21822.68;11.88502;2.937217;19663.7;10149.22;-0.07693005;-0.03746691;0;
-4510.267;-3330.182;538.0866;-4840.455;-35.41566;10.03433;-5036.672;-3307.753;0.247984;0.02753807;0;
-20181.7;-13496.38;324.2781;-23473.94;-50.51797;13.64121;-21349.94;-10197.75;0.3776695;0.1574451;0;
-14047.37;-8374.621;67.0658;-17567.67;-31.84669;14.56526;-15036.13;-6516.313;0.3123226;0.09231956;0;
-22769.83;-15906.81;81.25687;-26114.18;-36.63746;16.6271;-23743.39;-11362.09;0.1820741;0.5469982;0;
-13849.75;-10134.75;-143.2744;-16786.43;-13.29107;17.682;-14512.96;-7720.234;0.1818912;0.4814812;0;
15381.35;11063.04;-346.6844;16152.15;-4.837623;18.53501;15806.39;7905.907;0.3766105;-0.1037087;0;
21096.14;14680.92;-174.0321;24657.58;-4.96746;16.30607;22144.28;11716.29;0.376232;-0.3634738;0;
18613.85;13037.43;15.79748;21706.62;3.477625;16.15572;19466.02;10184.64;0.3108867;-0.0382719;0;
21308.1;15288.11;-10.72069;24605.84;-3.223675;11.98654;22264.58;12476.36;0.2456069;0.416538;0;
18848.57;13370.58;176.3835;21669.04;-0.006231022;10.36703;19533.54;10090.88;-0.07947657;0.3511521;0;
-4889.93;-3611.105;474.0566;-5253.565;-7.84213;10.35661;-5421.15;-3495.639;-0.07939672;-0.1689395;0;
-20815.99;-13946.66;268.4178;-24123.86;-11.85371;7.599906;-21971.35;-10576.47;0.05061775;-0.3636718;0;
-14695.02;-8831.065;47.79006;-18233.66;0.6841271;18.04136;-15657.39;-6885.289;0.2454689;-0.2333717;0;
-23210.73;-16279.96;63.32796;-26582.23;0.9508834;20.09971;-24159.8;-11665.06;0.3101896;0.09169954;0;
-14147.34;-10285.36;-170.134;-17147.81;-0.3228698;13.5153;-14805.02;-7913.639;-0.2748282;0.2215421;0;
15101.01;10930.16;-350.3099;15808.53;-0.1214746;13.83664;15518.98;7758.705;-0.5993887;0.1563521;0;
20907.45;14476.99;-153.0881;24458.18;0.8166525;5.785028;21955.48;11534.88;-0.144015;0.2211624;0;
18437;12866.29;48.35518;21528.3;2.624493;2.162137;19291.69;10005.37;-0.078903;0.09100547;0;
21139.8;15119.29;10.35692;24434.79;-6.286752;6.044975;22098.71;12315.48;-0.4036604;-0.03902067;0;
18764.96;13334.42;187.0077;21560.53;-8.156446;4.498293;19449.3;10058.76;-0.2083528;-0.1689162;0;
-5453.513;-4063.318;492.5568;-5857.626;-5.803725;5.297568;-5987.782;-3951.716;-0.07820877;-0.03881174;0;
-21704.53;-14727.44;265.4258;-25035.52;-8.276139;5.962075;-22858.52;-11295.27;-0.01316284;0.09116196;0;
-15180.57;-9187.961;22.45292;-18742.78;5.530904;2.20504;-16145.86;-7208.173;0.3116871;-0.2337664;0;
-23965.13;-16975.28;52.13417;-27347.11;10.74928;2.33679;-24917.12;-12271.94;0.2464066;-0.4284335;0;
-15155.45;-11204.63;-174.7573;-18205.84;-2.791826;4.209964;-15818.92;-8561.581;-0.1436451;-0.1681336;0;
14770.49;10692.24;-360.1447;15400.05;-2.454228;5.076512;15176.31;7639.898;-0.0785334;0.351774;0;
20851.03;14407.86;-152.5432;24391.52;-1.714828;7.348709;21895.83;11417.19;-0.1434218;0.2214859;0;
18332.74;12766.65;54.84962;21431.07;-3.253346;8.413052;19187.42;9927.387;-0.2732124;0.02636131;0;
21085.88;15067.31;14.64281;24374.53;8.873712;10.54805;22040.08;12257.33;-0.1430032;0.3511716;0;
18490.53;13081.76;205.7508;21285.33;12.54849;10.47047;19166.81;9804.225;-0.2727942;0.02598196;0;
-5552.787;-4089.074;510.2034;-5988.957;7.043525;15.41656;-6099.714;-3922.935;-0.2075527;-0.03901148;0;
-21458.08;-14472.87;267.3282;-24817.21;7.839755;17.67837;-22625.18;-11066.84;-0.07740951;0.09096241;0;
-15076.91;-9044.657;26.43054;-18633.37;11.71762;5.871978;-16049.54;-7088.556;-0.01236438;-0.03906368;0;
-23364.22;-16356.08;52.76573;-26755.47;13.78195;3.588659;-24320.93;-11761.49;0.3124847;-0.1689591;0;
-13999.6;-10267.65;-170.2533;-17010.47;6.869227;2.915223;-14658.36;-7941.646;0.7019748;-0.3636914;0;
15248.66;10989.47;-353.2402;15967.02;4.115658;0.4340475;15668.64;7805.142;0.1815307;-0.1034566;0;
20781.14;14359.25;-173.7409;24336.59;14.62772;4.921346;21827.98;11424.6;-0.5332924;0.2864515;0;
18242.03;12682.55;35.34425;21330.07;15.88582;5.519247;19092.77;9819.767;-0.5327566;0.6110004;0;
20850.83;14825.52;28.54651;24151.85;11.44923;4.374991;21806.08;12028.6;-0.1424172;0.4154844;0;
18394.45;12998.12;218.0944;21180.33;12.10731;4.102664;19070.35;9720.32;-0.01233942;-0.1046719;0;
-5568.528;-4116.278;511.5714;-6003.845;4.325613;8.117395;-6115.304;-3984.781;0.05264032;0.09033536;0;
-21663.96;-14653.14;274.7699;-24999.25;1.106086;7.975273;-22834;-11204.65;0.1825221;-0.03969011;0;
-15023.84;-8935.408;31.39724;-18570.24;5.391882;10.57959;-16018.54;-7043.099;0.247306;-0.2995196;0;
-23293.33;-16271.64;54.65086;-26685.52;3.108312;12.84626;-24282.54;-11726.91;0.1171229;-0.2342513;0;
-14400.66;-10629.03;-166.1681;-17426.94;7.995309;-1.500628;-15078.7;-8129.152;-0.01292949;-0.3639506;0;
14998.46;10788.8;-339.9762;15683.8;9.260073;-4.312282;15409.83;7682.245;-0.1428512;0.2211212;0;
20814.77;14388.89;-141.2343;24361.74;0.2084387;-3.772207;21857.5;11418.99;-0.01277296;0.1559317;0;
18257.41;12708.08;60.52503;21346.3;-0.6624268;-6.313646;19107.99;9866.476;-0.3375968;-0.5588658;0;
21031.38;14995.44;13.89388;24320.63;-6.422537;1.328508;21985.06;12184.3;-0.2722903;0.02640183;0;
18417.68;13070.79;185.5905;21231.76;-10.03341;2.3989;19095.43;9805.135;0.2477221;0.351212;0;
-5900.924;-4325.548;480.7711;-6305.71;-1.047368;7.219139;-6446.662;-4198.183;0.1825058;-0.03894493;0;
-22002.13;-14948.33;231.8973;-25354.54;0.09178437;10.96293;-23169.7;-11466.34;0.3122571;0.09102889;0;
-15628.92;-9528.072;-5.560217;-19164.87;-1.247478;5.526418;-16586.6;-7350.07;0.3119434;0.2208721;0;
-24033.5;-16969.71;29.4434;-27397.87;0.8298799;5.85578;-24982.26;-12220.73;-0.07817415;0.1556828;0;
-14702.9;-10786.04;-208.0762;-17729.36;-2.318786;8.462109;-15381.97;-8330.965;-0.2080303;0.2854611;0;
14900.34;10836.11;-390.7439;15594.26;-2.383805;9.123435;15308.93;7722.248;-0.5976253;0.02530488;0;
20755.68;14325.68;-187.3908;24310.44;1.704427;7.10478;21805.93;11366.84;-0.4021228;-0.2995573;0;
18231.05;12670.16;13.54031;21325.17;1.636342;6.762726;19082.86;9825.969;0.05305266;-0.2342889;0;
20968.15;14948.98;-24.0794;24265.31;8.533573;7.961624;21926.48;12145.99;-0.07693533;-0.2990209;0;
18435.75;13073.96;166.7864;21239.21;12.20869;8.020607;19115.6;9814.073;0.05307666;-0.1038184;0;
-5985.135;-4418.067;475.7134;-6359.303;0.9432943;8.54841;-6523.493;-4206.667;-0.01194401;-0.03874671;0;
-22165.5;-15081.97;238.3545;-25442.01;-0.1293804;7.936975;-23317.32;-11567.71;-0.07689935;-0.4934792;0;
-15625.94;-9507.671;-1.717584;-19118.95;3.287001;12.21579;-16588.26;-7419.85;0.1180799;-0.1031793;0;
-24202.61;-17137.96;14.07308;-27515.6;3.082628;13.14127;-25142.05;-12347.85;-0.2718427;0.1567938;0;
-15009.09;-11127.38;-215.3258;-17967.97;5.222984;8.841282;-15644.29;-8498.217;-0.4015043;-0.03826579;0;
14916.32;10795.97;-372.093;15632.2;4.81657;8.430501;15344.07;7750.206;0.05367054;0.09170735;0;
20853.56;14419.61;-163.5425;24419.47;13.04978;3.733346;21902.13;11446.49;0.2485186;0.02664785;0;
18249.14;12689.98;48.93698;21364.43;16.05078;1.519158;19106.89;9861.533;-0.2065025;0.2864904;0;
21072.4;15071.31;23.60364;24381.42;11.4803;2.723325;22032.32;12275.75;-0.401197;0.6760066;0;
18557.79;13123.75;187.3882;21385.83;13.81328;1.38093;19243.06;9861.061;-0.2708592;0.3504907;0;
-5342.722;-3939.729;481.5676;-5692.538;1.675616;2.719201;-5875.787;-3759.866;-0.2056197;-0.2345676;0;
-21046.14;-14137.91;257.5867;-24321.95;-3.684702;2.448537;-22203.89;-10738.63;0.2493583;0.02553747;0;
-14939.07;-8989.673;14.01265;-18425.28;14.00249;1.642281;-15903.81;-6934.273;0.3790424;0.3503485;0;
-23161.16;-16180.51;42.84344;-26477.88;15.93081;0.702992;-24105.05;-11548.28;-0.07610982;0.02515978;0;
-13438.32;-9811.94;-168.8588;-16387.11;9.618161;2.711652;-14073.81;-7637.151;-0.205968;-0.3646696;0;
15554.79;11214.34;-332.232;16312.71;10.14436;3.378756;15995.66;7991.17;-0.07582638;-0.6891398;0;
20970.62;14576.06;-134.4974;24540.28;6.852613;-4.662346;22022.91;11674.94;0.05418449;-0.3636107;0;
18623.62;13054.78;48.18665;21727.07;6.041444;-6.66715;19479.39;10196.18;0.1190974;0.3513955;0;
21321.46;15348.07;5.846991;24633.17;4.762576;-5.856656;22283.82;12567.19;-0.205859;0.2211077;0;
18920.25;13394.36;177.8796;21749.34;3.484993;-6.788532;19608.97;10120.8;-0.2056521;-0.1689186;0;
-4590.375;-3428.559;480.6268;-4948.445;6.027087;-5.910933;-5122.423;-3315.647;-0.07551082;0.09112056;0;
-20220.54;-13551.17;297.798;-23534.24;6.088379;-6.038959;-21380.54;-10245.14;0.05449973;0.4808331;0;
-13995.08;-8398.304;77.28133;-17558.64;7.890923;-1.277225;-14972.45;-6566.287;0.1843797;0.2204805;0;
-22426.23;-15574.55;76.20417;-25802.43;9.222165;1.001478;-23387.88;-11055.87;-0.01070763;-0.2994798;0;
-13345.4;-9664.567;-162.237;-16266.69;7.471586;-0.7410843;-13969.78;-7406.133;-0.3355336;0.02565788;0;
15564.42;11174.33;-359.5372;16358.86;7.86622;0.3313873;16025.57;7976.002;-0.4651311;0.2855015;0;
21028.32;14638.01;-182.5772;24583.72;6.183377;0.9339007;22079.39;11719.01;0.1200423;0.09031259;0;
18506.11;12955.67;7.042295;21594.29;3.766266;1.066928;19360;10105.16;0.3148237;-0.2346149;0;
21234.35;15232.6;-22.80915;24533.04;14.2777;2.204444;22195.69;12441.03;-0.01032932;-0.4942485;0;
18647.57;13208.8;190.7471;21434.92;17.74696;2.202229;19324;9937.035;0.1845831;-0.3638172;0;
-4988.046;-3678.833;512.0188;-5430.049;-0.8250239;2.73588;-5534.708;-3569.025;0.249365;-0.2984843;0;
-20383.53;-13570.54;299.7045;-23786.99;-5.646966;3.87184;-21556.64;-10279.52;-0.1406897;-0.233217;0;
-14390.38;-8567.284;74.23533;-18003.86;4.00425;-3.232119;-15380.07;-6713.272;0.05435373;0.09185402;0;
-22882.69;-15964.09;76.83127;-26317.13;3.129571;-5.774101;-23861.39;-11492.21;0.1842338;0.4815658;0;
-13269.31;-9674.582;-172.7767;-16295.58;2.657912;1.264665;-13925.18;-7554.625;0.054114;0.5460492;0;
15571.92;11168.34;-365.3813;16307.52;4.462926;0.7276529;16008.96;7915.412;0.2489617;0.1556965;0;
20739.76;14358.05;-181.5907;24299.96;-5.990408;3.071202;21786.7;11469.06;0.3136788;0.02560537;0;
18314.35;12778.26;23.81675;21392.64;-8.864777;4.340792;19163.58;9914.951;0.5082657;0.1555143;0;
21057.39;15029.8;-0.9603664;24354.95;4.808161;-3.165536;22012.74;12245.37;0.1829183;0.2852928;0;
18445.66;13082.62;185.197;21234.26;8.153208;-4.635858;19129.45;9825.171;-0.1421022;0.4149408;0;
-5625.866;-4161.819;486.3282;-6066.735;4.595042;-7.3775;-6157.677;-4077.437;0.2478446;0.2845892;0;
-21825.35;-14690.47;246.2256;-25178.45;7.336115;-9.982299;-22989.93;-11193.39;0.1826282;0.1543685;0;
-15808.79;-9491.359;1.460508;-19358.72;2.840766;-8.833681;-16776.62;-7384.5;-0.2073593;-0.105656;0;
-24315.34;-17185.43;26.08729;-27695.52;0.0248721;-10.43227;-25265.65;-12455.61;-0.1421836;-0.3004518;0;
-15029.06;-11130.25;-191.0173;-18075.09;16.83768;-7.60863;-15701.39;-8471.837;-0.07707344;-0.4300846;0;
14726.23;10652.12;-355.9143;15380.29;19.56646;-6.663224;15135.46;7632.554;0.05293869;-0.2997178;0;
20695.53;14280.52;-154.1423;24247.19;10.77289;-11.61314;21746.23;11305.32;0.1828202;-0.1694819;0;
18087.52;12543.82;63.82501;21189.24;11.0295;-12.00337;18943.18;9726.729;0.3125712;-0.03937696;0;
20867.29;14847.05;37.86765;24163.19;-2.177093;-12.59416;21829;12051.45;0.1823224;0.3504667;0;
18310.67;12985.84;211.1487;21099.64;-7.733634;-13.98808;18990.83;9746.434;0.1171719;0.4800492;0;
-6028.034;-4521.615;515.5334;-6434.354;-1.898715;-7.677815;-6566.293;-4321.059;0.2469888;0.0897628;0;
-22623.45;-15340.46;276.604;-25904.1;-2.968534;-5.59363;-23770.54;-11741.8;0.05183861;-0.2351641;0;
-16899.66;-10263.43;24.31215;-20375.48;-5.578496;-10.67859;-17844.86;-7972.825;0.2466885;-0.3648625;0;
-25320.04;-18102.54;37.06255;-28637.23;-5.371819;-9.596133;-26239.33;-13198.93;0.2464407;-0.2345612;0;
-15660.55;-11652.75;-205.2748;-18715.21;-1.816448;-11.93089;-16315.19;-8939.648;-0.338513;-0.2992929;0;
14373.34;10460.77;-378.1846;14980.45;-0.2070328;-12.58873;14771.7;7456.784;-0.1432709;-0.4289268;0;
20441.14;13998.63;-181.7313;23998.71;6.7594;-5.141102;21492.24;11022.34;0.3766118;0.09124292;0;
17879.07;12341.5;10.96392;20994.61;10.77207;-3.7964;18739.4;9527.025;0.2462987;0.3510206;0;
20705.79;14685.76;-16.75192;24003.09;8.416724;0.2933739;21665.75;11892.21;0.1161166;0.2857006;0;
18124.82;12822.78;184.3513;20908.05;9.546367;2.63736;18798.47;9584.073;0.2459346;-0.1693579;0;
-6523.289;-4903.407;511.1892;-6957.341;12.01502;0.0224974;-7079.963;-4639.006;0.1807201;-0.4940245;0;
-23011.57;-15756.4;272.3891;-26302.56;12.33872;0.3573895;-24167.76;-12117.69;-0.2092655;0.02621067;0;
-16672.5;-10162.56;14.61983;-20133.73;8.575274;-3.394014;-17614.74;-7919.043;0.05081411;0.2210864;0;
-25165.18;-17967.17;37.01575;-28469.35;6.423204;-5.667901;-26093.69;-13076.29;0.3755998;-0.4288092;0;
-15797.08;-11773.61;-196.0918;-18813.76;8.158062;-3.92065;-16461.06;-9019.82;-0.1445164;-0.363411;0;
14458.45;10542.12;-382.8477;15099.69;7.747724;-4.385591;14858.52;7556.337;-0.4692079;-0.1681438;0;
20616.26;14170.37;-202.5378;24163.8;0.4389209;-10.67746;21663.77;11187.23;-0.1438997;-0.2979095;0;
17931.62;12391.14;-3.918387;21039.89;-1.436554;-12.67622;18787.31;9576.885;-0.01382043;0.09219386;0;
20799.96;14793.9;-12.95678;24089.8;0.5072722;-9.247351;21757.28;11998.88;-0.07877388;0.1570686;0;
18275.24;12933.36;197.4505;21066.8;0.5067626;-9.372025;18955.42;9686.827;0.3111093;-0.167926;0;
-6209.931;-4618.481;503.317;-6617.055;2.649707;-7.08531;-6749.618;-4382.824;0.3107967;0.2870142;0;
-22420.01;-15260.3;244.7847;-25734.23;3.517701;-5.93948;-23580.26;-11710.2;-0.07931962;0.3516931;0;
-16141.63;-9819.866;-9.333648;-19659.74;6.79572;-3.991008;-17107.34;-7607.212;0.1806294;-0.1034317;0;
-24399.54;-17274.25;19.58307;-27758.94;7.057311;-1.575734;-25340.38;-12470.79;0.5052847;-0.1682951;0;
-14700.17;-10869.26;-204.1367;-17720.23;13.54695;-6.664732;-15352.38;-8385.729;0.1149729;-0.0381913;0;
14938.77;10826.92;-372.5655;15624.8;16.07894;-7.126915;15354.29;7731.568;-0.339914;0.02681441;0;
20634.72;14221.61;-168.4342;24187.84;4.944347;-2.029173;21684.08;11272.34;-0.4045398;-0.2980492;0;
18083.1;12532.48;32.21238;21177.33;3.130718;-0.7544584;18938.75;9708.595;-0.144264;-0.3627171;0;
20857.98;14870.19;-6.363111;24148.02;-1.828921;0.3180266;21815.46;12073.25;0.1807177;-0.232418;0;
18378.8;12964.32;172.9126;21178.16;-5.511755;2.595005;19058.83;9725.626;0.1155688;-0.3621191;0;
-5857.038;-4528.53;475.6803;-6251.659;-3.496485;0.5830313;-6406.589;-4222.625;-0.1444167;-0.3617553;0;
-22153.46;-15148.76;244.0685;-25457.67;-5.569076;0.9173601;-23327.47;-11566.44;-0.01433693;-0.1015224;0;
-15900.06;-9658.779;12.95492;-19413.9;-1.611365;6.542761;-16866.19;-7480.146;0.3105142;-0.1014204;0;
-23857.35;-16791.86;47.61198;-27232.3;-1.409651;7.607913;-24809.97;-12040.43;0.5700715;-0.4911225;0;
-14223.16;-10439.69;-173.4654;-17244.03;0.668846;9.341825;-14893.05;-8082.391;0.3096294;-0.4256617;0;
15076.44;10915.45;-355.106;15784.73;3.012699;9.734336;15492.26;7763.535;-0.3403552;0.0295374;0;
20681.3;14275.19;-176.3388;24242.77;-2.818454;7.380152;21730;11358.53;-0.2750458;-0.100427;0;
18067.93;12528.8;22.97265;21165.74;-1.609197;5.430354;18917.79;9680.957;0.05006725;-0.100326;0;
20803.78;14805.22;-6.426288;24100.71;-6.430351;2.343682;21761.76;12026.83;0.1799516;-0.0352579;0;
18501.9;13102.84;174.5205;21300.93;-8.232551;-0.5388167;19183.35;9844.88;0.5046075;-0.3600592;0;
-5618.919;-4209.408;487.1879;-6025.279;2.961505;-6.968515;-6167.314;-4110.596;0.3091985;-0.1647954;0;
-21974.8;-14874.92;267.1368;-25301.92;4.632492;-10.64545;-23155.62;-11448.09;0.04901841;0.2901416;0;
-15795;-9489.615;27.17638;-19329.3;8.781023;-15.4574;-16782.13;-7446.091;0.3088385;0.2898501;0;
-24133.1;-17031.11;46.76421;-27515.5;11.38417;-18.72398;-25107.72;-12349.75;-0.08127585;0.02968947;0;
-14798.78;-10964.02;-176.9204;-17857.38;7.354242;-17.2316;-15499.75;-8421.684;-0.4709982;-0.1652424;0;
14803.42;10684.72;-373.7529;15456.93;6.207776;-17.48222;15192.4;7623.514;0.1141811;-0.1650764;0;
20540.03;14133.7;-208.226;24091.35;7.273265;-15.3212;21588.66;11177.39;0.1790337;0.02999154;0;
17877.25;12346.08;-6.867912;20983.16;7.333306;-13.22939;18730.91;9524.908;-0.01604821;0.3547981;0;
20692.13;14681.1;-34.28473;23991.99;-5.869578;-13.08213;21649.96;11890.03;0.1139026;0.2894743;0;
18162.55;12844.42;162.6195;20956.44;-9.815795;-12.73407;18837.5;9603.933;-0.2110486;-0.36049;0;
-6073.685;-4502.628;474.5492;-6486.876;-9.001649;-2.741125;-6631.449;-4304.949;-0.3407712;0.02967626;0;
-22278.4;-15076.85;227.2746;-25597.69;-12.34151;0.6777587;-23449.44;-11554.1;-0.0805594;0.4844179;0;
-16299.7;-9886.926;-7.617073;-19821.04;-1.812907;-5.418247;-17264.99;-7690.726;0.04945623;-0.1657423;0;
-24691.89;-17541.19;23.17198;-28064.43;0.5324627;-4.475042;-25646.11;-12743.3;0.1143739;-0.2305431;0;
-14872.94;-11055.36;-216.0748;-17921.61;-3.48656;-12.37441;-15548.88;-8552.734;0.309161;0.09452524;0;
14921.97;10815.31;-391.3164;15593.05;-3.281986;-15.711;15329.79;7725.681;0.438785;-0.1004718;0;
20579.97;14173.62;-183.2151;24143.28;-2.609103;-7.99242;21631.74;11235.79;0.2434421;-0.3602402;0;
18003.62;12463.19;40.13809;21106.38;-3.610859;-6.84568;18860.54;9635.425;0.1132628;-0.1649762;0;
20799.68;14815.29;27.24484;24097.54;-3.740953;-12.66613;21760.91;12035.73;0.04818165;0.289961;0;
18414.27;13013.66;212.9054;21212.25;-2.866538;-14.261;19095.96;9766.838;-0.1467688;0.354637;0;
-5687.302;-4316.431;522.848;-6105.513;-19.94394;-4.400359;-6231.924;-4173.754;-0.01668663;0.09441126;0;
-22192.82;-15077.79;275.603;-25511.68;-26.08682;-2.58752;-23356.6;-11603.95;0.1132648;0.02934904;0;
-16124.45;-9734.164;2.853614;-19639.5;-13.46733;-2.450954;-17086.52;-7590.957;0.308053;-0.03564779;0;
-24256.46;-17128.41;27.46338;-27630.46;-13.119;0.2308255;-25203.09;-12361.44;0.2427762;-0.230514;0;
-14733.93;-10918.3;-193.5157;-17763.99;-13.9101;-8.744875;-15393.87;-8378.097;-0.1472718;0.224489;0;
14937.45;10810.44;-379.2902;15620.7;-11.61895;-10.34368;15357.58;7747.096;-0.2120912;0.8739369;0;
20718.61;14311.83;-186.256;24270.68;-11.80737;-8.122971;21771.95;11366.22;0.1129586;0.35332;0;
18087.26;12553.47;19.23424;21187.21;-9.384608;-9.387362;18945.91;9736.256;-0.0820569;-0.1667738;0;
20848.75;14858.91;-1.118612;24143.23;-8.571872;-3.952435;21810.08;12077.32;0.04796023;0.3531326;0;
18368.77;12975.93;188.9901;21174.92;-7.826324;-2.073063;19052.32;9734.64;0.5026835;0.4177451;0;
-5566.569;-4164.668;480.4817;-5978.125;-1.856613;-4.013363;-6098.428;-3984.016;0.3072763;-0.1024134;0;
-21716.14;-14639.47;247.194;-25061.29;-1.587304;-2.602811;-22870.38;-11164.64;0.1770329;0.1575589;0;
-15900.84;-9631.454;19.96601;-19445.57;3.438133;-3.6718;-16866.44;-7450.544;0.3067897;0.2873352;0;
-24212.24;-17127.99;28.44167;-27614.32;5.309712;-4.471906;-25168.58;-12343.95;0.1115794;-0.03779021;0;
-14531.89;-10667.33;-221.6487;-17577.62;-5.345543;3.302363;-15200.5;-8251.508;0.241402;0.2221171;0;
14987.32;10901.43;-397.6187;15681.27;-6.611993;5.107584;15405.21;7776.574;-0.08367731;0.2868613;0;
20694.82;14290.03;-199.5373;24246.87;-14.04107;1.954255;21747.47;11368.53;-0.40843;-0.103231;0;
18099.46;12563.88;12.65042;21189.45;-17.04107;3.358932;18953.39;9733.875;-0.3430522;0.1567421;0;
20864.41;14872.12;-5.696824;24157.38;-13.13918;-4.079304;21824.33;12094.17;-0.2777402;0.4814213;0;
18404.13;13032.29;171.5011;21195.75;-13.12598;-6.419608;19083.34;9788.981;-0.01759173;0.5459049;0;
-5699.309;-4242.342;473.6612;-6132.585;-5.007485;-1.121628;-6248.266;-4074.813;0.04739329;0.4803891;0;
-21768.44;-14716.05;255.6383;-25121.36;-1.519829;-2.393177;-22934.68;-11240.86;0.112313;-0.03983238;0;
-15696.67;-9492.613;34.69551;-19235.92;6.117508;3.63757;-16660.93;-7380.613;0.3720695;-0.169727;0;
-24282.65;-17205.57;62.75591;-27659.16;11.53734;5.241506;-25232.14;-12443.76;0.241761;0.2202476;0;
-14830.29;-10984.52;-187.244;-17866.06;9.583369;1.351351;-15491.07;-8434.279;-0.08331865;-0.03984312;0;
14911.39;10776.07;-376.2264;15595.08;11.51612;2.287632;15332.41;7719.237;-0.278137;0.02516425;0;
20615.69;14212.18;-182.1176;24172.95;11.77199;-5.953323;21667.44;11266.93;-0.2128901;0.3499757;0;
17914.37;12386.67;19.33919;21014.3;11.82751;-8.760503;18768.76;9575.904;0.04719314;-0.04018003;0;
20698.13;14688.53;-0.2797674;24004.01;8.935243;-4.196982;21660.11;11900.66;-0.01782162;-0.2350417;0;
18127.83;12798.96;183.9404;20880.19;7.653467;-4.795612;18796.25;9575.501;0.04716363;0.09003121;0;
-5962.001;-4501.868;481.1374;-6456.657;3.024076;-1.24082;-6521.275;-4211.976;0.371953;0.08994075;0;
-22261.08;-15015.2;250.3947;-25602.35;-0.9974504;1.640571;-23418.6;-11391.3;0.4365465;-0.1050517;0;
-16923.95;-10277.75;9.982522;-20426.28;5.634984;-4.188348;-17875.81;-7993.202;0.2412059;-0.2348808;0;
-25508.95;-18284.33;12.37753;-28865.86;4.892388;-4.251123;-26447.6;-13422.45;-0.1488405;-0.1047101;0;
-15378.78;-11444.71;-230.872;-18464.82;2.274528;3.254993;-16052.51;-8901.528;-0.08372363;-0.1046049;0;
14595.08;10605.63;-389.9037;15201.02;2.205869;4.457415;14989.83;7544.373;0.1762298;-0.4293365;0;
20349.17;13920.5;-180.8668;23904.41;-4.963643;9.6105;21399.21;10987.53;0.0461181;-0.4289051;0;
17710.43;12202.44;29.69353;20820.18;-6.968388;12.48099;18568.86;9385.348;0.1760064;0.09126463;0;
20489.17;14439.7;6.050568;23789.54;-7.362551;7.645797;21450.49;11658.18;0.1108622;0.2860749;0;
17766.63;12604.73;188.7183;20533.31;-8.6953;8.44191;18434.46;9389.722;-0.01918383;0.3507548;0;
-7135.657;-5251.918;473.7915;-7586.701;-8.284421;3.342847;-7691.098;-4976.012;0.3706395;0.2204677;0;
-23798.14;-16312.47;199.2345;-27093.69;-9.481545;1.06219;-24942.93;-12569.52;-0.01953698;-0.2345252;0;
-17706.92;-10900.95;-53.71367;-21189.75;-1.568765;5.414891;-18644.32;-8509.598;-0.149452;-0.2342896;0;
-26397.97;-19085.9;-22.08182;-29710.99;1.58162;4.002809;-27317.76;-14034.19;0.5003716;-0.1041195;0;
-16747.7;-12648.05;-251.1008;-19772.17;-3.979675;7.816692;-17405.87;-9589.938;0.2399994;0.02591984;0;
14020.31;10218.14;-407.3792;14647.6;-2.368086;8.07677;14418.91;7377.299;0.1098236;0.3507305;0;
20342.13;13891.74;-179.6466;23893.69;-4.107019;4.719629;21390.64;10869.46;0.2396479;0.02554138;0;
17464;11953.55;33.66119;20578.61;-3.701726;4.379972;18319.89;9176.099;-0.345299;-0.299321;0;
20272.19;14224.19;5.594579;23580.35;-0.8176188;-2.3226;21232.52;11412.44;-0.539854;0.1557512;0;
17552.13;12425.96;194.2129;20304.44;-1.017868;-4.798512;18211.49;9243.289;0.04539449;0.09062733;0;
-7822.555;-5890.417;472.0655;-8283.224;8.361253;-7.138093;-8391.835;-5413.277;0.1103162;0.02556891;0;
-24910.07;-17358.65;210.6754;-28137.34;10.89747;-10.01107;-26063.52;-13339.23;-0.01972931;0.1554779;0;
-19167.3;-12214.15;-36.84945;-22536.01;10.01587;-7.321811;-20112.84;-9410.635;0.1102252;0.02538699;0;
-27813.56;-20475.61;-49.52478;-31101.94;12.28298;-8.520146;-28737.64;-15273.63;0.1101144;0.1552962;0;
-17355.08;-13131.63;-280.1403;-20458.3;2.357649;-4.559593;-18023.37;-10231.86;-0.08489823;-0.0397619;0;
13786.84;10147.16;-402.1099;14358.37;-0.591481;-2.277713;14170.42;7259.806;-0.7344863;-0.1696566;0;
20035.21;13567.24;-195.2784;23587.24;3.628672;-11.98771;21084.67;10561.52;-0.7987157;0.09038322;0;
17306.55;11799.13;4.536273;20415.18;2.553299;-14.11905;18167.69;9026.408;-0.2781744;-0.2995117;0;
20129.77;14067.12;7.545824;23429.66;-0.3970036;-8.880259;21093.39;11237.97;-0.2129275;-0.8839168;0;
17154.13;12117.48;205.0639;19888.67;-2.40536;-9.541165;17814.9;8999.222;-0.08277889;-0.4282572;0;
-8974.836;-6883.068;466.9137;-9478.223;0.9459589;-8.459973;-9546.053;-6105.873;0.04723897;0.1568792;0;
-26364.49;-18804.73;200.7187;-29605.64;0.2754231;-7.580695;-27512.79;-14423.57;0.1771262;0.2866562;0;
-19881;-12959.63;-38.84702;-23243.06;0.609939;-15.00794;-20819.96;-9971.697;0.3068829;0.2863682;0;
-28594.05;-21233.67;-61.09366;-31869.19;1.14519;-17.20329;-29493.21;-15837.82;0.04670517;0.02621107;0;
-18605.47;-14178.02;-323.8064;-21692.78;-7.831918;-13.70296;-19233.72;-10850.28;-0.2781785;-0.03878261;0;
13309.33;9859.733;-451.7603;13855.52;-10.83816;-14.29204;13701.37;7184.486;-0.472801;0.2211257;0;
20131.34;13640.64;-207.0698;23658.76;-10.42513;-15.14839;21174.25;10568.73;-0.08252186;0.1559362;0;
17200.24;11684.35;20.38341;20311.19;-13.16132;-15.06619;18064.59;8914.457;0.4372998;0.02584483;0;
20018.21;13972.59;15.55284;23318.41;-10.13398;-18.33315;20980.29;11154.34;-0.01791099;-0.03914849;0;
17234.25;12146.73;211.4075;19960.94;-9.520588;-19.92232;17894.34;8983.106;-0.1478277;-0.3639458;0;
-8623.065;-6572.621;486.6816;-9138.563;-15.07073;-14.87864;-9193.408;-5963.349;0.1121902;-0.4285475;0;
-26126.07;-18547.12;214.8446;-29351.78;-14.85451;-13.85901;-27272.28;-14289.7;0.2420122;-0.1032802;0;
-19936.32;-12984.39;-28.20233;-23255.77;-18.12114;-17.93092;-20862.76;-9911.785;0.3717037;-0.1681437;0;
-28211.93;-20859.12;-24.76945;-31471.36;-20.64853;-17.77894;-29119.28;-15550.63;-0.2783432;-0.5577788;0;
-17844.02;-13488.93;-276.8835;-20953.13;-4.551877;-20.37335;-18507.24;-10510.93;-0.6029003;-0.5572184;0;
13591.98;10090.23;-409.8976;14139.12;1.078775;-21.8265;13973.99;7274.6;-0.01758838;-0.03691977;0;
20134.79;13651.02;-165.7801;23684.78;-11.44824;-16.71399;21183.55;10616.97;-0.0175707;0.02808467;0;
17375.63;11852.57;49.7938;20500.26;-11.36939;-16.09435;18237.39;9072.226;-0.2774224;-0.1018782;0;
20179.16;14141.51;29.80067;23488.02;-5.731884;-16.48007;21143.21;11333.44;0.1126604;-0.2966779;0;
17419.07;12287.1;209.977;20167.11;-5.256634;-15.92765;18072.37;9100.885;0.1775145;-0.5562491;0;
-8129.303;-6154.674;468.4016;-8577.932;-2.237243;-16.58148;-8713.067;-5560.692;0.04740148;-0.3607882;0;
-25088.37;-17597.02;192.4913;-28311.78;-1.832853;-16.2299;-26243.31;-13582.9;0.4371579;-0.1655237;0;
-18545.88;-11681.39;-45.17647;-21973.52;-1.697289;-20.09848;-19486.26;-9062.671;0.3067839;0.09451205;0;
-26969.23;-19620.52;-38.18144;-30267.07;-2.499867;-21.95381;-27887.43;-14466.86;0.176541;0.4192538;0;
-16982.28;-12814.82;-289.6104;-20007.29;-3.501733;-16.64022;-17634.32;-9876.295;0.5661677;-0.1009062;0;
14083.24;10368.84;-459.0935;14705.54;-4.034078;-15.48479;14482;7501.618;0.3057294;-0.0358375;0;
20418.65;13941.14;-265.979;23973.73;-13.27343;-20.42585;21469.74;10938.66;0.1754875;0.3540026;0;
17626.38;12109.4;-33.23485;20742.6;-16.20685;-20.60627;18487.33;9306.188;-0.2794602;0.2886795;0;
20471.04;14436.29;-16.06944;23777.24;-16.72643;-19.6478;21432;11646.67;-0.4091141;-0.1014146;0;
17751.54;12565.41;165.4805;20513.58;-18.25084;-19.89599;18420.77;9338.514;0.04606841;-0.16628;0;
-7435.275;-5498.579;451.9201;-7873.473;-16.69128;-16.72793;-7992.149;-5124.495;-0.01894522;0.2236911;0;
-23897.45;-16514.25;223.0808;-27171.53;-16.87558;-16.57715;-25058.93;-12772.97;0.1759758;-0.1013704;0;
-17495.13;-10866.97;-13.08723;-20977.69;-8.888022;-12.20667;-18452.16;-8512.519;-0.01910301;-0.4261052;0;
-25930.27;-18680.85;-7.186415;-29276.86;-5.597538;-9.716093;-26876.22;-13797.43;-0.4738552;-0.03587303;0;
-15766.79;-11814.34;-242.2641;-18835.79;-7.466948;-17.07427;-16457.99;-9204.648;-0.2135097;-0.2957064;0;
14569.23;10650.66;-406.5005;15200.13;-6.253996;-17.19108;14958.45;7619.93;0.1115415;-0.6852133;0;
20360.07;13925.35;-202.1321;23922.79;-5.711849;-20.18798;21412.14;10966.02;0.1763968;-0.55459;0;
17755.53;12231.42;9.261707;20857.47;-5.90718;-22.77996;18611.91;9419.918;-0.01868246;-0.2291961;0;
20477.89;14442.62;-12.22118;23784.79;-7.441486;-12.6429;21438.7;11646.83;0.1762383;0.03090354;0;
17703.59;12494.97;176.4306;20455.22;-8.037221;-10.62077;18369.38;9281.872;0.6308326;-0.0990622;0;
-7237.952;-5421.802;465.5298;-7732.973;-13.85629;-13.28935;-7804.618;-5061.718;0.1754274;-0.2288973;0;
-23858.26;-16468.39;208.769;-27196.12;-16.25327;-11.66847;-25027.26;-12687.69;-0.6693243;-0.1637;0;
-17646.9;-10963.76;-43.6421;-21166.12;-14.96512;-15.07275;-18600.97;-8561.818;-0.7336192;-0.1635355;0;
-26248.93;-18984.11;-35.44609;-29608.18;-15.68604;-15.92838;-27182.81;-13972.33;-0.08320857;-0.3582732;0;
-16414.54;-12328.67;-269.8083;-19491.92;-15.73763;-12.09441;-17094.98;-9456.215;0.2417118;-0.4228806;0;
14237.41;10424.57;-430.7374;14833.88;-16.59247;-12.61812;14628.15;7505.796;0.1115342;-0.09761894;0;
20438.9;13983.61;-216.7713;23978.68;-8.605192;-10.06015;21489.83;10987.38;0.2413568;-0.2924229;0;
17647.15;12124.07;1.914824;20745.42;-5.448714;-9.045302;18502.83;9323.026;0.1761469;-0.4870311;0;
20394.61;14351.04;-18.01458;23686.43;-15.08781;-14.52869;21353.78;11553.25;-0.08389942;0.09816438;0;
17726.07;12548.28;178.3892;20465.23;-17.28345;-14.71504;18392.99;9329.926;0.2410216;-0.03186895;0;
-7533.585;-5624.29;486.6955;-8043.042;-9.094408;-17.31253;-8096.512;-5242.394;0.3057468;-0.03183693;0;
-24201.88;-16799.89;231.8031;-27550.65;-7.745123;-17.76402;-25367.49;-13017.75;-0.0843645;0.09812976;0;
-17657.47;-10980.49;-27.26847;-21174.33;-17.31651;-15.33484;-18611.85;-8583.232;0.04565495;-0.2268056;0;
-26073.96;-18793.59;-19.01083;-29444.73;-19.04042;-14.58262;-27003.13;-13847.71;-0.01935827;-0.291545;0;
-16142.48;-12118.92;-254.4671;-19232.42;-19.55715;-7.401037;-16807.82;-9397.82;-0.08430616;-0.1613174;0;
14394.85;10546.65;-413.4751;15004.58;-21.88203;-4.312386;14794.78;7569.755;0.04571323;0.09871409;0;
20433.95;13985.99;-206.148;23989.15;-12.68301;-1.026011;21485.69;11012.76;-0.2142021;0.2285496;0;
17773.88;12240.07;0.7520755;20881.41;-9.120296;2.123218;18634.54;9435.058;-0.08405215;0.0334179;0;
20524.98;14509.62;-19.1137;23823.28;-20.76641;2.455999;21490.12;11724.05;-0.01900035;-0.03158303;0;
17809.08;12563.44;178.8997;20575.45;-23.08909;4.596863;18484.78;9332.011;-0.1489159;-0.09651863;0;
-6914.939;-5080.183;487.674;-7375.716;-10.80838;-0.09643932;-7459.986;-4774.312;-0.1487663;0.09848039;0;
-23018.81;-15772.26;237.2628;-26348.51;-9.525695;-1.63695;-24163.34;-12152.54;-0.2785515;0.1633488;0;
-16476.45;-10118.58;-17.3946;-20000.19;-7.707463;0.5081488;-17424.98;-7859.947;0.5663038;-0.2266194;0;
-24751.91;-17599.63;3.768495;-28124.62;-3.747603;-1.635816;-25696.54;-12781.68;0.9555388;0.03347766;0;
-14788.29;-11034.91;-230.4457;-17807.44;-18.94811;1.313077;-15447.97;-8573.603;-0.08489875;0.4232481;0;
15093.67;10951.24;-401.9872;15794.45;-21.67574;0.8428771;15516.48;7866.674;-0.3446828;0.3578555;0;
20754.65;14346.81;-193.7346;24314.49;-13.74973;-4.985363;21810.13;11414.81;-0.08446711;0.09762651;0;
18255.15;12707.94;16.16715;21352.77;-13.93698;-6.587944;19114.12;9887.884;-0.2143169;0.09752842;0;
20975.07;14994.14;-9.273812;24274.63;-6.956752;-13.34642;21938.14;12220.55;-0.2790689;0.4222671;0;
18389.62;13007.32;168.1932;21201.93;-3.399789;-17.2179;19073.6;9758.036;-0.08388648;0.2919081;0;
-5544.748;-4109.373;470.4815;-5943.646;-6.009317;-13.38269;-6086.599;-3861.444;-0.1487695;0.09671282;0;
-21161.98;-14334.41;241.4986;-24500.22;-4.931552;-14.17298;-22334.11;-10912.83;-0.0836527;0.4864197;0;
-14802.26;-8924.27;-3.38667;-18359.77;-0.8407598;-15.49839;-15801.55;-6951.444;0.2412681;0.4209636;0;
-23080.63;-16115.9;37.5649;-26475.28;-0.1693537;-14.81299;-24067.18;-11512.65;-0.2137458;0.0957039;0;
-13396.92;-9831.719;-177.4117;-16308.24;-2.045194;-16.74055;-14022.25;-7663.384;-0.408433;-0.03432696;0;
15649.08;11276.62;-372.8226;16498.24;-3.449658;-16.52284;16126.06;8044.534;0.1117161;0.09564222;0;
20945.43;14578.57;-185.8855;24512.63;-4.651641;-12.42034;22000.6;11700.8;0.1765712;0.2254808;0;
18548.22;12990.79;19.99475;21636.69;-5.786043;-11.13525;19403.95;10150.08;-0.01850824;-0.03461514;0;
21200.27;15255.38;-9.604227;24515.9;-14.01925;-8.779656;22166.78;12495.15;-0.1484243;-0.2294824;0;
18725.91;13195.69;166.1921;21545.81;-17.01928;-7.632125;19412.8;9934.156;-0.08330785;0.3554543;0;
-4466.713;-3357.9;463.4068;-4863.902;-20.35108;-6.016988;-5004.109;-3272.958;-0.2781262;0.4200645;0;
-19758.07;-13127.66;242.7862;-23112.45;-24.68391;-4.470335;-20937.09;-9884.078;-0.4077814;-0.2949984;0;
-13713.79;-8081.077;19.98229;-17280.29;-14.41133;-10.22625;-14712.24;-6299.288;0.2423018;-0.6195387;0;
-21778.09;-14914.42;68.34414;-25187.16;-13.65991;-11.2877;-22757.99;-10589.14;-0.01781106;-0.8138182;0;
-12174.73;-8793.055;-156.6271;-15106.14;-14.91898;-10.94145;-12808.09;-6881.735;-0.4725645;-0.2282944;0;
16116.09;11534.4;-360.0393;16951.68;-12.15733;-11.73419;16581.04;8244.407;-0.2771877;0.6814778;0;
21175.61;14845.21;-177.1286;24742.71;-22.25917;-9.579004;22231.14;11999.2;-0.6017459;0.680793;0;
18814.73;13249.47;29.96096;21909.63;-22.57257;-8.966533;19671.89;10398.61;-0.5361739;0.485207;0;
21463.62;15549.91;17.4059;24773.06;-21.67826;-7.885797;22426.35;12804.39;-0.4057005;0.1598827;0;
19131.34;13498.7;200.3433;21975.28;-21.99224;-7.0742;19827.65;10228.28;-0.2103908;-0.03517997;0;
-3686.781;-2775.813;498.4608;-4046.544;-11.85511;-5.593467;-4209.767;-2721.056;0.5044613;0.09479007;0;
-18170.34;-12039.66;297.9355;-21506.78;-8.69537;-5.520864;-19335.56;-8963.323;0.1141504;0.1596622;0;
-11604.86;-6811.375;80.22979;-15171.87;-3.863861;-3.974709;-12615.98;-5465.321;-0.210801;0.4843385;0;
-19901.9;-13313.62;127.188;-23308.58;-0.779496;-4.439596;-20908.72;-9426.133;0.3741169;0.02908038;0;
-10859.51;-7682.409;-85.98893;-13648.06;3.173402;-6.712554;-11437.31;-6047.308;0.178839;-0.4906875;0;
16705.3;11829.76;-310.8207;17708.93;6.251673;-7.375639;17239.31;8457.559;-0.2111448;-0.1003905;0;
21346.53;15081.04;-169.4387;24925.53;-0.1849706;-14.87007;22401.32;12276.78;-0.2759;0.1595798;0;
19131.19;13550.63;21.77616;22215.13;0.08363498;-16.86456;19985.36;10691.19;-0.08072072;0.09445208;0;
21735.08;15857.82;1.670621;25047.12;-7.820679;-20.06273;22701.74;13125.71;0.04929508;-0.03557752;0;
19430.51;13673.85;168.8974;22285.69;-11.49652;-22.052;20133.63;10401.2;-0.2106238;-0.1654765;0;
-2457.471;-1938.687;477.3538;-2792.468;-5.189301;-15.66665;-2970.633;-1965.571;-0.1454448;-0.1003428;0;
-16426.24;-10652.73;317.5324;-19808.29;-6.656979;-14.17728;-17593.91;-7672.148;0.04960333;-0.1652094;0;
-10322.27;-5959.149;120.8901;-13971.96;2.593111;-8.134692;-11352.31;-4823.29;0.1794882;-0.100076;0;
-18867.63;-12491.36;160.5768;-22342.94;7.144856;-3.973699;-19903.33;-8845.888;0.2442752;-0.4248122;0;
-10179.81;-7094.779;-68.96929;-13003.59;0.9083865;-3.433843;-10759.26;-5567.111;-0.1457743;-0.6192873;0;
16824.49;11825.19;-308.8575;17830.22;4.79224;-0.81818;17368.29;8430.012;-0.2755626;-0.423763;0;
21386.71;15168.09;-165.8845;24964.58;2.91239;0.6562666;22441.29;12381.88;0.2444531;-0.2934026;0;
19249.95;13669.31;25.99832;22329.15;5.989947;1.794317;20106.75;10816.87;0.1792401;-0.03323838;0;
21780.66;15907.91;3.01499;25095.86;7.123004;0.854753;22746.91;13182.29;-0.2107441;0.161697;0;
19619.44;13851.52;197.6797;22479.51;4.972393;0.050099;20330.14;10590.96;0.2442391;0.1615346;0;
-2319.301;-2028.349;524.2231;-2625.47;37.85516;1.054793;-2819.416;-2073.732;0.6987651;0.09640492;0;
-16889.63;-11065.16;333.9324;-20219.49;46.9268;1.45563;-18059.98;-8056.703;0.2432916;0.0313407;0;
-11018.76;-6330.758;115.1754;-14619.49;31.54068;-5.913833;-12043.4;-5133.323;-0.2117243;-0.09862547;0;
-19748.07;-13228.49;166.4557;-23186.75;32.98286;-8.319154;-20770.89;-9431.111;0.1133252;-0.2284611;0;
-11275;-7942.597;-51.52394;-14135.51;20.42379;-1.143865;-11875.46;-6166.677;-0.01672339;0.09660523;0;
16316.7;11516.78;-283.8085;17244.13;14.17397;0.4648745;16837.23;8204.205;-0.4065106;0.1614755;0;
21285.13;15024.94;-144.0622;24853;13.35643;-1.411115;22342.93;12209.08;-0.1462328;-0.1635235;0;
19045.31;13497.93;28.65207;22132.63;8.051719;-0.003055243;19906.27;10675.21;-0.2760206;-0.1633592;0;
21666.38;15772.64;-7.452336;24974.02;4.69375;3.881836;22636.06;13041.3;-0.2757432;-0.03326034;0;
19237.9;13592.31;175.7756;22094.35;1.13906;6.155355;19945.11;10352.76;0.1143379;0.1616751;0;
-3329.958;-2693.602;495.2664;-3666.371;6.430177;8.627417;-3833.337;-2611.693;-0.1456463;-0.1633241;0;
-17934.57;-11927.28;319.841;-21287.58;9.838992;10.42729;-19094.94;-8750.185;0.1143694;-0.6179313;0;
-11750.04;-6931.367;111.14;-15338.21;1.188917;11.95742;-12752.51;-5499.694;0.4390911;-0.09757171;0;
-20110.57;-13557.96;148.369;-23543.87;1.723586;12.21333;-21107.55;-9612.785;-0.3409581;0.1623957;0;
-11191.55;-7947.118;-69.79554;-14041.78;13.71192;12.73693;-11793.62;-6199.462;-0.7304196;0.1622325;0;
16347.21;11553.13;-272.2798;17310.74;16.44383;11.92033;16855.77;8230.454;-0.2099469;0.2270369;0;
21101.06;14855.42;-107.5889;24680.77;29.8239;8.559208;22157.82;12054.99;0.05013339;-0.1629953;0;
18814.14;13271.58;76.61417;21899.09;37.29602;6.675207;19671.45;10445.98;-0.01488433;0.03207048;0;
21401.41;15500.01;41.27366;24718.81;23.99568;-0.4985517;22369.64;12778.21;0.245;0.03203826;0;
19026.85;13432.84;198.9498;21847.95;22.43133;-4.248973;19723.99;10191.35;0.1797865;-0.162896;0;
-3707.174;-2876.264;489.2914;-4091.441;29.77618;-4.914533;-4227.054;-2855.865;0.04967114;0.2270718;0;
-18524.06;-12256.25;288.4629;-21872.02;29.61254;-7.187015;-19686.19;-9160.763;0.2445233;0.2268436;0;
-12173.51;-7096.523;50.35509;-15768.55;24.09043;-7.8495;-13182.01;-5633.904;0.1793102;0.1616483;0;
-20318.8;-13635.62;98.40531;-23778.51;23.79877;-9.181272;-21332.45;-9612.428;-0.01577198;-0.03341612;0;
-11382.3;-8061.181;-91.33262;-14254.38;15.06732;-5.823021;-11987.56;-6285.64;-0.1456908;-0.6180886;0;
16217.14;11462.75;-298.8865;17152.76;11.837;-5.34829;16732.76;8153.406;-0.3404464;-0.4875329;0;
21031.14;14768.35;-148.6147;24603.58;20.66637;-5.476882;22088.13;11964.22;-0.1452023;-0.292141;0;
18669.01;13150.25;28.38328;21751.78;20.51188;-4.935515;19525.46;10329.17;0.04984558;-0.1619128;0;
21223.94;15308.8;6.006618;24537;29.59997;-6.404181;22193.39;12581.84;-0.1451065;0.09811933;0;
18678.76;13160.46;187.4094;21482.83;33.18755;-5.526968;19365.64;9928.584;-0.01502604;0.09802073;0;
-4294.251;-3301.602;463.7227;-4732.961;28.59986;-12.55444;-4826.165;-3191.193;0.0499564;0.4227589;0;
-19081.22;-12669.51;255.1426;-22489.08;29.2407;-14.61823;-20248.73;-9472.765;-0.4048652;0.4873015;0;
-12826.15;-7551.41;56.95451;-16431.56;26.53201;-7.704425;-13828.12;-5953.558;-0.144589;-0.1628616;0;
-20982.97;-14236.93;110.2923;-24453.3;26.1032;-6.290164;-21980.85;-10112.54;0.0504583;-0.3575999;0;
-11676.6;-8355.93;-103.7422;-14653.93;19.91504;-7.489415;-12298.51;-6622.913;-0.2094618;-0.422208;0;
15998.09;11322.53;-310.7526;16840.46;18.35478;-6.879165;16484.48;7988.15;0.1155854;-0.3568164;0;
20741.78;14481.19;-155.5182;24307.05;18.00057;-0.4420134;21800.36;11699.4;-0.07943276;0.2282482;0;
18478.53;12954.87;34.66749;21557.27;17.3129;1.701885;19337.91;10123.04;-0.469157;0.2280189;0;
21034.12;15142.26;19.24976;24339.07;20.10854;0.4274988;22001.9;12431.89;-0.2737836;-0.09704696;0;
18608.76;13069.56;209.869;21428.85;17.47637;1.029916;19304.88;9833.303;-0.07860643;0.03298524;0;
-4345.957;-3338.549;521.2983;-4746.272;38.4912;-0.8466414;-4871.791;-3243.697;-0.1434948;0.3577888;0;
-19110.57;-12793.22;307.8347;-22481.3;44.21233;-1.917518;-20267.39;-9608.549;-0.208318;0.4223967;0;
-12212.39;-7162.269;74.92353;-15819.88;27.42339;-2.920213;-13209.48;-5773.661;-0.273076;0.09713551;0;
-20207.13;-13501.49;141.5022;-23641.5;26.99369;-3.252193;-21204.11;-9552.098;-0.4027363;0.03207055;0;
-11429.02;-8128.322;-60.46037;-14231.12;12.29719;-7.73666;-12002.28;-6312.655;-0.3373643;0.09700569;0;
16225.26;11464.8;-285.1617;17209.85;5.453303;-8.331733;16757.44;8174.238;-0.2070906;-0.2279285;0;
21018.82;14770.58;-125.627;24592.17;9.332589;-8.99319;22073.25;11970.5;-0.1419152;-0.2926668;0;
18652.81;13130.68;52.23799;21741.38;6.309102;-10.65873;19508.99;10319.84;-0.07680522;0.09743131;0;
21313.39;15440.55;-1.147068;24631.74;8.98208;2.748326;22281.17;12726.9;-0.1416954;0.4871375;0;
18888.28;13292.02;176.7178;21728.64;9.843711;6.429503;19581.21;10061.98;0.1832837;0.291746;0;
-3834.286;-2991.99;483.1517;-4197.842;10.5034;3.944674;-4367.547;-2902.59;-0.01180249;0.2264855;0;
-18317.48;-12187.44;288.264;-21660.34;10.62657;6.753994;-19493.9;-9066.979;-0.1417253;0.09632321;0;
-11748.37;-6875.824;91.18263;-15314.37;21.46689;-1.223639;-12768.54;-5526.941;0.2482211;-0.03370827;0;
-19551.68;-12967.8;141.675;-22979.71;24.72785;-3.968588;-20570.89;-9175.488;0.2479717;-0.1636091;0;
-10376.23;-7328.773;-84.91607;-13172.12;18.74115;2.532622;-10948.8;-5813.454;-0.2070488;-0.228412;0;
