Fp1;Fp2;O1;O2;POLY3;POLY4;A1;A2;Video;Audio;event;
-20452.43;-15077.82;-8.312665;-25473.99;23.21025;-9.572948;-21865.48;-11125.53;0.368105;-0.1477357;0;13:18:09 Глаза открыты;
3720.985;2270.151;-297.9243;2804.37;25.66517;-12.64448;3925.752;772.2366;-0.02206896;-0.472424;0;
18633.39;13673.62;-312.0084;22977.96;18.20464;-0.5751548;20149.63;10882.49;-0.2169488;0.04778942;0;
16259.19;11943.95;-59.08749;21016.31;19.72659;1.099935;17685.38;9756.113;0.1730732;0.0477414;0;
16870.6;12598.77;-3.556002;21255.63;4.234081;-3.321921;18214.71;10284.77;0.302834;-0.1472086;0;
18429.13;13667.75;8.425925;23248.66;-1.998488;-2.112891;19898.54;11109.75;0.172595;0.1777761;0;
5318.298;3204.88;337.8456;7151.913;15.21752;-9.009888;5507.3;1595.493;0.1074543;0.3724994;0;
-18243.17;-13627.07;373.7692;-21705.85;16.13926;-11.34518;-19802.52;-10606.1;-0.4123924;-0.01767891;0;
-17320.31;-11802.47;48.79115;-22760.39;17.59691;-4.568622;-19043.07;-9353.538;-0.4119781;-0.2775305;0;
-16700.82;-11222.9;36.8887;-21843.13;20.1912;-4.430066;-18331.22;-8442.172;-0.02176006;-0.147317;0;
-19620.17;-14364.85;-17.74592;-24675.7;20.6404;-2.818085;-21006.38;-10615.14;-0.08670554;-0.2121363;0;
4095.801;2459.633;-301.3824;3226.789;24.90657;-1.140741;4350.412;898.8386;-0.02165107;-0.3418578;0;
18545.12;13569.03;-296.2695;22909.34;11.55231;-5.426381;20071.92;10786.39;0.1732727;-0.08164494;0;
16055.34;11770;-35.86814;20794.98;8.258169;-5.68886;17469.89;9587.833;0.04316392;0.04837177;0;
16415.77;12112.96;30.35338;20817.66;24.1247;-3.606734;17768.08;9798.37;-0.08681414;0.1132905;0;
17986.8;13265;56.35667;22783.76;26.44499;-3.201212;19446.6;10700.47;-0.1516942;-0.08172534;0;
4895.928;2843.497;384.0572;6635.547;25.41306;-3.867825;5044.629;1286.213;-0.02160714;-0.2115779;0;
-19048.4;-14336.71;393.7756;-22561.9;27.39726;-4.198792;-20621.32;-11234.82;0.3032513;-0.08143064;0;
-18495.21;-12520.26;45.33609;-23907.81;26.298;-0.5106339;-20198.32;-9914.109;0.3679139;-0.1463162;0;
-18006.96;-12155.76;35.85778;-23110.77;26.4053;0.8295379;-19603.11;-9086.043;0.4325116;-0.2111365;0;
-20643.67;-15313.91;-11.27958;-25798.46;27.78529;-3.257194;-22055.64;-11328.16;0.5620117;0.1139124;0;
3595.118;2117.993;-298.2021;2550.346;28.29323;-4.593518;3765.93;645.2131;0.1066756;0.1787653;0;
18273.81;13320.28;-304.9302;22603.89;20.89741;0.7026269;19784.81;10536.17;-0.8029744;-0.2761858;0;
15815.79;11508.38;-66.27489;20555.88;16.65686;1.505655;17242.89;9320.861;-0.7372002;-0.1459735;0;
16254.64;11965.03;-17.29538;20640.49;21.86406;-4.524138;17607.03;9659.728;-0.2816881;0.1790098;0;
17857.97;13126.45;1.259558;22642.29;18.42584;-6.194166;19316.84;10559.7;-0.1514704;-0.01607207;0;
4312.688;2517.056;320.7227;6001.74;12.17803;-5.518113;4437.29;973.7039;0.2384859;0.04891142;0;
-20011.9;-15057.64;333.5813;-23532.01;4.798404;-6.182397;-21588.34;-11931.23;0.1732789;-0.1460398;0;
-19046.02;-13029.93;1.537873;-24449.41;8.276207;-6.845954;-20723.55;-10343.29;0.04317011;-0.08092567;0;
-18605.71;-12684.86;9.376138;-23664.87;7.397235;-5.968358;-20162.6;-9480.097;0.1730614;0.5038617;0;
-21436.92;-16032.32;-30.05097;-26561.26;-22.14906;-10.18216;-22826.41;-11976.42;0.04295284;0.2434861;0;
3373.064;1946.075;-320.9839;2239.467;-27.88661;-10.97573;3530.43;480.5455;-0.281927;-0.21153;0;
18295.33;13348.54;-326.2054;22584.27;-41.12145;-2.92693;19800.34;10563.84;-0.3466111;-0.0164154;0;
15804.45;11488.37;-79.564;20577.04;-51.06047;-1.517409;17238.16;9296.995;-0.1513608;-0.01639891;0;
16370.72;12088.85;-27.354;20748.29;-18.38884;2.570014;17716.31;9780.094;0.173628;-0.08134977;0;
18044.54;13300.87;7.733984;22845;-12.878;4.643841;19511.55;10729.5;0.2384209;-0.01630069;0;
4328.72;2569.047;350.0073;6103.604;-6.233632;2.763714;4503.137;1059.015;0.2381813;-0.146219;0;
-20367.02;-15339.96;348.2501;-23838.03;3.618268;3.296801;-21915.35;-12121.16;0.237942;-0.2110394;0;
-19345.32;-13315.18;-4.219748;-24772.06;-2.413587;-1.529222;-21039.99;-10572.56;-0.2170685;0.3089114;0;
-18734.83;-12845.84;-1.732381;-23807.46;3.148544;-2.599351;-20311.72;-9582.48;-0.08691569;0.308601;0;
-21755.22;-16325.43;-54.3292;-26856.13;-4.75885;-7.821286;-23161.32;-12086.65;0.2380084;0.1133889;0;
3169.954;1805.7;-321.9994;2067.548;-6.830173;-10.76062;3322.122;464.7224;-0.2819695;0.4381117;0;
18329.94;13396.28;-304.2784;22630.2;2.085298;-4.989393;19837.86;10594.71;0.0431505;0.3077368;0;
15730.2;11398.89;-83.42723;20506.62;0.408263;-4.649465;17161.77;9207.866;0.1080745;-0.4721805;0;
16222.31;11947.52;-26.93426;20610.69;10.85768;-3.707093;17572.67;9647.466;-0.5417075;-0.2768041;0;
17898.22;13156.33;25.83192;22698.37;15.13368;-2.698624;19365.06;10579.86;-0.02142448;0.2432128;0;
4486.188;2598.775;364.3389;6246.87;-0.2204998;1.322941;4647.005;1087.419;0.4983358;0.1130337;0;
-19879.23;-15023.59;379.1527;-23354.84;-1.626798;4.201817;-21431.89;-11819.09;0.108031;0.04795279;0;
-19086.49;-13107.53;28.80702;-24487.03;-2.96531;0.3796899;-20778.25;-10386.54;0.1728898;-0.01706274;0;
-18600.19;-12716.75;6.695425;-23633.53;-6.914445;1.383991;-20164.31;-9493.033;0.3676181;-0.3418823;0;
-21549.71;-16146.08;-57.01366;-26647.52;5.618433;1.315618;-22952.65;-11961.79;-0.15249;-0.1466368;0;
3231.266;1857.801;-333.9265;2099.288;7.756241;1.381279;3355.763;485.4421;-0.2822715;0.2433147;0;
18326.8;13395.65;-324.3613;22615.55;0.9832935;4.260096;19825.25;10600.87;-0.08708583;0.4379722;0;
15726.33;11394.91;-83.53123;20506.71;1.518169;4.12185;17167.33;9205.383;-0.411835;0.1126954;0;
16198.09;11926.09;-23.49306;20592.23;-0.6268104;9.744152;17545.21;9626.947;-0.2165192;-0.2122546;0;
17950.99;13195.21;-7.946005;22756.08;-0.7599024;11.5429;19421.88;10626.55;-0.1513343;0.04782809;0;
4394.478;2614.063;319.0851;6150.008;-0.8264878;6.507643;4560.229;1072.918;-0.4760189;0.1127474;0;
-19981.56;-15028.46;346.3912;-23444.91;-1.227799;5.764353;-21530.29;-11890.79;-0.02076924;0.1776014;0;
-18678.93;-12877.65;6.651261;-24064.09;3.998348;3.414219;-20366.49;-10280.14;0.3040883;0.2423903;0;
-17920.48;-12153.79;16.48338;-22954.58;5.468198;1.066386;-19510.23;-9112.503;-0.2159559;-0.2126246;0;
-20980.13;-15566.23;-21.01434;-26013.09;5.864846;1.668161;-22354.63;-11552.26;-0.5405757;-0.4722803;0;
3552.832;2094.587;-299.8999;2521.888;6.997052;0.7287847;3771.466;650.3645;-0.02029376;-0.2119364;0;
18413.23;13457.1;-282.529;22726.17;8.798683;-3.424829;19933.16;10665.16;0.6294001;-0.08178879;0;
15766.31;11447.66;-41.61609;20546.21;10.66488;-4.292104;17192.4;9264.847;0.04406155;0.1781628;0;
16226.84;11945.59;5.402116;20631.76;6.904092;-4.823655;17580.44;9643.561;-0.6056561;0.5677878;0;
17896.05;13149.39;42.06576;22706.65;7.56674;-5.153723;19359.95;10574.29;-0.2152435;0.2423806;0;
4371.027;2505.634;373.2632;6141.51;6.955924;-1.732476;4540.844;1005.499;0.1747768;-0.5374711;0;
-19812.29;-14940.43;373.2942;-23281.89;6.413072;-0.793035;-21355.89;-11748.08;0.04466651;-0.342029;0;
-18959.33;-13029.48;22.26727;-24338.8;12.63592;4.70024;-20646.81;-10257.54;0.1745563;0.04811871;0;
-18486.35;-12620.3;15.09224;-23515.43;12.82429;8.178569;-20056.12;-9353.9;0.2393482;0.1130377;0;
-20726.92;-15513.88;-41.80058;-25791.79;18.63856;5.357129;-22125.91;-11560.98;-0.02076161;-0.01701056;0;
4006.122;2339.07;-322.6799;2988.691;20.29477;7.495139;4159.024;784.1075;-0.08570809;-0.1469281;0;
18394.25;13438.89;-303.8806;22734.57;16.12119;4.942317;19900.23;10680.28;-0.1505893;0.04812151;0;
15823.57;11518.94;-54.38797;20591.15;16.77458;3.798641;17260.58;9325.367;-0.2803727;0.1780079;0;
16374.46;12075.22;-5.95139;20760.51;3.09369;11.43076;17721.48;9773.407;0.1097131;0.1128616;0;
18008.51;13279.21;-2.868831;22826.77;-2.334426;11.55324;19479.63;10717.08;0.6293416;0.1127482;0;
4664.938;2785.493;316.1924;6481.728;3.762512;13.1491;4850.286;1236.084;0.2389052;-0.08226708;0;
-19582.91;-14706.69;342.4395;-23024.99;1.682627;13.80571;-21119.71;-11552.17;-0.346041;-0.2121191;0;
-18690.39;-12752.88;0.09543372;-24091.4;3.288527;6.825799;-20384.33;-10120.76;-0.1507912;-0.2768733;0;
-18127.12;-12279.47;-0.04521652;-23182.95;4.55802;5.077446;-19725.11;-9214.367;-0.3455417;-0.2116278;0;
-21058.5;-15617.72;-41.46185;-26097.75;-2.479158;0.3166778;-22447.56;-11643.63;-0.4101619;-0.1464478;0;
3506.561;2127.143;-326.48;2515.677;-5.155984;-2.161948;3713.102;646.8162;-0.0199457;-0.1463006;0;
18465.53;13518.31;-317.0628;22784.85;8.244807;-3.700383;19984.71;10734.95;-0.084893;0.2436504;0;
15827.2;11494.42;-61.98165;20586.64;11.92119;-5.706092;17255.3;9308.521;0.1100943;0.1134709;0;
16232.48;11965.62;0.9084272;20632.14;-0.2145731;-0.8777092;17585.93;9660.47;0.3698531;0.2432916;0;
17916.22;13154.86;35.56197;22720.54;-1.286084;-0.2069979;19380.77;10586.56;0.2395467;0.6328512;0;
4490.767;2581.72;364.5015;6227.988;-2.290146;4.950774;4646.706;1027.048;0.1093714;0.1124766;0;
-19441.81;-14612.36;362.8546;-22956.81;-5.569399;8.629739;-21002.31;-11550.19;-0.02067321;-0.5373099;0;
-18492.65;-12645.8;9.370667;-23872.31;3.478527;4.803162;-20178.9;-9985.556;-0.3454891;-0.341868;0;
-18265.22;-12464.52;-4.085115;-23287.44;5.149971;6.74078;-19843.68;-9267.253;-0.08527263;-0.01668774;0;
-20661.87;-15461.03;-53.05639;-25740.93;-5.5061;5.86329;-22067.81;-11574.23;0.2396498;-0.1466057;0;
4100.64;2409.063;-322.8831;3076.427;-7.710394;5.522484;4268.04;817.0207;-0.2153624;0.1783784;0;
18457.19;13503.46;-318.139;22797.2;-4.152673;13.15275;19967.92;10745.85;-0.1501787;0.3081338;0;
15875.81;11566.1;-77.53383;20647.02;-4.483293;15.41695;17308.73;9371.237;0.1098416;-0.08197986;0;
16429.99;12145.95;-12.47296;20822.6;-2.134264;12.85611;17778.09;9839.534;-0.08517082;-0.08189748;0;
18036.25;13285.98;31.56432;22855.21;2.020091;13.1781;19504.96;10724.79;-0.0201179;-0.1467825;0;
4699.49;2740.861;363.5844;6490.799;-12.98514;16.98289;4876.128;1179.62;0.304739;-0.08166771;0;
-19196.41;-14437.18;376.7904;-22673.32;-17.19263;18.97519;-20749.27;-11328.72;0.04456346;0.1782837;0;
-17879.76;-12284.36;42.03302;-23298.9;8.345023;11.85618;-19587.93;-9773.281;-0.085416;0.1131373;0;
-17346.1;-11760.04;25.7958;-22425.51;12.82462;9.834776;-18949.61;-8896.054;0.2395065;-0.01691112;0;
-20408.34;-15040.63;-31.23272;-25468.88;14.35197;16.65703;-21826.97;-11235.42;0.3042332;0.04807321;0;
3879.843;2366.647;-311.6541;2899.601;20.43312;16.90823;4044.33;841.0251;-0.1508439;0.2429269;0;
18492.61;13526.78;-311.4034;22826.39;6.077997;16.08744;20004.26;10753.62;-0.08572496;-0.1471212;0;
15903.68;11596.84;-57.21814;20656.52;4.263229;16.60714;17333.32;9409.608;0.4340999;-0.3418754;0;
16373.05;12082.5;10.96136;20769.58;9.483858;12.03574;17722.48;9778.339;0.2387617;-0.01669518;0;
17946.13;13203.2;43.80883;22745.16;8.871116;10.14812;19410.48;10632.24;0.3034891;0.04828893;0;
4596.346;2640.766;360.0746;6305.857;6.919819;11.27663;4735.863;1101.025;0.6280209;-0.08169427;0;
-19403.66;-14585.62;336.4901;-22935.1;4.368247;9.188831;-20981.36;-11486.47;0.04268378;-0.2765142;0;
-18732.85;-12734.39;-22.043;-24132.14;17.69309;11.18909;-20431.79;-10058.75;-0.2821958;-0.211269;0;
-18327.95;-12432.5;-14.58709;-23410.03;22.49809;11.44578;-19929.87;-9225.903;-0.1519776;-0.1460894;0;
-20574.44;-15358.11;-47.89943;-25679.72;5.260502;2.793659;-21965.84;-11474.51;-0.1518249;0.04895942;0;
4006.688;2374.101;-317.7313;3009.843;2.107385;1.38421;4217.801;761.6528;0.0432297;0.1138776;0;
18399.08;13451.46;-307.0422;22744.52;8.067114;-0.6935906;19916.81;10692.21;-0.1517158;-0.3410082;0;
15852.19;11538.44;-63.94949;20609.59;4.441686;-2.434389;17276.76;9347.26;-0.4114327;0.04913845;0;
16352.02;12069.81;-14.30078;20749.14;13.94807;3.663321;17704.08;9760.187;-0.2161172;0.1790238;0;
17927.26;13177.93;10.73226;22730.45;16.88179;4.79835;19391.1;10620.19;-0.08596541;0.1788439;0;
4477.623;2626.302;337.6821;6209.507;-5.30567;6.602007;4626.688;1064.616;0.04405566;0.5684682;0;
-19385.96;-14531.75;354.3968;-22881.33;-10.32418;7.399168;-20956.4;-11443.07;-0.0859233;0.1131256;0;
-18006.9;-12388.07;26.68957;-23392.53;-9.845293;10.74082;-19707.1;-9834.472;-0.08583696;-0.2767921;0;
-17700.51;-12081.87;22.18063;-22767.98;-15.39511;11.53382;-19305.3;-9059.865;0.4989554;0.04832274;0;
-20827.45;-15424.1;-39.40446;-25869.23;-4.929811;8.173147;-22232.22;-11464.71;0.6283887;0.3081436;0;
3734.444;2255.969;-325.6272;2793.756;-3.384616;7.963986;3932.46;788.6616;-0.02191613;0.2428666;0;
18521.85;13560.1;-313.1343;22869.93;-11.82131;-1.019546;20038.33;10784.7;-0.2167961;-0.08221416;0;
15933.36;11617.54;-66.63088;20696;-11.13887;-3.764761;17359.97;9427.075;0.1732258;0.04780313;0;
16438.87;12157.46;-20.181;20840.55;-16.21887;-6.172303;17791.1;9857.46;0.1730517;0.1127225;0;
18082.48;13333.21;26.26907;22893.22;-18.14495;-9.180272;19550.85;10762.72;0.1079105;-0.3421622;0;
4543.127;2629.451;376.426;6318.256;-8.146387;0.20638;4709.229;1086.233;0.4976061;-0.2768511;0;
-19320.99;-14521.45;373.0337;-22809.36;-5.325162;2.751463;-20877.47;-11471.78;0.3671714;0.2431659;0;
-18201.74;-12435.79;26.16115;-23604.9;-8.668715;1.007142;-19899.19;-9853.765;0.04196577;0.3728562;0;
-18106.77;-12368.55;25.05728;-23163.29;-8.056791;2.479755;-19697.48;-9201.39;-0.08801108;0.04764484;0;
-20645.31;-15400.95;-45.29192;-25715.89;-3.761788;9.376322;-22028.27;-11480.82;-0.2178573;0.1125643;0;
4091.405;2451.071;-330.1813;3109.676;-3.490565;12.71593;4299.111;870.5426;-0.1526711;0.5672226;0;
18381.11;13421.69;-294.6485;22729.58;-1.544674;8.081509;19901.91;10663.28;-0.1525177;0.5016853;0;
15862.77;11563.25;-39.46492;20609.25;-1.073632;8.274277;17291.2;9379.593;-0.08739709;0.3712465;0;
16429.1;12129.19;7.551119;20827.96;-6.297465;9.337689;17782.62;9822.019;0.04262541;0.1110041;0;
17894.02;13158.82;50.83427;22698.03;-6.960723;9.127357;19359.51;10598.64;-0.0873521;-0.2789114;0;
4449.353;2547.784;394.0638;6154.444;-15.1254;7.845572;4596.128;1008.592;0.3025397;-0.6034679;0;
-19851.31;-14972.41;387.5146;-23387.96;-18.39273;6.899928;-21424.77;-11830.13;0.6920398;-0.7977635;0;
-19072.87;-13084.51;17.3424;-24517.96;-14.62321;7.69679;-20766.72;-10336.75;0.1066383;-0.7319946;0;
-18758.53;-12881.58;-6.225689;-23861.43;-16.01504;6.818278;-20339.95;-9572.226;-0.2832729;-0.4713897;0;
-21613.58;-16179.99;-69.18778;-26770.53;-7.693548;8.95482;-23028.24;-12051.29;0.04184848;-0.1460794;0;
3375.434;1997.765;-339.7947;2208.129;-4.068495;9.615651;3524.732;585.1883;-0.2180629;0.1789041;0;
18452.88;13498.01;-297.162;22722.33;-9.690485;7.395614;19956.8;10723.16;-0.2828112;0.113757;0;
15758.7;11427.98;-34.35477;20537.57;-9.279582;8.861746;17191.26;9231.567;0.3021791;0.1136427;0;
16227.28;11954.69;18.27831;20610.61;-4.98335;2.690595;17576.53;9655.854;0.2369081;0.1784959;0;
17955.18;13194.29;40.74864;22750.23;-4.709923;1.348233;19421.03;10621.33;-0.02319931;0.1133492;0;
4278.969;2471.271;346.5852;6000.688;-1.691081;8.31292;4430.241;931.8708;0.3016607;0.1782026;0;
-19949.4;-15024.89;332.775;-23468.81;0.7888647;7.90273;-21518.01;-11952;0.4312923;0.3079582;0;
-18966.36;-13078.12;0.4043606;-24361.38;-11.73786;17.07115;-20659.59;-10317.22;0.4958262;0.4375835;0;
-18676.63;-12831.04;17.12992;-23723.29;-15.00762;19.80029;-20245.39;-9444.682;0.4303607;0.3721764;0;
-20918.14;-15676.47;-32.7997;-26039.38;-7.892591;14.28792;-22310.72;-11719.65;0.04012423;0.1119331;0;
4062.657;2405.356;-307.4568;2960.436;-8.822665;14.67546;4219.171;815.0944;-0.08985077;0.176788;0;
18443.16;13486.09;-288.2199;22760.02;-4.459544;6.890878;19947.96;10737.82;0.1051415;0.2415777;0;
15912.89;11605.38;-43.53749;20689.98;-2.446307;4.740561;17346.53;9408.099;-0.08986613;0.3063023;0;
16494.04;12202.79;0.3904473;20891.02;-5.792752;-0.01986881;17843.45;9900.814;-0.4146125;0.1110925;0;
18004.24;13259.65;20.41124;22807.66;-3.97827;-3.301951;19470.11;10693.63;-0.1543266;-0.2138558;0;
4557.26;2630.518;349.7408;6253.583;-9.199185;2.059879;4695.842;1097.192;-0.02423682;-0.01873894;0;
-19408.49;-14569.43;342.7677;-22949.91;-10.79753;1.588929;-20991.73;-11434.44;-0.4789838;0.1112146;0;
-18322.98;-12455.43;-0.1857358;-23721.42;-2.27924;9.558118;-20019.84;-9879.773;-0.4135352;-0.2787012;0;
-18333.1;-12527.35;7.576174;-23378.59;-1.406294;13.50039;-19912.45;-9442.639;0.04165168;-0.4083559;0;
-21415.51;-15927.38;-61.95899;-26468.26;1.675602;9.200034;-22794.61;-11929.61;-0.3481942;0.1767605;0;
3540.004;2203.69;-344.1455;2545.301;4.353235;10.79838;3740.436;713.1796;-0.282877;0.566387;0;
18469.07;13521.85;-328.8853;22804.15;-2.482666;10.9215;19983.95;10741.84;0.1072113;0.1760138;0;
15814.8;11477.83;-86.52025;20578.75;-3.284454;10.77656;17240.88;9288.479;-0.3476678;0.1108696;0;
16320.49;12052.41;-17.76471;20712.86;-2.611569;13.04303;17668.71;9747.27;-0.5422205;0.1107582;0;
17934.48;13166.03;31.83759;22740.48;-4.149186;13.36483;19399.9;10597.51;0.1079977;0.04567957;0;
4372.171;2527.218;376.5542;6130.408;-2.001563;10.13635;4527.499;963.9346;0.1728565;-0.08430101;0;
-19356.88;-14481.45;372.3652;-22865.93;-2.602764;8.71952;-20926.54;-11450.09;-0.1521539;-0.409053;0;
-18032.5;-12299.87;14.59261;-23452.96;-5.614259;10.38533;-19740.97;-9737.66;0.1728357;-0.2787073;0;
-18104.54;-12381.94;18.71649;-23167.28;-7.952167;9.77205;-19717.98;-9282.584;0.2376294;-0.5382966;0;
-20827.22;-15576.32;-54.84348;-25924.91;-4.528901;7.752804;-22221.56;-11721.82;-0.2173807;-0.4078211;0;
4105.058;2449.606;-360.6659;3057.317;-3.853789;6.673287;4319.675;845.004;-0.0222603;0.3072295;0;
18489.14;13527.83;-339.3452;22810.24;-14.23239;6.264684;20005.57;10770.18;0.3025988;-0.08288328;0;
15922.51;11609.25;-81.24322;20691.42;-15.55824;5.58856;17346.61;9416.456;-0.2824114;-0.277702;0;
16467.62;12185.65;-19.13026;20863.28;-18.42202;4.176364;17816.61;9873.854;-0.6069643;0.1123811;0;
17938.73;13179.7;14.20034;22762.82;-20.54696;3.703287;19405.65;10625.38;0.043319;-0.01766655;0;
4539.514;2648.398;340.4752;6314.531;-10.8144;4.503361;4707.261;1055.865;0.3031448;-0.08261614;0;
-19283.08;-14454.93;345.4273;-22783.24;-8.793802;5.771451;-20841.94;-11396.62;-0.3468332;-0.01756578;0;
-17798.54;-12279.62;9.420797;-23211.37;-5.033922;4.158123;-19503.8;-9735.033;-0.2815173;-0.2774175;0;
-17455.81;-11924.53;22.65467;-22536.14;-2.550617;5.426559;-19068.52;-8966.68;0.2385043;-0.3421061;0;
-20645.21;-15252.34;-26.87445;-25687.95;-1.611025;8.167346;-22023.93;-11401.88;0.1083299;-0.2118277;0;
3901.556;2407.82;-311.2514;2985.169;-0.7377741;9.230865;4142.684;874.7249;0.1731884;-0.01671279;0;
18602.79;13637.85;-300.3658;22962.58;-3.282628;17.86214;20128.17;10861.23;0.2379818;0.1132387;0;
15957.42;11646.56;-58.82589;20705.64;-3.681472;20.72446;17380.8;9455.426;-0.1520614;0.1780923;0;
16389.89;12110.23;-12.72742;20794.52;-12.58638;22.37809;17743.72;9808.571;-0.08694129;0.04797862;0;
17999.61;13240.13;-2.813359;22795.23;-15.58784;24.83397;19462.58;10657.35;0.04308075;-0.2769063;0;
4311.627;2531.386;315.7793;6014.659;-14.63418;18.84766;4457.358;1029.722;-0.02192988;-0.276628;0;
-19585.54;-14663.05;343.7759;-23131.79;-14.55212;17.82398;-21150.74;-11510.95;-0.02190785;-0.3413174;0;
-17789.39;-12210.21;24.76255;-23245.05;-16.54723;15.05989;-19488.43;-9783.79;-0.08685318;-0.2760071;0;
-17317.84;-11717.42;29.15732;-22437.37;-16.66433;12.70036;-18948.27;-8900.055;-0.02179856;-0.08082779;0;
-20196.51;-14972.1;-30.15468;-25229.99;-2.246618;14.29519;-21548.88;-11254.69;-0.1517113;-0.4055833;0;
4320.856;2610.368;-325.6321;3415.821;2.443712;13.74496;4626.843;967.6529;-0.3464609;-0.3402084;0;
18544.36;13576.2;-325.5704;22901.05;7.264028;12.52545;20078.07;10815.07;-0.2161781;0.3098069;0;
15943.53;11641.99;-88.95577;20691.13;12.48164;11.97701;17358.61;9457.353;-0.02105888;0.04962619;0;
16525.32;12237.29;-31.25472;20926.37;8.449636;16.72064;17880.77;9926.906;0.303799;-0.210293;0;
17957.31;13198.5;16.81504;22764.41;9.580222;18.44539;19419.99;10631.15;0.1735591;-0.01517971;0;
4314.46;2500.626;347.2414;6017.536;9.436873;16.75229;4477.242;956.9351;0.238352;-0.2100665;0;
-19349.08;-14431.19;355.9192;-22922.28;10.36442;17.13735;-20909.11;-11358.42;0.5629492;-0.01495339;0;
-17741.31;-12160.46;24.99338;-23206.59;1.646469;17.65599;-19446.65;-9662.411;0.3025142;0.439833;0;
-17663.46;-12056.7;17.3471;-22768.39;-1.83781;17.4373;-19286.45;-9034.606;-0.2824959;0.2444891;0;
-20609.98;-15292.64;-39.22004;-25644.87;8.077023;16.74995;-21962.6;-11446.44;-0.477114;0.3741781;0;
4102.993;2478.772;-312.9337;3165.839;7.867836;16.06342;4398.865;876.1733;-0.3466999;0.5037368;0;
18537.77;13567.14;-293.8786;22872;13.28591;15.84633;20069.82;10808.08;-0.2164169;0.4382633;0;
15903.92;11598.01;-52.15782;20656.57;15.41602;16.50011;17317.96;9409.169;0.1736046;0.1129862;0;
16379.38;12091.57;-6.190989;20780.03;10.24296;8.914704;17738.07;9787.067;0.4332995;-0.406866;0;
17943.29;13187.83;30.14072;22735.65;9.964252;6.159507;19402.42;10617.45;0.2379621;-0.01665318;0;
4281.493;2485.424;350.0434;5978.439;4.260813;14.65997;4420.368;972.8596;0.1077884;-0.08160379;0;
-19733.41;-14818.16;331.9506;-23286.61;1.1087;14.91317;-21310.13;-11670.31;-0.02225464;-0.2114565;0;
-18062.55;-12456.51;-13.13157;-23493.94;0.1032079;16.03689;-19772.26;-9952.77;-0.02223228;0.2435274;0;
-17392.75;-11791.31;8.027248;-22525.42;-2.174072;16.42256;-19018.81;-8851.771;0.3026268;-0.1465214;0;
-20101.54;-14901.56;-19.62317;-25173;-2.507656;14.26272;-21480.89;-11109.27;-0.02251402;-0.2113415;0;
4305.491;2599.653;-288.3278;3438.89;-1.768202;13.71253;4561.806;990.9587;-0.2173934;0.3086096;0;
18487.07;13526.89;-272.5771;22874.37;-8.196787;7.871356;20014.38;10759.4;0.04269439;-0.01653719;0;
15884.82;11585.5;-35.50033;20612.16;-10.332;5.720054;17302.35;9397.171;-0.2821852;0.04844677;0;
16430.36;12135.77;7.10769;20829.21;3.343384;0.9586403;17783.57;9831.411;-0.346869;0.2433001;0;
17889.12;13138.69;24.29503;22673.5;5.683573;-2.391409;19349.27;10558.58;0.2381856;-0.1467484;0;
4116.936;2318.027;330.1481;5749.523;6.615867;1.361978;4242.895;837.6214;0.3029136;-0.2765356;0;
-19842.27;-14872.37;321.2426;-23449.86;8.618952;1.15966;-21433.31;-11704.99;-0.02222748;-0.3412251;0;
-18231.07;-12456.8;-21.48623;-23663.98;3.921242;0.8235803;-19939.12;-9926.137;-0.08717249;-0.2759149;0;
-17723.18;-11997.35;-1.396604;-22821.34;3.51516;1.358616;-19350.15;-8948.087;0.1078171;-0.08073564;0;
-20418.11;-15134.98;-39.79777;-25460.56;-1.779658;4.170473;-21777.81;-11292.01;0.2376435;0.1142475;0;
4164.252;2549.628;-336.9365;3269.735;-2.581177;5.974761;4457.288;921.8618;0.3673394;0.4389694;0;
18501.84;13539.28;-326.8216;22866.13;-10.21439;3.691399;20035.48;10785.8;0.1071009;0.04872429;0;
15890.07;11585.04;-76.0254;20641.32;-13.35294;3.218809;17301.94;9395.286;-0.3477781;-0.2761614;0;
16442.71;12153.76;-33.06431;20857.01;-3.224488;6.497677;17798.03;9846.879;-0.1525266;0.1788875;0;
17991.68;13237.44;-4.998304;22783.98;-2.953804;6.424166;19448.78;10671.91;0.107496;0.2436751;0;
4198.888;2445.849;325.981;5864.501;7.967504;4.408284;4327.033;919.895;0.04242064;0.04852823;0;
-19908.15;-14895.32;326.7935;-23456.31;12.24641;3.801008;-21497.15;-11748.88;0.1073454;-0.08145522;0;
-18375.79;-12516.85;-9.99076;-23757.28;9.487434;-1.628307;-20087.03;-9983.894;0.04227016;0.3084307;0;
-17798.76;-11990.97;1.857078;-22871.19;11.82243;-3.90403;-19420.81;-9016.765;-0.282609;0.3730881;0;
-20465.23;-15185.88;-55.22547;-25505.39;0.6911359;-4.770885;-21858.7;-11336.85;-0.6721291;-0.2769602;0;
4068.296;2448.783;-334.7326;3175.634;-3.395396;-6.976467;4299.11;887.9212;-0.6064864;-0.2766819;0;
18396.33;13434.39;-305.567;22777.26;-0.8463883;-3.486405;19919.39;10659.66;0.1737311;-0.2764039;0;
15809.92;11506.83;-56.40066;20553.82;-3.323784;-2.679168;17228.83;9323.4;0.4983932;-0.2761261;0;
16378.72;12079.91;2.751305;20783.84;-7.27256;-7.767057;17734.24;9779.282;0.1730557;0.1139554;0;
17803.29;13067.91;35.52894;22584.42;-8.939216;-9.031867;19255.85;10477.85;0.2378492;-0.08106118;0;
3825.889;2140.777;346.5869;5423.245;-12.01169;-2.458647;3922.758;706.6658;0.3675449;-0.01601238;0;
-20123.9;-15081.22;344.5676;-23755.87;-14.47787;-0.3127843;-21728.53;-11877.97;0.04233887;0.3088404;0;
-18668.89;-12793.66;14.12166;-24108.53;-5.01885;-5.135119;-20376.58;-10120.43;-0.2825404;-0.1462413;0;
-18690.58;-12880.44;8.625848;-23796.23;-2.60291;-4.661079;-20308.82;-9546.072;0.04258022;-0.2110617;0;
-21264.38;-15909.85;-82.25902;-26388.02;-4.743748;-4.053549;-22643.54;-11932.46;0.1075048;0.2439218;0;
3860.316;2368.211;-373.4518;2821.592;-1.523801;-4.183442;4099.203;759.6209;-0.2174399;0.1787093;0;
18337.94;13382.54;-325.5692;22660.53;-11.16781;0.2415133;19860.35;10634.32;-0.02231944;-0.01637226;0;
15774.68;11458.64;-69.02711;20524.81;-14.30442;0.9780829;17194.83;9259.628;-0.1522317;0.04861153;0;
16353.36;12065.16;-28.40001;20751.64;-2.970544;3.857305;17708.71;9763.066;-0.4769154;0.11353;0;
17888.56;13140.77;16.38727;22667.49;-4.173007;6.197771;19343.82;10565.4;-0.02166484;-0.1464534;0;
3898.886;2178.238;368.5532;5503.89;1.926754;0.1632015;4005.409;716.7709;0.3031936;-0.6010776;0;
-20690.06;-15625.92;365.4498;-24276.28;4.737857;-0.305843;-22289.71;-12387.85;0.1729543;-0.7304084;0;
-19172.65;-13138.73;13.63428;-24576.23;-10.20373;-0.4394405;-20872.44;-10503.67;0.04284583;-0.4048377;0;
-18530.53;-12593.81;14.29212;-23608.35;-10.59562;-2.314521;-20133.42;-9419.873;0.3676395;-0.1445616;0;
-21405.24;-15970.94;-57.59237;-26468.93;-22.90886;3.984078;-22795.26;-11956.3;0.2373354;-0.07944899;0;
3565.622;2161.519;-346.889;2559.292;-28.44554;5.118724;3782.667;658.3169;-0.2176745;0.05056552;0;
18379.45;13424.64;-314.8221;22709.18;-15.48987;1.63059;19899.73;10651.8;-0.3473904;0.05051471;0;
15717.97;11394.1;-63.75677;20488.22;-17.08189;2.231737;17135.97;9200.263;-0.1521394;-0.1444381;0;
16271.98;11992.13;-24.88409;20683.24;-0.5203092;-0.4497007;17624.13;9693.453;0.1078829;-0.07932559;0;
17781.4;13027.05;17.49463;22571.78;5.643131;-0.8511465;19234.27;10437.18;-0.2820296;0.3755255;0;
3760.271;2120.03;377.6241;5396.506;-3.003703;-1.252189;3864.287;669.4545;-0.2167788;0.6350176;0;
-20355.31;-15277.34;376.9011;-23922.1;1.286223;-2.992426;-21955.07;-12070.27;0.1082757;0.1796081;0;
-18896.89;-12961.6;14.70428;-24282.09;-18.13988;4.579469;-20606.97;-10285.47;-0.1517025;-0.1454091;0;
-18630.89;-12751.38;11.14442;-23701.75;-25.02052;5.780499;-20247.35;-9472.303;0.1732867;0.2445411;0;
-21013.51;-15752.35;-48.14948;-26092.82;-7.646683;2.894486;-22424.26;-11800.77;0.04317787;0.1143607;0;
4015.35;2417.824;-316.841;3046.36;-7.974768;3.427441;4208.353;823.8768;-0.6715063;-0.01568894;0;
18345.72;13383.19;-276.6989;22707.41;-8.837411;-3.006181;19860.88;10622.36;-0.2810275;0.3091635;0;
15707.99;11413.65;-38.33744;20454.08;-7.287314;-5.347563;17126.1;9216.058;0.1740263;-0.01598382;0;
16315.8;11998.66;-1.832876;20716.31;-11.29946;-5.007275;17665.91;9693.084;0.04391673;-0.2758371;0;
17820.81;13100.83;37.58665;22594.18;-10.41745;-7.21262;19271.78;10515.18;-0.02109474;0.04927675;0;
3427.978;1947.172;351.5161;5049.968;-12.21466;-6.401577;3530.162;538.0579;0.1088611;0.04922723;0;
-21320.17;-16050.74;316.0399;-24884.19;-12.26974;-7.399889;-22928.54;-12730.95;0.1737191;0.1791125;0;
-19768.09;-13591.15;-22.87309;-25186.35;-8.238922;-8.062222;-21485.5;-10806.17;-0.1512922;0.3088672;0;
-19536.57;-13473.64;-20.44507;-24604.09;-7.292639;-8.25507;-21119.82;-10078.34;-0.2161075;-0.08124724;0;
-22416.03;-16837.98;-106.6156;-27540.28;-3.802686;-10.72508;-23804.7;-12669.3;-0.150923;-0.1461329;0;
3098.726;1897.651;-379.793;1946.178;-2.793511;-11.1162;3269.292;460.1804;0.04413068;-0.1459861;0;
18241.69;13300.96;-327.0158;22525.69;2.902723;-11.50693;19751.78;10522.32;0.368923;0.11403;0;
15616.04;11280.66;-61.49239;20380.67;6.65085;-11.56235;17038.07;9081.837;-0.0212517;0.6336541;0;
16179.54;11891.77;-10.31567;20575.46;-4.274172;-10.27812;17532.9;9592.95;-0.151165;0.2432134;0;
17756.17;13016.13;18.80506;22520.39;-5.408954;-9.463997;19203.42;10413.14;0.2387909;0.242969;0;
3211.822;1728.045;351.369;4746.386;-2.924296;-9.588453;3290.375;380.125;0.628355;0.4376269;0;
-21715.36;-16423.55;341.3802;-25341.84;-4.328854;-9.913733;-23331.91;-13029.31;0.1079849;-0.08255161;0;
-20515.01;-14085.39;-12.08224;-25872.31;0.4982673;-4.143362;-22212.85;-11162.98;-0.6717317;-0.01750131;0;
-20429.62;-14145.92;-33.88726;-25428.09;0.6324645;-2.79954;-21968.89;-10562.79;-0.34622;0.112451;0;
-22653.77;-17170.04;-118.3732;-27783.36;1.301414;-5.141129;-24040.98;-12955.94;-0.02103543;0.04737062;0;
3260.351;1964.28;-374.4692;2076.406;1.232758;-4.399151;3376.189;514.5615;-0.08598164;0.1122904;0;
18146.44;13212.09;-326.5856;22433.82;0.8967264;-11.49474;19643.37;10446.65;0.3039088;-0.2126592;0;
15498.1;11161.42;-76.25812;20271.17;1.83383;-13.89451;16932.51;8949.896;0.2386361;0.1123912;0;
16077.12;11783.09;-16.69577;20466.41;-7.07662;-12.40699;17425.63;9486.332;-0.02147305;0.1772456;0;
17634.89;12900.46;21.66111;22414.12;-8.007515;-14.67188;19092.84;10298.12;-0.08641882;-0.1477692;0;
3203.326;1701.026;349.865;4779.544;-12.28638;-10.37029;3297.134;328.7173;-0.08633199;-0.1476207;0;
-21954.72;-16683.88;307.1597;-25556.37;-15.62293;-10.02502;-23555.17;-13289.11;-0.2811473;-0.5372764;0;
-20637.65;-14209.13;-81.59428;-26034.85;-3.282376;-12.2923;-22328.45;-11288.55;-0.4757668;-0.4068019;0;
-19936.98;-13685.83;-64.31781;-25022.93;-3.279078;-11.74409;-21522.41;-10149.92;-0.08548469;0.3082477;0;
-22318.3;-16792.26;-96.84618;-27400.77;6.838274;-15.81812;-23691.73;-12648.04;0.04453589;0.2429706;0;
3228.172;2028.255;-362.0686;2209.958;11.98897;-16.33809;3445.513;533.4736;-0.4102803;-0.01714294;0;
18216.49;13283.09;-319.0856;22542.63;-4.835918;-16.12073;19740.75;10511.28;-0.08503129;-0.1470604;0;
15500.77;11148.62;-57.72433;20248.23;-6.907164;-16.43945;16920.9;8941.19;0.4347929;-0.2768473;0;
16019.38;11738.2;-13.15745;20427.76;-11.45457;-11.19838;17377.99;9444.012;-0.08538273;0.1132349;0;
17602.79;12853.27;10.67192;22364.27;-16.06477;-8.641838;19054.14;10242.24;-0.08529694;0.2430558;0;
3144.397;1653.48;347.9135;4667.979;-14.44103;-11.71431;3225.538;338.3451;0.3045928;-0.3418945;0;
-21622.89;-16372.17;333.3211;-25248.13;-17.57533;-12.37237;-23232.66;-12928.19;0.2393194;-0.5364529;0;
-20054.04;-13776.76;-36.53119;-25426.25;-13.06969;0.09858532;-21752.26;-10963.02;0.1741116;-0.2760446;0;
-19521.82;-13370.06;-37.43151;-24575.95;-11.85111;4.31835;-21109.42;-9942.263;-0.4107694;0.04906951;0;
-21803.14;-16394.95;-91.72596;-26919.97;-16.4609;-7.20681;-23196.38;-12310.78;-0.3453893;0.0490202;0;
3576.29;2206.6;-361.9042;2492.733;-15.64008;-8.338217;3760.244;661.4037;-0.02020557;-0.2108984;0;
18224;13288.28;-322.7319;22541.65;-17.6341;-6.52136;19740.56;10527.69;-0.2150873;0.3090522;0;
15662.74;11308.04;-69.33173;20421.3;-18.08489;-7.519552;17088.15;9101.132;0.2399002;0.6985458;0;
16256.19;11980.3;-23.01969;20657.14;-11.83743;-7.578979;17611.52;9681.612;0.4345612;-0.08176427;0;
17776.01;13006.01;14.9375;22544.38;-10.21795;-7.839234;19228.91;10405.47;0.04432049;-0.08168211;0;
3477.933;1860.522;347.7708;5016.743;-9.135952;-8.233255;3564.299;464.6297;-0.02069139;0.4381387;0;
-20993.51;-15896.66;333.772;-24632.58;-7.251738;-8.62688;-22597.91;-12594.79;0.3041661;0.1128618;0;
-19195.87;-13293.36;-3.097362;-24609.24;-7.579244;-5.269126;-20896.79;-10603.97;0.1089585;0.04778101;0;
-18649.63;-12777.27;16.52089;-23761.58;-6.165109;-4.795012;-20251.06;-9474.316;-0.08605304;-0.01723435;0;
-21072.63;-15741.26;-40.04541;-26184.84;-8.770883;-3.450535;-22457.03;-11760.05;-0.02099924;-0.08218437;0;
4003.633;2472.313;-315.7572;3014.811;-9.632726;-2.442385;4212.66;884.3082;-0.2808475;0.2427349;0;
18389.55;13421.96;-286.6107;22742.39;-5.872002;-6.391802;19908.44;10659.68;-0.4754673;0.1125563;0;
15724.57;11405.08;-35.77673;20475.03;-6.469314;-6.653311;17147.16;9201.163;-0.08518553;0.2423779;0;
16277.78;11971.11;17.31068;20675.55;-1.640043;-12.00514;17630.62;9667.147;0.2397368;0.3071017;0;
17851.89;13104.29;53.22834;22632.36;0.7725027;-15.40908;19306.39;10505.43;-0.08534082;-0.01804357;0;
3489.37;1916.751;379.464;5116.411;-8.87284;-6.753046;3598.489;496.2276;-0.1502224;0.1768766;0;
-21060.92;-15907.01;357.6716;-24669.99;-10.13672;-5.540567;-22662.27;-12686.54;0.04483055;0.2416662;0;
-19404.68;-13357.65;-1.897882;-24845.42;-8.653644;-10.9605;-21113.13;-10677.67;-0.2800512;-0.01844599;0;
-19129.37;-13128.82;4.397737;-24220.41;-9.91677;-10.41362;-20709.06;-9734.297;-0.4097045;-0.4082315;0;
-21382.96;-16072.59;-49.61079;-26479.07;-5.620874;-13.14939;-22757.63;-12051.52;-0.08445611;-0.342854;0;
4031.747;2470.292;-333.0903;3060.204;-5.079363;-14.27489;4231.04;882.237;-0.0194039;0.04729458;0;
18389.43;13438.81;-303.7077;22762.13;-4.068905;-8.165224;19908.73;10676.1;-0.1493191;0.1122144;0;
15699.87;11367.9;-54.19968;20449.11;-3.060439;-7.48719;17121.53;9157.146;0.240635;0.371971;0;
16393.23;12096.58;-11.46355;20796.66;-5.26719;-5.202308;17746.41;9794.994;-0.2793455;0.04676054;0;
17871.31;13114.06;42.81757;22646.54;-5.462969;-3.723517;19324.21;10502.24;-0.6039016;-0.1481885;0;
3641.189;1972.822;388.8662;5228.892;-6.261763;-8.743374;3734.307;603.303;0.04637867;0.4366665;0;
-20413.93;-15350.19;359.5681;-24016.34;-6.791335;-10.27514;-22021.42;-12068.03;0.1112994;0.5661625;0;
-18841.46;-12917.07;-7.889895;-24203.86;-5.913854;-9.996879;-20546.87;-10297.16;0.2411223;0.2407569;0;
-18647.9;-12746.84;-8.428568;-23679.54;-4.300322;-11.86236;-20237.4;-9454.171;0.435782;0.1105803;0;
-20797.62;-15438.52;-66.23479;-25842.31;-9.386215;-14.1278;-22176.35;-11519.89;-0.0843946;0.1754365;0;
4227.603;2701.007;-344.0598;3311.547;-9.309435;-15.72113;4433.447;1053.102;-0.3441792;-0.08460917;0;
18469.82;13507.77;-316.1498;22851.41;-2.133761;-21.59971;19991.17;10766.27;-0.1489313;-0.01955682;0;
15945.55;11613.25;-67.50385;20696.35;-0.1218854;-25.06106;17370.94;9401.758;0.1110877;0.4352342;0;
16571.69;12274.49;-18.38255;20977.01;9.523779;-22.15567;17923.76;9968.225;-0.2138606;0.1099602;0;
18106.85;13343.25;20.97552;22908.42;14.93922;-23.27206;19564.34;10750.39;-0.01874371;-0.214987;0;
3997.867;2262.019;355.0677;5681.942;10.70465;-23.65057;4114.528;814.2942;0.7608832;-0.1498036;0;
-20111.05;-15116.16;350.4944;-23650.59;11.56455;-22.95698;-21695.31;-11913.11;0.630184;-0.3445551;0;
-18634.75;-12739.77;3.3165;-24003.78;16.50942;-28.09147;-20326.71;-10101.89;0.04484471;-0.4091763;0;
-18626.8;-12780.16;0.7675724;-23659.66;16.35911;-28.59911;-20214.79;-9463.586;-0.280037;-0.3437978;0;
-20879.89;-15648.81;-68.15168;-25889.02;14.26657;-25.08732;-22241.09;-11679.25;-0.4096904;-0.2135177;0;
4277.516;2635.079;-347.802;3413.495;12.71101;-23.7895;4518.053;1026.443;-0.6041807;0.3064356;0;
18455.98;13494.44;-300.0701;22858.18;5.531923;-21.35427;19988.48;10744.6;-0.473639;0.2411604;0;
15862.26;11529.92;-41.07047;20615.33;2.512254;-19.18942;17289.21;9329.468;-0.2132937;0.1109834;0;
16593.98;12292.64;4.807135;21013.78;-0.9738704;-14.48146;17960.46;9999.424;-0.148112;0.2408065;0;
18063.54;13302.96;47.09355;22843.36;-2.24569;-10.64894;19525.59;10701.92;-0.01802851;-0.0193048;0;
4009.79;2149.285;374.1318;5589.848;-8.472724;-10.16936;4111.585;782.4954;0.241859;-0.2141874;0;
-19872.81;-15028.69;350.7362;-23504.71;-12.01418;-6.67615;-21441.83;-11705.03;0.04671393;-0.1490049;0;
-18245.97;-12411.62;-1.59554;-23650.26;4.274863;-6.133578;-19896.66;-9902.31;-0.148235;-0.2138225;0;
-17911.75;-12115.62;9.915902;-23017.75;6.681465;-4.586808;-19486.18;-9054.968;0.1767506;-0.2136076;0;
-20058.58;-14981.05;-27.02862;-25078.06;11.3638;2.78574;-21402.48;-11126.25;-0.08329635;-0.1484257;0;
4682.367;2884.082;-295.3353;3936.034;16.57632;5.0603;4956.488;1242.597;-0.537984;-0.08330918;0;
18618.09;13647.35;-280.3897;23068.29;5.977092;8.002403;20163.5;10904.54;-0.08267208;0.04670921;0;
15948.79;11628.02;-39.40082;20680.88;7.243884;9.80284;17381.86;9438.141;0.307215;0.3065317;0;
16529.44;12213.77;-2.567227;20961.96;-2.341588;9.32411;17905.41;9922.378;-0.01793036;-0.01861307;0;
18039.47;13282.33;17.92505;22824.93;-6.894563;10.2525;19508.16;10696.42;-0.08287968;-0.6033005;0;
4206.505;2365.761;352.2078;5800.358;7.112164;4.347825;4327.136;969.1659;-0.2127311;-0.4727595;0;
-19521.09;-14674.93;338.548;-23111.53;7.573532;2.936875;-21049.94;-11367.97;-0.4074194;0.1124216;0;
-17969.48;-12227.09;-26.95233;-23335.91;15.06801;1.661249;-19573.02;-9678.793;-0.01720594;0.3072106;0;
-17809.83;-12055.68;-11.87032;-22861.17;21.08109;-0.3498476;-19334.71;-8972.918;0.04777869;-0.01793479;0;
-20075.66;-14916.56;-45.59143;-25022.68;5.653589;5.745768;-21342.35;-11046.9;-0.1471713;-0.2128188;0;
4665.65;2907.818;-315.2226;3939.638;3.103289;7.414567;5007.583;1280.195;0.1778132;0.1771991;0;
18619.8;13633.86;-278.1587;23052.34;17.23272;6.871254;20176.83;10893.01;0.1776346;0.3069558;0;
15972.48;11650.28;-38.1247;20705.31;19.15778;9.007743;17407.72;9469.153;-0.08241328;0.04677794;0;
16678.68;12364.21;-12.92716;21104;11.97221;9.19964;18062.25;10078.02;0.04760421;-0.2131384;0;
18143.22;13374;17.39872;22938.25;10.0178;10.06117;19619.7;10800.74;0.2424584;-0.3428589;0;
4224.086;2349.413;346.5439;5873.611;13.28929;13.66802;4381.431;915.6313;0.4371168;0.307159;0;
-19420.48;-14598.04;341.9166;-22990.44;12.40528;14.12317;-20922.3;-11397.74;0.1768082;0.5017524;0;
-18093.23;-12282.92;-2.441543;-23465.86;8.91019;16.05148;-19680.61;-9721.859;-0.2131735;-0.1484252;0;
-18152.95;-12352.69;-12.0124;-23205.46;8.901237;16.10234;-19634.97;-9157.088;0.3067794;-0.08330874;0;
-20124.12;-15039.02;-68.87799;-25158.12;-2.561911;12.73701;-21409.87;-11140.71;0.4364059;-0.01825769;0;
4712.287;2914.828;-331.661;3891.058;-7.113688;11.65261;4986.335;1282.929;0.1111307;-0.2131414;0;
18552.19;13576.37;-309.8386;22977.72;0.9977846;3.871001;20101.37;10846.24;0.1759863;0.04694216;0;
15936.27;11619.28;-71.30325;20657.26;-1.079323;0.1161887;17378.87;9439.651;0.3057442;0.4366991;0;
16494.77;12161;-22.0532;20908.44;7.56195;0.7188573;17876.43;9876.926;-0.08436707;0.4362603;0;
17973.82;13226.6;8.21938;22750.86;11.03795;-1.425258;19446.59;10653.23;-0.4740863;0.2409199;0;
3871.524;2131.627;339.1698;5448.652;-0.8958568;-0.15115;4006.271;748.3128;0.1110961;0.1757105;0;
-20435.74;-15464.97;331.5358;-24058.9;-1.163376;0.3848653;-21939.82;-12123.38;0.2409191;-0.01936813;0;
-18979.2;-13000.1;-21.16713;-24383.63;-9.065461;-2.361761;-20558.32;-10301.96;-0.2790617;0.04561867;0;
-18596.28;-12684.83;-12.99371;-23681.14;-14.74978;-2.895251;-20078.58;-9369.403;0.04605545;0.04557283;0;
-20661.19;-15528.41;-69.32733;-25729.13;2.479045;3.135939;-21917.54;-11446.6;0.3708459;0.1104944;0;
4432.362;2713.124;-354.7079;3549.002;6.227598;4.472447;4743.831;1193.698;-0.2792002;0.6950895;0;
18553.81;13571.2;-331.9409;22953.05;-6.906826;5.204765;20107.93;10818.38;-0.4088543;0.4345216;0;
15775.8;11446.22;-89.51031;20514.38;-6.29765;6.874048;17214.63;9261.785;0.1762626;-0.2155884;0;
16396.33;12077.65;-40.22636;20812.21;-7.429422;0.2360132;17778.39;9798.377;0.1111181;-0.02046974;0;
17860.55;13088.86;16.22321;22637.47;-9.230618;-1.706729;19332.65;10502.55;-0.2138302;-0.08541651;0;
3534.126;1884.753;360.0809;5118.891;5.982929;1.644072;3679.643;511.7767;-0.01871334;-0.02036335;0;
-20444.65;-15397.89;350.6924;-24049.67;9.727962;1.307505;-21936.57;-12081.69;-0.1486292;0.4344285;0;
-18768.94;-12881.96;15.35217;-24153.99;8.981252;-2.980594;-20358.89;-10135.27;-0.3433819;0.1091553;0;
-18539.36;-12684.19;43.65063;-23631.86;12.58955;-4.853061;-20047.06;-9307.233;-0.2780695;-0.2807584;0;
-20376.44;-15265.71;-12.06837;-25427.64;4.740019;-0.8293304;-21670.7;-11386.24;-0.1478554;0.1093277;0;
4643.997;2887.96;-322.7594;3821.162;3.59618;-0.1586677;4910.175;1192.183;-0.2126742;0.4990219;0;
18486.73;13511.45;-308.0361;22910.97;8.147894;-4.914175;20024.33;10793.02;-0.4723299;0.1736838;0;
15793.45;11463.29;-49.57511;20533.7;8.340778;-6.449844;17235.46;9275.774;-0.2769533;-0.02139276;0;
16434.27;12111.09;-8.764537;20856.41;7.193321;-2.424448;17812.61;9825.002;-0.1467403;0.3034655;0;
17942.52;13181.37;15.20098;22728.31;7.052372;-2.422012;19413.24;10603.78;-0.08162551;0.04329115;0;
3649.494;2052.506;332.0264;5281.735;8.384456;-5.500732;3798.276;666.7552;0.1783259;-0.2166217;0;
-20381.52;-15331.15;312.8898;-23946.35;7.639097;-6.499949;-21876.93;-11974.5;-0.01675533;-0.08646937;0;
-18390.51;-12676.63;-24.67698;-23767.65;11.58354;-7.431118;-19988.45;-10041.78;0.04822885;-0.08638249;0;
-17826.48;-12089.36;-7.66072;-22873.46;11.5719;-8.026498;-19344.37;-8971.516;0.1131477;-0.151263;0;
-20043.13;-14868.15;-53.95787;-25009.45;11.76134;-11.36752;-21340.93;-11011.72;-0.08186799;-0.2160784;0;
4581.265;2860.481;-318.63;3815.142;13.62553;-12.2938;4863.442;1254.918;0.04814896;0.1739428;0;
18526.79;13545.63;-291.0735;22961.43;-2.665133;-12.88429;20074.36;10809.95;-0.2767361;0.2387354;0;
15858.33;11528.94;-54.89959;20591.2;-7.618948;-13.74212;17295.7;9343.177;-0.4713601;-0.2162759;0;
16395.2;12068.02;-15.56729;20822.65;-0.3776238;-8.10187;17773.51;9787.592;-0.08108242;-0.4759279;0;
17854.86;13098.57;13.0902;22634.1;-2.721769;-5.950336;19323.83;10513.15;0.04893374;-0.4754497;0;
3770.833;2022.94;337.2891;5337.367;1.501501;-6.614186;3907.015;639.5159;0.1788193;-0.3450373;0;
-20077.1;-15149.23;329.9225;-23707.09;1.767436;-4.598052;-21578.35;-11848.99;0.4385089;0.0451134;0;
-18521.91;-12598.75;-11.14403;-23932.67;1.028725;-5.263261;-20120.74;-9937.367;0.373101;0.4348721;0;
-18312.48;-12423.75;2.782048;-23417.92;2.568909;-4.990041;-19851.82;-9153.678;0.1778241;0.3694678;0;
-20162.18;-15126.67;-47.13316;-25247.1;-6.878143;-1.502036;-21471.29;-11273.21;-0.2121587;-0.08567481;0;
4734.947;2911.786;-324.5869;3833.558;-8.612544;-1.634493;5025.378;1216.598;-0.4718148;-0.2804908;0;
18528.94;13560.47;-299.3671;22918.39;-9.340825;3.055893;20075.2;10841.33;0.1133653;-0.02033955;0;
15875.62;11536.28;-61.45131;20617.05;-12.21183;5.598114;17314.34;9351.028;0.4380881;-0.2152211;0;
16510.24;12195.06;-13.47615;20916.94;-1.081122;-5.861349;17887.18;9905.552;0.3726806;-0.2150049;0;
18030.47;13255.4;45.89818;22811.21;2.469938;-8.132818;19503.35;10688.86;0.7621101;0.1100479;0;
3966.246;2185.096;377.2167;5571.572;-5.56952;-7.119902;4123.274;741.6263;0.4365077;-0.2148994;0;
-19923.48;-15002.17;348.1959;-23533.74;-4.693267;-10.1939;-21422.4;-11773.09;0.1112324;-0.01978146;0;
-18017.47;-12393.07;15.54428;-23425.64;-3.14831;-2.279856;-19613.07;-9820.959;0.2410553;0.4999772;0;
-17878.73;-12260.91;31.11458;-22951.69;-4.015803;-1.138917;-19386.86;-9084.472;-0.08402365;0.1746381;0;
-20496.55;-15302.38;-29.60493;-25468.44;6.771874;-6.563268;-21779.25;-11319.76;-0.4087759;0.0445279;0;
4445.458;2756.519;-292.7554;3679.214;10.18132;-6.623656;4748.219;1210.163;-0.08352848;0.1094505;0;
18712.89;13730.11;-287.4481;23141.48;1.061412;-10.30094;20263.55;10984.86;0.4362942;-0.08556151;0;
15995.95;11656.42;-71.8925;20749.79;0.1896896;-11.8312;17435.54;9475.655;0.4358558;-0.4103122;0;
16650.16;12347.87;-11.05394;21071.55;1.394948;-11.21646;18029.76;10068.71;-0.01935355;-0.4748673;0;
18231.01;13440.58;45.30385;23034.59;0.6575879;-12.74574;19707.21;10856.94;0.04563323;0.1103159;0;
4221.22;2367.886;376.217;5925.219;-0.7505684;-8.647095;4386.728;949.269;0.4353914;-0.0197296;0;
-19163.05;-14425.62;352.2883;-22692.82;-1.285678;-7.36573;-20655.44;-11233.51;0.2400519;-0.2795791;0;
-17553.53;-12137.58;18.14895;-22887.24;-1.7529;-13.98952;-19145.42;-9518.35;-0.02005865;-0.2143309;0;
-17749.9;-12205.4;47.50658;-22771.49;-2.219654;-15.85092;-19255.99;-8949.504;0.2398309;-0.1491482;0;
-19296.28;-14459.06;-18.38306;-24258.85;0.3271962;-10.54346;-20570.56;-10726.22;0.4344919;0.2408057;0;
5523.617;3384.458;-300.7539;4850.998;0.2604945;-10.06399;5845.432;1623.852;-0.2805854;0.2405638;0;
18701.06;13721.11;-265.8441;23185.34;6.824316;-14.87653;20257.76;11020.51;-0.5401729;0.1753547;0;
16054.86;11750.42;-23.54238;20781.63;10.83595;-16.3352;17491.63;9560.229;0.04507599;0.5649826;0;
16761.19;12425.5;17.69493;21191.69;-1.03031;-16.72069;18139.86;10142;-0.01993665;0.1746108;0;
18127.66;13364.83;45.91296;22927.42;-2.569516;-18.44538;19606.2;10794.65;0.1100181;0.1744354;0;
4340.957;2388.429;363.8632;5986.059;3.997149;-17.62305;4503.583;939.3572;0.1748749;0.2392274;0;
-18953.48;-14220.39;367.8392;-22540.31;3.858435;-17.94026;-20455.1;-11034.22;-0.4749743;-0.08584965;0;
-17330.51;-11816.13;38.50994;-22720.82;7.94137;-21.47227;-18932.43;-9319.479;0.1102091;0.1091387;0;
-17466.61;-11898.6;37.94026;-22538.4;9.473633;-21.51768;-18996.13;-8802.791;0.434935;-0.08587305;0;
-19677.46;-14527.5;-18.44454;-24638.47;7.655452;-23.63945;-20931.76;-10753.41;-0.1502081;-0.1507541;0;
4865.584;3108.579;-310.3105;4161.2;7.91618;-24.01759;5245.279;1408.33;-0.02012245;0.1742341;0;
18665.94;13679.78;-299.5665;23100.29;6.836499;-17.83115;20231.5;10958.13;-0.02010223;0.1090917;0;
16028.63;11699.9;-43.5815;20762.51;6.226417;-15.13398;17457.72;9521.944;-0.4098861;-0.4107567;0;
16587.16;12277;-6.119015;21020.03;2.401767;-13.77917;17972.67;9991.433;-0.3445069;-0.6702133;0;
18121.83;13341.02;10.87859;22915.86;-0.480058;-11.28702;19593.1;10765.81;-0.214226;-0.4096705;0;
4080.753;2292.033;328.9265;5732.196;2.399836;-7.256764;4243.137;865.809;0.04585858;-0.2793242;0;
-19287.78;-14453.13;320.6313;-22886.06;1.393047;-5.10608;-20770.76;-11258.28;0.3706492;-0.08414151;0;
-17429.09;-12005.94;4.530341;-22831.01;-1.823533;-0.1443339;-19019.62;-9424.009;0.1753747;0.2407798;0;
-17698.66;-12165.19;22.12632;-22774.14;-2.423938;3.673716;-19217.66;-8960.611;-0.1496382;0.1755705;0;
-19584.28;-14634.68;-46.62699;-24576.6;-6.909481;-4.97053;-20840.4;-10893.73;-0.01955313;-0.1494427;0;
5346.563;3313.476;-325.0808;4632.455;-8.041614;-6.171228;5697.303;1572.257;-0.2794029;-0.4741292;0;
18804.36;13824.38;-299.1889;23254.23;-6.828084;0.06426386;20358.96;11120.55;-0.01925274;0.04608594;0;
16218.55;11898.28;-56.85365;20944.74;-6.620153;0.5330798;17653.08;9706.252;0.3056033;0.500811;0;
16927.8;12616.19;6.905838;21349.21;-3.330971;0.3315954;18306.77;10335.02;-0.01954046;0.04553641;0;
18272.25;13487.41;63.83903;23073.48;-1.988454;0.1972963;19748.04;10913.87;0.04544651;-0.3443134;0;
4467.659;2491.878;379.6942;6153.113;4.310184;2.474457;4637.825;1047.141;0.1103682;-0.2790001;0;
-18490.53;-13874.56;361.1812;-22057.31;8.257968;2.538953;-19979.73;-10689.98;0.04528995;0.1110843;0;
-16372.96;-11310.97;34.52915;-21774.84;3.962763;1.732607;-17980.21;-8914.001;-0.1496576;0.4358094;0;
-16695.1;-11445.15;59.51313;-21811.19;4.695715;1.663883;-18251.05;-8506.183;0.1103622;0.2404695;0;
-19288.65;-14172.94;17.03715;-24231.86;9.044277;-3.629318;-20538.21;-10491.66;0.5000553;0.1102932;0;
5194.525;3342.675;-279.4247;4634.387;10.57543;-5.501132;5602.147;1612.283;-0.08515321;-0.2146544;0;
18849.47;13859.84;-290.4507;23340.08;7.484322;-7.036151;20416.8;11139.11;-0.2150023;-0.7991447;0;
16189.26;11876.84;-66.11528;20884.08;6.606146;-8.837621;17613.02;9698.196;0.3049524;-0.6684071;0;
16818.75;12503.15;-24.89766;21244.92;8.809335;-4.67586;18200.29;10216.39;-0.2150927;-0.1479967;0;
18274.58;13499.49;28.38184;23062.45;7.461312;-2.393803;19747.69;10925.17;-0.08494191;-0.2128154;0;
4450.626;2480.328;369.6974;6087.34;11.40593;-8.88862;4603.526;1034.845;0.8896535;-0.2775689;0;
-18609.76;-13934.01;361.8297;-22227.94;12.93471;-9.348508;-20127.12;-10806.62;0.4989556;-0.1473553;0;
-17025.23;-11562.82;30.77295;-22434.66;1.802303;-0.09571415;-18635.84;-9119.274;0.1736175;0.1126622;0;
-17457.71;-11872.93;43.57932;-22540.46;-0.6777541;1.578894;-18992.55;-8804.687;0.5632471;0.4373856;0;
-19166.62;-14251.45;-33.47263;-24127.81;1.601079;7.873581;-20403.59;-10597.09;0.04294243;0.4369462;0;
5548.665;3464.719;-328.0097;4904.537;0.2593232;11.48269;5955.839;1681.516;-0.3469048;0.1766378;0;
18765.13;13787.5;-285.9198;23234.28;2.335167;7.251286;20329.69;11089.36;0.1731825;-0.08340911;0;
16215.86;11908.16;-45.94053;20935.78;2.266448;9.119461;17640.12;9722.588;0.2379759;-0.408162;0;
16944.74;12629.92;-28.63741;21374.39;3.536969;0.9386238;18326.63;10344.78;0.04283473;-0.3427846;0;
18200.21;13430.28;22.0534;23001.34;3.466066;-2.143473;19671.02;10864.36;0.107759;0.04736394;0;
4481.578;2486.791;375.4786;6127.476;4.801754;3.953944;4636.316;1015.213;-0.02228393;0.04731635;0;
-18374.96;-13766.27;386.9547;-21974.71;5.19907;1.940544;-19886.6;-10642.5;0.1076731;-0.1476332;0;
-16603.12;-11374.31;67.71054;-21988.24;1.175358;8.167885;-18214.85;-8991.906;0.1075649;0.1123845;0;
-16908.07;-11508.82;75.52917;-21981.67;1.040456;9.566258;-18449.53;-8626.863;-0.1524125;-0.1475978;0;
-19014.67;-14008.56;33.69302;-23947.87;-6.462678;2.322673;-20275.86;-10468.62;-0.02232467;-0.5372535;0;
5399.232;3413.205;-257.7569;4783.86;-9.269224;1.784476;5773.865;1633.708;0.2375671;-0.1469097;0;
18814;13821.15;-277.972;23285.1;-4.90663;-4.111693;20371.33;11120.97;-0.1524756;0.5029114;0;
16176.25;11877.06;-36.92303;20897.01;-5.973426;-7.054689;17599.87;9691.663;-0.3472244;0.3724714;0;
16777.77;12460.75;0.6576932;21208.19;0.1281448;-5.507054;18155.6;10178.86;0.04292849;-0.4724783;0;
18278.3;13506.12;31.96942;23062.41;2.00305;-7.57793;19745.93;10929.55;0.3027547;-0.5369709;0;
4263.254;2378.136;371.1262;5883.092;0.5945179;-3.618445;4399.476;958.6359;0.1725158;0.6329808;0;
-18985.1;-14256.91;351.6847;-22619.15;2.00044;-2.543082;-20514.63;-11067.95;0.1073751;0.6973121;0;
-16916.32;-11598.99;10.33088;-22340.21;-2.488572;-6.827313;-18536.15;-9206.061;0.1072673;-0.342866;0;
-17239.46;-11797.65;23.17342;-22355.84;-3.424077;-6.686487;-18792.42;-8814.284;-0.02277521;-0.1476195;0;
-19344.63;-14418.43;-28.65195;-24292.34;-6.368373;-6.47888;-20600.25;-10739.99;-0.08771966;0.4372349;0;
5395.27;3365.566;-305.3903;4822.008;-10.04567;-6.47237;5792.275;1603.341;0.1072705;0.1119589;0;
18685.43;13705.25;-295.8381;23173.53;-2.131346;-5.595089;20246.39;10990.84;-0.412576;-0.2129903;0;
16052.72;11762.81;-68.03019;20746.61;-1.593341;-5.991364;17471.31;9584.105;-0.8019655;-0.2777437;0;
16810.95;12483.59;-41.2565;21232.12;-10.5677;-2.502293;18187.99;10194.66;-0.1514863;-0.1475299;0;
18060.41;13307.77;-4.545981;22843.07;-12.56681;-1.963915;19525.08;10737.35;0.3034373;0.3723571;0;
3890.592;2153.901;347.4379;5500.154;-13.15642;-3.770481;4029.835;712.1685;0.2381651;0.2420482;0;
-19375.61;-14453.9;344.7462;-23025.05;-14.28228;-3.565743;-20906.6;-11268.01;0.2379258;-0.2129664;0;
-17495.06;-11921.32;-4.174956;-22939.36;-16.94724;-8.652741;-19129.88;-9372.838;0.04278469;-0.01785036;0;
-17766.45;-12092.54;12.22725;-22881.04;-18.00194;-10.31856;-19333.24;-8984.251;-0.08719298;0.04713492;0;
-19691.71;-14636.46;-38.24405;-24662.05;-16.04147;-9.705345;-20958.08;-10981.71;-0.02213803;-0.2127818;0;
5189.532;3264.376;-325.2801;4528.632;-16.15907;-10.36542;5569.842;1493.679;-0.1520505;-0.2775353;0;
18711.33;13743.08;-295.2338;23163.57;-11.32006;-7.072904;20262.29;11039.89;-0.216865;-0.5371258;0;
16045.77;11728.34;-47.62395;20765.02;-9.433656;-4.319558;17465.22;9534.053;0.1081896;-0.2117494;0;
16689.61;12396.23;-1.458659;21111.47;-9.49055;-8.869996;18062.49;10107.41;-0.02185381;0.3082021;0;
18098.73;13320.33;51.40686;22893.32;-7.605979;-8.727118;19565.15;10750.18;-0.08679919;0.1779577;0;
4189.762;2329.042;390.0756;5837.959;-11.34938;3.338335;4332.219;854.3472;0.3680594;0.04784421;0;
-18822.34;-14077.57;381.9219;-22424.88;-11.33798;7.085903;-20364.46;-10946.96;0.04285288;0.3076655;0;
-16621.71;-11336.71;36.649;-22016.65;-11.66138;9.222176;-18268.71;-9040.58;-0.2170595;0.3723237;0;
-16581.3;-11148.33;43.17138;-21700.02;-12.92246;13.29875;-18168.04;-8435.093;-0.02193942;0.04711287;0;
-18591.49;-13741.39;-9.798521;-23528.25;-3.196582;8.730666;-19864.78;-10261.9;-0.2817867;-0.01790181;0;
5667.534;3545.817;-295.1921;5148.708;1.360981;8.922842;6073.874;1764.921;-0.1515689;-0.1478185;0;
18786.23;13821.07;-280.434;23297.74;-9.290306;12.73178;20348.27;11104.22;0.2383874;-0.342572;0;
16217.37;11920.07;-50.82999;20908.84;-9.280972;13.38882;17628.68;9733.821;-0.08668881;-0.2122931;0;
16786.56;12482.18;-12.43881;21223.68;-0.6314576;12.97347;18161.22;10193.24;-0.02163436;0.1777243;0;
18038.85;13262.93;23.6493;22818.92;0.7766725;13.56328;19499.8;10679.06;0.1732894;0.3074804;0;
4068.658;2224.656;331.9081;5627.87;9.41608;13.01379;4187.099;816.7224;-0.02178674;0.1772368;0;
-18812.24;-14070.58;323.8753;-22521.61;13.69353;12.73278;-20366.71;-10879.7;0.1081698;0.1120913;0;
-16318.38;-11240.79;10.44165;-21804.19;7.249406;16.47103;-17965.39;-8973.396;0.0430938;0.176946;0;
-16523.62;-11231.78;42.69619;-21702.64;6.371466;17.25827;-18117;-8496.318;-0.08688419;0.3067029;0;
-18860.81;-13927.66;0.4245174;-23869.27;11.12049;17.24093;-20112.93;-10434.33;0.3030072;0.1764601;0;
5545.637;3470.205;-306.9839;4920.724;10.84187;17.62538;5985.595;1657.515;0.4326374;0.04634805;0;
18716.71;13743.86;-303.7394;23180.33;8.084308;14.25865;20281.83;11040.07;0.3672353;-0.1486005;0;
16029.29;11742.98;-41.25349;20725.9;9.01419;11.96702;17442.27;9560.402;0.496801;-0.08348389;0;
16643.76;12331.22;-0.7323893;21061.8;-6.333838;13.69643;18021.09;10039.02;0.1064978;0.1764694;0;
18071.48;13312;18.47744;22852.73;-12.28834;11.87425;19537.19;10744.23;-0.08851126;0.04635736;0;
3996.354;2226.768;344.0764;5586.905;2.45976;9.852836;4140.854;770.3633;0.5612511;-0.0836239;0;
-19235.25;-14382.76;348.0098;-22928.1;2.591011;9.775952;-20764.76;-11233.19;0.3657851;0.04639481;0;
-16798.83;-11560.04;22.77657;-22277.45;4.397069;-3.161272;-18432.76;-9192.438;-0.2192885;-0.08358649;0;
-16876.8;-11456.81;30.98392;-22019.39;6.402382;-7.779795;-18464.01;-8619.282;0.1057686;-0.2134372;0;
-19156.77;-14149.45;-18.02259;-24059.29;2.912349;-0.5380045;-20386.37;-10627.5;0.1706296;-0.2132227;0;
5438.672;3425.89;-301.0029;4915.316;4.584362;-2.07801;5912.091;1641.222;-0.0894112;-0.08307379;0;
18781.45;13814.08;-301.0284;23265.2;-5.266858;3.349573;20351.75;11110.33;0.04061333;-0.01802298;0;
16149.71;11846.72;-66.39056;20852.24;-8.543119;5.4896;17557.6;9660.48;0.1705072;-0.2778742;0;
16832.77;12543.52;-13.78776;21270.79;0.7088655;-0.2763259;18214.26;10261.64;-0.1545008;-0.3425624;0;
18073.35;13290.83;25.37829;22862.04;1.578809;-0.476997;19532.63;10710.89;-0.08937825;-0.2122835;0;
4133.933;2262.637;342.8651;5724;-0.9683725;-0.4095348;4256.531;857.485;-0.0243211;-0.08213549;0;
-18406.77;-13722.07;349.3452;-22066.1;-1.16847;-0.07420862;-19957.75;-10525.84;-0.3491334;0.1128491;0;
-15963.35;-10969.8;32.54391;-21354.35;3.052263;-3.624168;-17605.73;-8733.896;-0.2188479;0.04776833;0;
-16152.21;-10938.3;39.33591;-21277.16;3.451337;-3.955441;-17751.21;-8252.498;-0.08869329;-0.1471817;0;
-18135.36;-13384.22;-2.651281;-23055.28;3.850011;-5.023133;-19406.17;-9915.194;-0.08860417;-0.01709912;0;
5945.967;3698.79;-268.921;5511.524;4.583076;-7.295444;6384.206;1884.764;0.1063869;0.1778201;0;
18736.78;13778.91;-253.0493;23276.69;-5.602934;6.175089;20308.02;11081.68;-0.3484914;0.2426088;0;
16194.1;11920.31;-30.90655;20876.23;-10.01793;9.384005;17608.5;9742.373;-0.7379453;0.04746295;0;
16804.49;12488.3;-4.373188;21243.23;-5.453516;3.078363;18182.66;10203.99;-0.08753038;-0.1474868;0;
18154.23;13400.73;39.93706;22932.4;-6.920929;3.879004;19619.35;10835.08;0.562231;-0.08237123;0;
4045.2;2205.351;357.0656;5634.843;-10.1965;-2.421107;4203.779;774.9979;0.4317314;0.04764622;0;
-19298.71;-14502.81;332.2972;-22963.04;-9.382952;-5.365862;-20813.22;-11303.79;-0.1534085;0.1125657;0;
-16722.78;-11522.78;13.37349;-22198.93;-18.61692;-1.877419;-18364.96;-9224.922;0.04164766;0.04748524;0;
-16552.52;-11185.71;58.79034;-21740.07;-20.74167;-2.27743;-18155.21;-8490.518;0.3014752;-0.01752981;0;
-18983.25;-13949.23;35.57104;-23965.61;-12.68288;-8.303483;-20226.25;-10471.39;-0.1535991;0.04745514;0;
5305.437;3349.959;-245.5109;4715.865;-13.74186;-10.37155;5771.112;1567.302;-0.2184121;0.1123748;0;
18566.5;13593.22;-244.2491;23036.38;5.09354;-6.141326;20135.28;10883.17;-0.28316;-0.08264014;0;
15883.65;11603.26;-19.83514;20577.95;13.32744;-6.537053;17289.78;9426.163;-0.5427449;-0.2774591;0;
16523.71;12219.15;3.797923;20950.27;-7.316202;-2.913467;17907.18;9936.806;-0.08742812;-0.08227831;0;
17883.18;13129.58;31.63949;22642.08;-8.514299;-0.9680952;19339.47;10551.69;0.3674311;-0.147163;0;
3495.962;1844.05;341.4988;5027.75;-6.898154;-4.918993;3623.696;455.1773;-0.02274213;0.04788692;0;
-19883.36;-14899.87;312.5763;-23583.72;-10.4412;-3.842385;-21413.27;-11672.25;-0.4774907;0.3726755;0;
-17387.29;-11915.02;-21.58562;-22832.23;-2.527451;-6.383814;-19014.53;-9504.665;-0.2821089;0.1124317;0;
-17252.19;-11654.72;-2.495387;-22402.57;-2.189142;-6.176451;-18823.35;-8680.087;-0.1518907;0.1123187;0;
-19050.66;-14191.18;-37.81887;-24019.25;-8.148789;-6.371194;-20319.14;-10551.06;-0.2816728;0.1771732;0;
5615.737;3475.614;-305.7087;5059.308;-9.078607;-8.17327;6013.688;1704.199;-0.2164224;0.1769952;0;
18662.81;13715.27;-294.8287;23169.07;-12.28467;7.106685;20223.89;11014.63;-0.2811723;0.11185;0;
15988.99;11700.09;-59.99411;20684.75;-14.14736;12.05622;17402.01;9519.063;-0.2159224;-0.08316444;0;
16643.01;12342.44;-9.818389;21075.83;-12.5929;3.068576;18018.3;10066.17;-0.1507381;-0.1480482;0;
17950.04;13196.01;49.94269;22721.41;-12.91504;4.338107;19405.39;10616.62;-0.5403907;-0.2778341;0;
3744.216;1989.783;387.7539;5286.944;-14.91179;1.185611;3851.859;617.9088;-0.6048151;-0.1476203;0;
-19379.36;-14561.37;370.1074;-23073.3;-15.56639;-0.6910409;-20922.19;-11309.28;-0.08446861;-0.01753727;0;
-16631.67;-11487.52;30.26549;-22089.6;-12.40195;3.998337;-18266.24;-9228.456;-0.01941639;-0.1474543;0;
-16661.24;-11305.82;46.28951;-21829.92;-11.65353;2.788687;-18255.99;-8583.534;-0.1493316;0.04759585;0;
-19143.37;-14071.08;-4.465889;-24088.3;-12.77992;7.407586;-20388.48;-10555.21;-0.3440835;0.1125154;0;
5294.573;3397.383;-299.6411;4788.897;-12.7007;9.677501;5747.546;1608.614;-0.4736725;0.04743497;0;
18652.71;13688.19;-292.4373;23163;-12.82166;-1.31718;20222.27;10984.25;-0.01842515;0.177322;0;
15975.68;11690.02;-55.40307;20659.94;-13.21092;-3.2583;17381.17;9513.825;-0.1483413;0.2421112;0;
16511.88;12210.34;-14.99269;20952.95;-9.915116;-1.580514;17892.25;9932.956;-0.473029;0.1119332;0;
17821.04;13065.69;28.18818;22579.05;-6.757322;-3.52137;19272.3;10480.32;0.1121524;0.04685339;0;
3429.282;1805.001;353.7774;4952.135;-19.27549;1.505766;3521.566;468.2699;0.2419744;0.1117737;0;
-19760.88;-14762.89;351.0794;-23446.66;-21.86906;1.571236;-21313.49;-11490.5;0.4366333;0.1116614;0;
-17122.59;-11702.82;21.1579;-22569.52;-9.187436;0.7659233;-18751.2;-9366.112;0.7610312;0.0465818;0;
-17243.51;-11670.86;11.3603;-22394.34;-8.776063;1.16699;-18828.15;-8742.479;0.1105932;0.1764697;0;
-19272.06;-14238.69;-49.66731;-24221.33;0.6772263;-4.594532;-20514.77;-10622.84;-0.08442;0.4361618;0;
5391.809;3433.506;-309.3931;4820.752;5.298246;-6.733369;5840.83;1633.633;0.1105669;0.3707561;0;
18576.36;13622.82;-279.1754;23055.51;-3.348242;-5.855825;20143.64;10930.41;0.04548842;-0.1493551;0;
16010.86;11718.74;-55.52275;20704.98;-1.871009;-6.318821;17414;9538.67;0.1753774;-0.1492051;0;
16696.54;12397.01;-13.44121;21133.59;-8.031071;-11.47004;18077.44;10120.13;0.04526649;0.2407489;0;
17964.59;13215.12;56.42781;22730.53;-8.893657;-12.79811;19412.24;10633.03;-0.2796157;0.1105723;0;
3565.253;1871.568;386.2053;5096.1;-7.34448;-8.498464;3653.111;544.3317;-0.08443272;0.3053632;0;
-19717.22;-14803.53;352.4278;-23400.93;-7.872963;-6.882334;-21271.69;-11459.42;0.0455868;0.8897625;0;
-17081.32;-11741.03;14.47774;-22514.13;0.5750412;-6.004701;-18714.48;-9384.002;0.1105083;0.3691297;0;
-17231.34;-11740.13;31.59521;-22362.42;1.779912;-4.324094;-18811.01;-8861.768;0.630136;-0.4108493;0;
-19689.39;-14539.48;-34.27845;-24666.5;13.76721;0.7708315;-20997.26;-10857.08;0.4346008;-0.2155344;0;
5029.684;3231.373;-321.9275;4410.415;19.38044;2.511552;5369.872;1516.589;0.1742948;0.2394535;0;
18557.34;13598.35;-296.2418;23045.74;8.040481;6.594865;20108.74;10886.82;0.4989564;0.1742456;0;
15829.11;11537.39;-61.93676;20532.9;7.430165;8.396778;17244.63;9359.615;0.2385856;0.2390378;0;
16535.99;12240.12;-28.07901;20974.6;5.681387;4.369426;17910.38;9971.398;-0.2813928;0.3687323;0;
17891.89;13141.1;14.84952;22648.5;3.331153;4.164087;19341.93;10550.41;-0.4110447;0.04352511;0;
3423.099;1763.234;351.0094;4891.778;0.5811401;-2.203293;3493.665;464.2805;0.109107;-0.02148596;0;
-19693.05;-14701.17;354.7484;-23389.25;-1.629271;-4.344472;-21257.97;-11379.16;0.3688667;0.238405;0;
-17400.66;-11804.05;43.2202;-22791.48;-2.834058;-6.483561;-19026.63;-9376.3;0.1735941;0.04326342;0;
-17948.76;-12272.65;57.70072;-23070.16;-4.572523;-8.821387;-19516.91;-9161.842;0.4982564;-0.2166494;0;
-19824.7;-14766.87;-26.59617;-24799.52;0.1874938;-4.056857;-21080.66;-11036.49;0.1079516;-0.2813991;0;
5156.692;3283.542;-322.9517;4533.887;1.12531;-4.387635;5554.538;1500.308;-0.2169935;-0.3460837;0;
18448.23;13499.17;-301.9501;22924.71;1.59367;2.44885;20006.02;10802.51;-0.08684082;-0.2807686;0;
15859.3;11569.05;-63.4227;20564.29;2.462725;5.527544;17270.48;9389.193;-0.5415249;-0.1505518;0;
16589.13;12291.43;-22.33272;21028.37;5.608082;1.302126;17968.63;10018.56;-0.1511768;-0.02046581;0;
17852.68;13109.51;20.71497;22609.21;9.085072;2.908408;19301.52;10522.38;-0.02109019;0.1094894;0;
3234.204;1597.367;368.7224;4717.959;-4.92288;-3.591737;3315.512;314.3063;-0.1510037;0.3042815;0;
-20191.6;-15164.38;370.6944;-23868.04;-9.271214;-6.40135;-21741.45;-11785.52;0.1739848;0.04410633;0;
-17830.05;-12120.65;23.96479;-23202.52;6.746657;0.9060994;-19446.85;-9645.608;-0.1510268;-0.345742;0;
-18036.38;-12272.6;38.32411;-23128.29;8.48119;0.9721108;-19596.04;-9169.807;0.04402701;0.1743441;0;
-19848.26;-14775.79;-1.132085;-24822.19;5.659629;0.6362804;-21138.55;-11061.12;0.6286889;0.04423424;0;
5070.12;3223.628;-288.8613;4421.781;7.730047;2.176188;5414.856;1458.97;0.3032204;-0.4755489;0;
18413.19;13455.65;-287.634;22886.45;-0.449394;-4.658075;19963.4;10757.78;-0.0868883;-0.4101038;0;
15780.61;11501.42;-59.3034;20485.46;-3.060911;-6.327968;17195.77;9322.08;-0.1517683;-0.5396264;0;
16458.95;12146.44;-24.97979;20898.89;4.912768;0.3095786;17835.77;9874.228;-0.1516158;-0.7989535;0;
17752.57;13033.47;13.729;22502.54;5.376346;1.179985;19198.4;10440.47;0.1084059;-0.668216;0;
2848.465;1415.658;343.7524;4304.646;4.231868;0.5090306;2925.28;181.9737;0.498101;-0.2777406;0;
-20885.34;-15677.41;326.9309;-24602.92;5.768833;1.111305;-22434.24;-12215.24;0.3676658;-0.01759213;0;
-18506.09;-12655.63;-5.558732;-23935;-0.1314615;2.516829;-20122.01;-9997.609;-0.1524424;0.2422949;0;
-18995.27;-13096.35;1.271549;-24106.89;-0.8009147;3.585967;-20535.55;-9687.293;-0.2822239;0.2420515;0;
-20929.03;-15731.53;-80.2981;-25928.69;2.749863;2.376731;-22199.04;-11750.77;-0.08703825;0.04690621;0;
4644.373;2926.908;-359.7956;3925.34;2.412308;3.44607;4987.546;1281.074;-0.3468201;0.1118264;0;
18337.99;13387.94;-318.892;22787.19;9.30876;0.6963685;19888.29;10682.03;-0.6713084;-0.01822062;0;
15650.83;11347.26;-65.49565;20347.48;11.04072;0.2267882;17063.73;9157.308;-0.1508951;0.04676503;0;
16423.41;12129.15;-21.45195;20848.98;10.96228;5.384124;17798.59;9866.089;0.1740932;0.3715548;0;
17697.9;12954.96;21.31375;22426.66;13.02834;6.249431;19136.94;10348.76;0.2388856;0.3062141;0;
2744.625;1235.732;363.714;4114.882;4.374086;9.123357;2789.732;34.95827;0.04374357;-0.08389767;0;
-20960.34;-15827.98;343.2024;-24735.42;2.226238;9.984968;-22531.88;-12347.99;-0.3461044;-0.3436827;0;
-18542.63;-12718.87;4.40265;-23940.43;4.166384;10.64476;-20158.85;-10115.16;0.1739821;-0.2783701;0;
-18831.11;-12942.03;20.39019;-23909.69;2.555583;10.70105;-20368.34;-9599.479;0.2387746;0.2416484;0;
-20513.24;-15385.99;-48.89236;-25472.91;4.159629;6.939315;-21767.02;-11534.11;-0.2162367;0.4363076;0;
4920.209;3133.447;-313.835;4265.218;3.888006;5.458779;5282.42;1381.309;-0.1510521;0.3709019;0;
18409.2;13462.92;-259.5781;22878.54;2.276509;1.099465;19960.96;10770.37;-0.3458024;0.1756272;0;
15760.75;11457.36;-14.54964;20466.51;0.5329095;-0.7101182;17174.05;9271.893;-0.1505529;-0.2143534;0;
16523.91;12230.7;-2.275556;20959.12;5.75631;-5.465071;17897.33;9962.396;0.04450043;-0.2791053;0;
17831.33;13087.2;26.35297;22588.48;7.090673;-7.870904;19276.64;10490.24;-0.2154136;-0.08392286;0;
2943.149;1454.745;367.6705;4437.146;-1.958781;-2.839397;3024.416;216.6864;0.1096395;-0.2137732;0;
-20677.56;-15557.85;332.8497;-24371.93;-3.02854;-2.635596;-22226.9;-12091.49;0.239464;-0.2135584;0;
-18151.42;-12463.27;-17.93363;-23572.69;-7.178683;1.92177;-19775.15;-9881.206;-0.02064595;0.4363296;0;
-18247.78;-12451.68;6.447143;-23355.55;-9.649716;3.929266;-19803.24;-9230.396;-0.08559255;0.3709238;0;
-19774.57;-14821.8;-51.04606;-24763.49;-3.544451;5.465925;-21059.93;-11062.04;-0.1504739;0.1106817;0;
5344.134;3326.024;-325.8878;4677.966;-2.737582;7.536843;5683.563;1569.762;-0.2802574;0.5653419;0;
18448.42;13502.61;-290.0938;22922.89;-1.930548;4.716048;19997.86;10808.99;0.239763;0.3698719;0;
15779.91;11489.32;-43.8791;20473;-1.862236;5.783036;17193.62;9299.839;0.3694567;-0.2801732;0;
16577.21;12277.48;-13.19416;21000.4;7.517734;-1.590775;17951.57;10012.41;-0.02071855;-0.4747937;0;
17857.24;13112.84;9.573286;22599.89;12.33295;-4.737253;19303.44;10507.52;0.1742043;-0.4093493;0;
3288.532;1612.736;341.5999;4702.542;-1.812962;4.376942;3348.915;393.5092;0.3039639;-0.01913396;0;
-20011.28;-15046.11;334.5725;-23776.9;-3.41873;4.908408;-21584.29;-11602.64;0.1087565;0.11082;0;
-17610.32;-12001.88;-5.967664;-23030.31;-0.3338363;5.305373;-19239.96;-9590.719;0.2385819;-0.1491608;0;
-17770.99;-12052;3.268068;-22921.85;-2.410582;7.108521;-19332.01;-8970.358;0.1084075;0.04589114;0;
-19497.66;-14459.58;-51.67635;-24469.55;3.553687;3.015541;-20749.82;-10727.83;-0.1515708;0.1757797;0;
5340.312;3429.717;-333.4671;4801.246;4.08598;2.744579;5733.686;1647.826;-0.2813532;-0.01929894;0;
18518.55;13575.95;-316.6091;23027.38;2.474284;3.88047;20075.93;10884.37;-0.3460378;-0.1492142;0;
15815.4;11512.18;-65.35462;20498.35;3.007661;3.206803;17225.06;9326.711;0.1740486;0.2407398;0;
16517.95;12234.29;-5.334713;20952.73;-0.07681967;5.079041;17893.44;9965.842;0.3038084;0.6303019;0;
17941.99;13177.83;56.6395;22685.95;0.05697937;4.87299;19390.71;10584.39;-0.08630092;-0.02000484;0;
3515.404;1771.475;404.4077;4973.627;-1.951834;3.260564;3589.018;508.0616;-0.08621421;-0.4097888;0;
-19670.71;-14811.17;384.5268;-23394.08;-1.347636;2.386509;-21234.05;-11421.55;0.0438071;-0.1495077;0;
-17240.42;-11809.75;30.6931;-22662.2;-2.886523;1.647299;-18868.63;-9472.513;-0.346041;0.04554458;0;
-17568.85;-11961.89;34.20736;-22724.13;-4.089072;1.444695;-19138.16;-9005.303;-0.5405953;0.5002702;0;
-19237.78;-14363.14;-26.45279;-24199.7;10.316;-3.71432;-20482.08;-10669.79;0.1096213;0.4348002;0;
5642.472;3520.964;-312.017;5118.856;14.45785;-5.519066;6056.145;1751.429;0.6942173;0.174494;0;
18569.82;13621.66;-292.4319;23087.38;10.89334;-2.49935;20128.73;10921.29;0.368683;0.1093513;0;
15876.27;11595;-60.75443;20561.85;12.02147;-2.429856;17287.66;9414.229;0.04347583;-0.4754647;0;
16683.57;12389.9;-26.08577;21109.51;14.75606;-2.293448;18060.2;10116.91;-0.1514699;-0.4100196;0;
17993.18;13237.92;29.94354;22751.57;16.54892;-2.425109;19444.1;10645.94;-0.1513177;-0.01980356;0;
3586.781;1859.41;371.523;5084.205;5.681301;1.931096;3679.135;557.1084;0.1736711;-0.3446204;0;
-19305.43;-14461.35;374.1013;-23042.44;2.661482;3.536685;-20857.54;-11146.63;0.3034312;-0.08440472;0;
-16854.27;-11583.01;66.56731;-22294.57;3.998955;1.188789;-18486.28;-9213.272;-0.02171035;0.3704515;0;
-17282.83;-11784.68;87.78661;-22421.67;0.7124066;2.259322;-18864.57;-8825.83;0.04327881;-0.0197248;0;
-18891.5;-14018.9;27.86909;-23895.46;7.677916;-0.5561704;-20152.69;-10479.31;0.368072;-0.01970498;0;
5737.031;3588.03;-258.5618;5145.892;7.73755;-0.4216457;6143.459;1742.453;0.04286548;0.2401842;0;
18471.58;13523.58;-242.966;22973.74;8.064568;-0.4882049;20029.69;10845.61;-0.08711228;0.3698775;0;
15801.09;11526.6;-10.66661;20495.56;10.80215;-1.090561;17209.94;9339.761;-0.0220574;0.04466916;0;
16573.52;12272.23;8.225241;21009.5;-2.202168;7.015287;17950.35;10005.27;-0.2819046;-0.3451798;0;
17966.02;13222.37;39.73238;22718.44;-4.143314;9.486546;19413.87;10628.87;-0.08671933;0.04497112;0;
3641.702;1888.636;379.0844;5127.661;0.08138349;10.14684;3714.973;628.116;0.1082698;0.3697627;0;
-19356.65;-14524.83;369.8798;-23052.7;-0.7229815;12.74886;-20920;-11135.57;-0.2166757;-0.215315;0;
-16823.73;-11502.82;28.89807;-22222.12;6.042899;11.4635;-18450.21;-9232.896;-0.1514906;-0.3450333;0;
-16882.99;-11386.39;46.46956;-22036.31;7.175903;13.12643;-18484.26;-8598.885;-0.0214037;-0.01984991;0;
-18554.61;-13689.46;-0.4910489;-23434.81;15.40674;11.50577;-19832.58;-10185.13;-0.2812515;0.04513738;0;
5859.362;3759.156;-296.3887;5501.296;20.48245;11.56119;6283.813;1919.383;-0.670773;-0.01987532;0;
18660.44;13721.96;-283.5815;23228.14;8.204358;14.63067;20225.02;11040.17;-0.5401644;0.045112;0;
15948.64;11661.67;-45.54111;20631.79;7.124387;14.01312;17353.24;9481.538;-0.2797522;0.110034;0;
16738.4;12451.08;-20.07063;21186.6;10.39878;21.9029;18113.58;10180.01;-0.4094058;0.0449561;0;
18016.33;13260.03;28.79998;22781.61;9.786098;24.02423;19465.55;10674.63;-0.01919037;0.1098783;0;
3708.633;1951.825;372.9886;5219.285;6.694805;18.50761;3790.989;639.7354;0.3056656;0.4346046;0;
-18723.73;-13923.5;375.425;-22440.68;3.540246;18.48901;-20295.68;-10615.78;0.04548912;0.2392659;0;
-16317.63;-11129.13;59.06593;-21722.02;16.59751;13.78175;-17962.03;-8803.583;-0.01952393;-0.08581126;0;
-16862.87;-11452.2;70.85999;-22001.77;21.00146;12.16031;-18461.14;-8612.017;-0.08447165;-0.08572504;0;
-18270.23;-13525.67;21.26681;-23201.57;1.891319;9.00002;-19518.65;-10100.06;0.1754826;-0.0856389;0;
6124.846;3854.063;-257.5363;5704.525;-2.59856;5.84284;6577.794;1975.505;0.305241;0.04438183;0;
18589.55;13643.39;-245.6271;23129.83;9.72891;13.87474;20156.75;10973;0.04506488;0.1093046;0;
15873.54;11609.54;-13.18454;20537.68;9.450715;14.93252;17271.23;9421.261;-0.2798171;0.0442274;0;
16625.33;12320.58;2.352154;21063.34;10.31188;12.50613;18002.59;10052.94;-0.6043727;0.04418296;0;
17997.61;13261.42;36.20777;22739.78;13.91884;13.29736;19437.66;10664.64;0.2408101;-0.2806982;0;
3691.865;1931.331;373.0333;5150.383;-0.8309064;13.48495;3727.692;683.1351;0.8252742;-0.08551407;0;
-18918.51;-14188.41;372.5335;-22710.46;-2.437662;15.01201;-20536.48;-10779.18;0.2397389;0.4992779;0;
-16170.34;-11118.63;54.16282;-21678.35;2.588629;11.58092;-17818.92;-8916.593;0.1745306;0.1089722;0;
-16740.38;-11390.85;41.25548;-21954.28;-0.02691605;11.97118;-18330.83;-8666.567;0.3042899;-0.3459087;0;
-18798.52;-13871.43;-36.40321;-23763.58;20.67072;13.29869;-20095.59;-10284.43;-0.1507872;-0.1506591;0;
5702.724;3617.052;-307.0431;5271.621;25.74016;12.74946;6085.292;1856.757;-0.5404397;-0.3454097;0;
18531.21;13585.69;-271.5335;23094.04;20.42301;22.31496;20089.06;10885.12;-0.08512532;-0.3450627;0;
15802.07;11533.9;-16.37315;20475.01;23.95246;24.30203;17208.04;9356.646;0.5646336;0.2399901;0;
16635.65;12333.34;20.64033;21071.28;6.848114;23.87571;18011.4;10065.48;0.3041969;0.3696837;0;
17919.24;13189.59;54.74306;22670.36;1.281527;24.92345;19364.01;10587.94;-0.02094545;-0.2153939;0;
3634.417;1834.619;387.0679;5072.319;4.562769;18.60213;3671.928;616.511;-0.1508591;-0.3451121;0;
-18994.8;-14219;377.6522;-22778.2;-1.067894;16.44011;-20609.36;-10802.15;-0.3456095;-0.2148307;0;
-17113.84;-11607.35;30.77504;-22497.49;7.774438;12.0697;-18742.7;-9149.325;-0.1503602;-0.2795821;0;
-17832.9;-12169.75;26.996;-22921.82;9.91008;9.043462;-19383.43;-9057.47;0.4994643;0.1754702;0;
-18780.3;-14063.77;-13.38584;-23711.55;-5.104054;5.685289;-20056.15;-10449.82;0.4989624;0.1752939;0;
6050.251;3799.623;-279.6292;5626.12;-5.969582;3.00032;6430.139;1955.043;-0.08624503;0.1751177;0;
18605.59;13677.81;-252.6429;23170.02;-5.762513;4.604896;20163.96;11010.43;0.368613;0.4997785;0;
15954.72;11684.54;-10.08894;20630.75;-6.694728;3.729491;17363.44;9494.688;0.7580466;-0.02046243;0;
16746.49;12448.91;15.54894;21190.25;4.497783;9.285205;18119.09;10182.36;0.1725789;-0.2803112;0;
18070.69;13335.62;69.74045;22829.29;7.106208;11.8211;19520.68;10747.23;-0.1524312;-0.2150622;0;
3706.007;1939.007;407.1882;5197.642;14.13167;9.063048;3795.432;641.2083;-0.152278;-0.3447808;0;
-19294.48;-14444.86;366.7679;-23027.94;18.47172;10.12567;-20849.95;-11126.91;-0.2820597;-0.2144997;0;
-16994.31;-11596.77;30.00599;-22436.56;12.08917;10.78532;-18627.71;-9252.184;-0.1518416;-0.4091862;0;
-17555.96;-11968.76;54.54162;-22709.91;11.14;10.7075;-19131.73;-8989.827;0.1081803;-0.4087751;0;
-19370.93;-14305.16;-2.999914;-24320.93;10.92773;13.24197;-20626.55;-10690.29;0.4329083;0.1113744;0;
5461.238;3520.404;-285.3862;4975;8.773298;14.36738;5872.901;1729.538;0.172604;0.3061646;0;
18546.78;13592.94;-273.8551;23067;2.937334;10.33409;20106.29;10902.64;-0.08743881;0.3058569;0;
15790.35;11523.07;-53.42496;20456.09;0.7909288;10.59164;17192.36;9341.201;-0.02238362;0.1106476;0;
16599.36;12303.39;-21.85588;21026.88;-10.99886;10.44703;17975.12;10037.52;-0.1522958;-0.08436565;0;
17919.36;13197.74;33.31024;22652.91;-17.82031;11.17334;19357.03;10588.61;-0.0222081;-0.01931354;0;
3254.807;1583.046;383.1165;4674.671;-1.993947;13.5064;3300.575;413.3588;0.3676183;-0.08426148;0;
-19605.77;-14721.57;375.7039;-23410.88;0.08416104;14.56455;-21208.13;-11247.98;0.3672489;0.1107252;0;
-17476.16;-11905;29.43773;-22928.63;-5.609351;21.71697;-19116.97;-9369.16;0.1719778;0.1755813;0;
-18426.94;-12703.66;29.14266;-23575.77;-3.661331;23.97244;-19983.11;-9406.972;0.1068377;-0.08446449;0;
-19560.04;-14695.11;-38.74314;-24605.68;-6.940182;27.43135;-20860.78;-10945.2;0.04176301;-0.08437962;0;
5678.425;3592.85;-335.4145;5066.141;-7.469072;29.27931;6010.917;1783.488;-0.2181483;-0.0193275;0;
18398.7;13464.89;-302.0159;22909.92;1.24597;25.43198;19946.57;10796.92;-0.0230271;-0.1492428;0;
15657.42;11388.06;-38.73526;20345.74;4.527248;24.26772;17068.17;9195.662;-0.02300396;0.04580922;0;
16513.58;12216.89;4.797425;20941.74;0.30314;18.75085;17884.66;9953.084;-0.08794819;0.1756979;0;
17824.7;13097.94;63.95037;22569.65;1.843077;15.11506;19272.5;10502.71;-0.02289248;0.04558665;0;
3198.284;1591.904;398.4055;4646.047;1.439083;12.28659;3266.438;353.0012;-0.3477062;0.2404429;0;
-19868.6;-14851.53;364.9436;-23618.87;0.1648396;9.528063;-21442.71;-11424.56;0.2373493;0.1752339;0;
-17455.73;-11856.94;30.46363;-22897.35;14.02977;3.155233;-19096.78;-9403.964;0.6918822;0.2400252;0;
-17965.68;-12229.46;48.36151;-23129.49;18.63835;-0.7328256;-19547.61;-9146.952;-0.0234538;0.1748167;0;
-19568.64;-14522.05;-5.144586;-24541.13;6.161045;6.099987;-20830.14;-10862.66;-0.2183323;-0.1501957;0;
5424.549;3489.968;-283.5776;4892.393;4.747358;6.294806;5830.806;1701.086;0.1716912;-0.08507743;0;
18479.92;13531.82;-268.3158;22994.92;9.164194;4.480003;20036.51;10848.22;0.1715187;-0.08499194;0;
15659.33;11383.92;-36.38139;20345.21;8.551773;3.805672;17057.74;9199.295;-0.02355571;-0.08490654;0;
16394.78;12106.14;-8.171494;20824.1;6.734519;7.887685;17768.76;9838.694;-0.08849938;-0.1497886;0;
17766.23;13037.91;30.98891;22500.57;5.522304;9.822265;19204.25;10438.74;0.3013936;-0.01970338;0;
3109.066;1540.958;362.5255;4542.166;6.923275;-0.03391293;3159.217;314.1435;0.6259274;0.5000552;0;
-19843.13;-14874.43;351.4635;-23626.49;7.384832;-0.904596;-21435.22;-11458.29;0.3004618;0.1097487;0;
-17540.61;-12025.44;27.89778;-22992.67;4.02851;-3.315012;-19185.21;-9462.708;-0.1546115;-0.02029631;0;
-18235.72;-12542.88;31.27429;-23392.68;4.091811;-4.852288;-19811.09;-9266.059;-0.2843908;0.3045608;0;
-19339.14;-14519.83;-40.54918;-24350.1;2.279038;1.984725;-20651.5;-10818.01;-0.2191377;-0.02058194;0;
5798.835;3650.035;-314.402;5245.438;0.4680867;3.523277;6128.296;1841.408;-0.3488522;0.04440608;0;
18484.29;13547.19;-284.9133;23015.83;13.32834;8.543334;20030.74;10878.42;-0.218567;0.3691982;0;
15715.33;11451.14;-47.60549;20402.31;18.27144;11.0801;17124.72;9260.204;0.04152199;-0.02097685;0;
16513.97;12216.93;-18.65031;20950.73;6.129292;15.89162;17884.64;9953.608;-0.2833564;-0.4107598;0;
17797.68;13073.22;10.2133;22543.02;5.453548;19.15769;19238.17;10473.22;-0.3480391;-0.2804124;0;
2957.84;1509.854;331.807;4405.65;13.3523;12.7082;3013.778;293.6006;0.1720494;0.1096734;0;
-19923.82;-14859.54;331.13;-23680.75;14.54433;11.82465;-21505.02;-11408;-0.08799285;0.04459586;0;
-17008.54;-11744.84;29.01151;-22449.72;13.99385;10.2053;-18646.48;-9309.274;-0.1528718;-0.02041629;0;
-17488.84;-11967.91;50.39347;-22620.08;13.57765;7.917631;-19058.78;-8974.459;0.1721185;0.1095389;0;
-19052.77;-14092.79;-13.82804;-23954.89;14.90318;7.842692;-20337.52;-10560.39;0.0420109;0.0444615;0;
5838.486;3774.456;-296.6095;5403.042;13.21424;7.299009;6200.492;1933.666;-0.02299865;0.1093842;0;
18573.4;13638.75;-281.85;23126.03;16.14772;3.004828;20126.85;10973.46;-0.2178776;0.04430692;0;
15794.05;11518.65;-44.68584;20474.91;17.73909;2.064109;17202.65;9331.706;-0.2176586;-0.02070495;0;
16568.02;12285.58;-6.035349;21005.26;1.176846;4.406377;17937.36;10023.15;0.3672661;0.3691199;0;
17848.12;13101.6;51.72293;22602.47;-1.436305;3.330222;19297.15;10515.92;0.4968318;0.2388143;0;
3452.182;1754.332;395.217;4923.009;-3.712038;15.38356;3516.913;441.3951;0.3663979;-0.1512297;0;
-19094.92;-14217.62;369.8012;-22842.67;-7.526701;19.85584;-20674.04;-10982.92;0.1061604;-0.3459798;0;
-16772.99;-11378.93;55.25946;-22189.57;10.23073;9.654724;-18404.38;-9067.196;-0.1538157;-0.4105994;0;
-17470.49;-11881.34;84.5017;-22622.64;14.70843;9.511057;-19064.53;-8897.588;-0.1536611;0.04458451;0;
-18580.64;-13858.83;6.924498;-23527.63;15.8991;10.37228;-19836.03;-10359.16;-0.2834414;0.1744744;0;
6105.32;3834.523;-276.7368;5695.697;20.70589;9.892976;6557.336;1953.113;-0.6079933;-0.3454396;0;
18416.45;13479.15;-254.4385;22981.83;17.67098;8.007513;19982.45;10817.87;-0.7373171;-0.5399945;0;
15682.79;11434.42;-29.60823;20347;17.98801;6.659869;17078.09;9250.685;-0.4767069;-0.01971325;0;
16502.63;12197.96;-3.560307;20946.67;22.92741;7.791826;17883.98;9930.418;0.04351088;0.1752086;0;
17707.65;12991.38;33.39345;22446.15;23.77503;5.841553;19144.35;10407.27;0.1084345;-0.1498042;0;
2906.071;1466.833;359.977;4355.712;16.04798;14.34233;2969.019;192.539;0.2382602;-0.214621;0;
-19926.83;-14837.4;344.4198;-23671.48;13.82105;17.40901;-21496.48;-11475.54;0.4978902;-0.2793727;0;
-16922.12;-11668.86;19.33068;-22344.37;11.86478;4.330216;-18554.57;-9304.719;0.3024879;-0.2141246;0;
-17340.3;-11809.57;33.30423;-22446.65;9.374612;2.85224;-18913.42;-8900.865;0.04231457;-0.01900745;0;
-19141.09;-14096.08;-27.76106;-24063.15;10.97278;2.04564;-20434.13;-10552.12;-0.08766263;-0.343825;0;
5639.402;3641.549;-310.388;5140.175;10.42589;-0.7696373;5997.613;1852.521;-0.2824766;-0.01864287;0;
18573.26;13637.94;-298.3008;23098.84;8.807828;8.206605;20123.11;10967.01;-0.3471601;0.3711799;0;
15817.74;11537.24;-60.44855;20510.12;6.990316;10.27483;17223.9;9351.051;-0.08694188;-0.08396444;0;
16534.82;12264.81;-10.80336;20977.14;16.49511;7.38424;17902.2;10004.04;-0.02188718;0.1759893;0;
17920.54;13160.61;51.91035;22677.48;19.89479;9.788205;19364.49;10567.14;0.1730368;0.3707145;0;
3368.178;1729.777;392.9367;4836.871;9.157531;6.898165;3428.459;424.8006;0.562667;-0.4092661;0;
-19167.93;-14270.25;372.4583;-22912.71;9.483122;7.694968;-20746.6;-11033.52;0.1722976;-0.2139529;0;
-16304.64;-11142.3;47.341;-21709.55;5.120312;12.4429;-17947.84;-8916.683;-0.2176796;0.3709682;0;
-16942.46;-11520.75;64.22243;-22093.58;2.43585;13.10023;-18566.06;-8687.225;0.1073759;0.3056281;0;
-18306.79;-13602.25;2.798112;-23199.46;11.94425;21.19188;-19566.87;-10189.05;0.1722353;-0.0195157;0;
6324.231;4007.072;-266.5381;6006.938;11.73117;23.64883;6793.15;2099.533;-0.08780713;-0.2143981;0;
18557.1;13628.16;-244.2657;23138.32;20.36055;22.88826;20120.29;10962.67;0.04221579;0.04568668;0;
15863.63;11614.74;-19.30507;20514.97;25.02817;24.74078;17248.74;9427.905;-0.02279397;0.2405428;0;
16684.75;12391.14;5.405037;21125.3;10.13354;16.47714;18053.55;10110.62;-0.3476078;0.3702358;0;
17839.62;13107.07;42.33417;22581.26;8.113625;14.58519;19269.8;10528.93;0.04254555;0.3048964;0;
3259.415;1697.038;361.7404;4700.341;9.378269;12.56104;3309.28;327.612;0.3673395;-0.2151487;0;
-19218.17;-14240.59;340.5749;-23057.21;6.287387;9.065431;-20840.21;-11080.51;-0.1527683;-0.0849978;0;
-16289.53;-11173.16;36.83833;-21841.05;11.84078;14.48182;-18004.18;-8928.52;-0.3475168;0.1099896;0;
-16997.97;-11558.88;75.00086;-22230.65;12.56581;13.5295;-18677.27;-8800.795;-0.02233095;-0.02005557;0;
-18698.82;-13744.6;10.02062;-23709.31;5.788032;14.92255;-20045.89;-10431.72;-0.02230852;-0.2149374;0;
5987.444;3860.387;-283.1546;5476.468;4.777838;15.9123;6363.303;1968.033;0.04268124;-0.0847868;0;
18580.28;13642.82;-264.2701;23091.38;6.313278;8.394346;20120.63;10965.67;-0.08729633;0.5649718;0;
15820.01;11562.34;-26.63944;20477.37;6.440657;6.778382;17195.23;9355.802;-0.347078;0.1746001;0;
16559.73;12289.62;13.66395;20974.67;7.840704;4.829066;17904.7;9996.652;-0.2167946;-0.2153794;0;
17849.36;13104.42;68.18531;22575.97;9.239346;1.810104;19262.38;10502.04;-0.08664203;0.1096737;0;
3241.614;1694.384;392.3913;4649.75;10.77128;5.62619;3234.741;307.04;0.04337971;-0.02037117;0;
-19238.77;-14280.85;364.2297;-23134.51;13.03763;5.218639;-20955.46;-11199.39;-0.08659856;-0.08531804;0;
-16243.26;-11222.94;35.1696;-21843.34;12.02015;0.9266102;-18053.07;-9018.416;-0.4113483;-0.02026497;0;
-16897.09;-11523.04;43.44258;-22202.15;11.47221;-0.2130307;-18677.55;-8758.496;-0.08609822;-0.1501793;0;
-18316.85;-13557.41;-22.58353;-23423.54;21.44102;0.4570126;-19748.29;-10330.67;-0.2809137;-0.2149957;0;
6353.16;4008.104;-299.4685;5810.592;23.02609;1.126383;6688.583;2045.873;-0.6704355;-0.08484502;0;
18606.97;13684.2;-271.1192;23126.45;21.39634;-4.233262;20126.62;10999.36;-0.3449252;0.04517492;0;
15902.53;11660.61;-23.59607;20537.58;22.71401;-5.501684;17255.74;9427.907;-0.2796112;-0.08480516;0;
16708.41;12430.21;16.90729;21103.67;11.03689;-0.2716089;18029.78;10119.13;-0.08442825;0.1101821;0;
17856.75;13122.21;58.44754;22571.21;7.810619;-0.003404262;19250.09;10499.94;0.56533;0.3049734;0;
3409.03;1787.711;385.0684;4731.849;9.275663;5.288129;3327.63;375.2668;0.4348273;0.2396996;0;
-18793.75;-13874.51;371.6411;-22800.15;8.596758;8.096038;-20643.1;-10880.11;-0.02038104;0.1744914;0;
-15736.8;-10727.49;70.07533;-21409;6.645737;2.528441;-17664.86;-8792.971;0.2395088;-0.215488;0;
-16212.02;-10884.8;103.1914;-21649.33;6.304266;2.05702;-18127.37;-8424.847;0.3042355;-0.1503041;0;
-17714.13;-12929.26;16.36564;-22789.58;13.86639;4.466278;-19222.25;-9837.386;-0.1508416;0.239651;0;
6499.604;4217.131;-287.3107;6189.759;14.99154;4.595756;6865.113;2217.959;-0.15069;-0.08542653;0;
18671.61;13756.97;-255.5066;23239.39;27.76985;0.3713352;20185.89;11045.81;0.0443634;-0.2152754;0;
15943.52;11704.06;-8.592566;20531.42;33.63644;-1.705448;17261.65;9459.313;0.1742535;0.1097777;0;
16645.61;12368.84;21.38538;21044.85;22.14844;1.444403;17949.74;10029.86;0.1091111;0.1096673;0;
17784.91;13062.04;53.48837;22478.33;21.52395;1.17502;19157.2;10426.03;0.2389361;0.1745245;0;
3353.473;1747.471;374.8356;4633.515;17.48286;-1.237486;3246.096;298.3598;0.4985654;0.2393165;0;
-18811.62;-13882.73;353.5788;-22923.35;12.77722;-1.571157;-20717.2;-10953.94;0.1082604;0.04417397;0;
-16150.96;-11011.85;29.7455;-21928.23;16.91659;-3.244151;-18140.71;-8891.027;-0.02178307;-0.0858051;0;
-16826.79;-11372.71;51.40783;-22306.56;15.62679;-3.709711;-18773.94;-8661.518;0.2381082;0.1091832;0;
-17771.73;-13048.98;-21.79455;-22988.37;9.449149;-3.304086;-19312.7;-10003.43;-0.1519351;0.2390081;0;
6604.555;4234.449;-315.0627;6090.75;10.24394;-3.568698;6937.939;2179.532;-0.02184777;0.3037353;0;
18536.81;13619.62;-287.8534;23059.36;5.946737;-1.421719;20044.38;10930.68;0.3030109;0.4333648;0;
15941.34;11719.97;-50.93313;20540.35;8.7538;-1.219342;17258.91;9461.832;-0.02213028;0.17306;0;
16695.95;12410.61;-7.32572;21085.29;8.410212;1.796054;18003.81;10083.23;0.172794;-0.216918;0;
17663.13;12957.09;55.58752;22343.82;7.932271;3.803677;19028.22;10315.71;0.3025551;-0.08676532;0;
3103.128;1574.443;368.5618;4305.267;38.86968;-3.300153;2965.872;170.1239;0.04238167;0.3031259;0;
-19199.48;-14116;336.8791;-23307.48;45.93057;-5.105376;-21110.88;-11143.39;-0.2175303;0.1728867;0;
-16556.81;-11207.15;31.86563;-22236.15;55.73104;-0.7464169;-18521.46;-9106.619;-0.282279;-0.2820584;0;
-17366.05;-11799.08;49.16864;-22788.14;65.58802;-1.348513;-19290.08;-8945.076;0.04284129;-0.5416444;0;
-18508.71;-13638.27;-21.68892;-23655.64;38.72992;-2.418885;-20056.66;-10368.29;0.2377003;-0.2812308;0;
6202.884;4019.552;-299.7617;5755.592;35.60955;-3.421138;6518.034;2021.358;0.2374614;0.1088558;0;
18485.26;13575.04;-275.3789;23015.04;27.13465;-4.288478;19999.39;10882.36;0.3021902;0.04377911;0;
15777.44;11541.27;-22.35421;20378.49;19.47157;-4.953999;17104.59;9292.669;0.1719518;-0.08619956;0;
16457.66;12192.28;21.50559;20858.61;26.8194;-9.704687;17769.87;9865.195;-0.0880903;-0.2160476;0;
17637.68;12924.2;75.55055;22339.31;24.24783;-11.23548;19018.91;10300.45;0.3667696;-0.1508632;0;
2984.139;1446.695;419.9577;4290.069;29.98327;-12.29592;2890.988;20.71447;0.7562051;0.1741251;0;
-19636.79;-14582.36;372.6843;-23644.72;30.8238;-13.42221;-21498.49;-11584.55;0.1057719;-0.1508866;0;
-16697.54;-11390.79;21.67358;-22356.52;38.02747;-9.590821;-18635.53;-9218.781;0.04069824;-0.2157023;0;
-17751.66;-12176.85;51.90223;-23084.58;41.7403;-7.504775;-19637;-9305.502;0.365494;0.1743185;0;
-19530.59;-14520.54;-14.19485;-24691;34.46372;-11.04721;-21070.57;-11160.04;-0.4144813;0.304078;0;
5752.302;3682.255;-302.9886;5106.902;34.0943;-11.10309;6020.904;1777.283;-0.3490975;-0.1509989;0;
18543.84;13620.79;-276.0569;23024.86;28.16554;-3.322096;20049.05;10917.25;-0.08887734;-0.9954226;0;
15823.92;11589.7;-52.68849;20478.3;24.92206;-2.180109;17172.23;9357.07;-0.4785921;-0.6046184;0;
16794.46;12531.01;-22.04155;21187.72;22.3524;1.907979;18111.73;10220.64;-0.2182418;0.500434;0;
17934.55;13219.5;38.52829;22662.47;20.18648;4.250403;19329.6;10592.83;0.1068142;0.1750944;0;
3102.543;1628.026;375.0235;4499.881;16.48153;-4.729397;3053.878;243.477;-0.08819517;-0.4097876;0;
-19292.3;-14188.16;355.1721;-23215.04;14.65728;-6.46614;-21102.11;-11187.87;-0.02313922;-0.1495065;0;
-16616.24;-11317.45;24.51253;-22222.15;20.93822;-9.205882;-18505.48;-9037.043;0.1717861;-0.01942158;0;
-18047.61;-12454.63;33.92065;-23311.05;21.85518;-11.80891;-19855.39;-9313.897;0.2365808;0.04556528;0;
-19571.72;-14479.98;-34.90697;-24668.84;27.7941;-12.46687;-21040.22;-11036.89;0.04144105;-0.01944785;0;
5813.699;3817.789;-301.9252;5194.952;30.31176;-14.26282;6111.764;1875.078;-0.08853528;-0.344265;0;
18612.28;13695.3;-264.7497;23104.59;23.18136;-11.23432;20133.53;11026.25;0.1064557;-0.2139844;0;
15916.67;11669.16;-41.04911;20568.85;18.0005;-10.4193;17276.3;9431.888;0.1713161;0.435904;0;
16756.36;12514.03;-9.570542;21155.66;28.16382;-11.0786;18088.24;10217.07;0.04120926;0.8252701;0;
17934.67;13199.45;39.28952;22639.68;26.86272;-10.53166;19335.13;10588.73;0.1061352;0.1747674;0;
3240.31;1731.384;370.4898;4504.487;11.09462;-6.43518;3172.944;336.3118;-0.08887348;-0.540049;0;
-19080.99;-14098.01;365.4324;-23102.91;11.0171;-4.218338;-20863.68;-11060.5;-0.4136209;-0.474539;0;
-15938.34;-10893.28;48.55241;-21552.94;-27.64251;-7.027322;-17771.55;-8901.154;-0.1533359;-0.3441275;0;
-16325.95;-10915.39;64.49559;-21686.59;-42.48421;-6.216466;-18131.88;-8344.174;0.2366222;-0.1488797;0;
-17751.67;-12965.84;-3.691227;-22801.51;-6.33858;-6.746083;-19171.82;-9767.054;0.1064498;-0.01879538;0;
6390.511;4084.89;-283.7343;6037.462;-3.787592;-6.940253;6787.827;2131.143;-0.02359187;-0.3436132;0;
18481.24;13582.04;-259.5549;23059.48;2.178061;-2.311579;20025.63;10904.7;-0.1535029;-0.6031373;0;
15894.54;11673.52;-30.70589;20518.78;8.941027;-0.1658638;17257.12;9463.899;-0.2832833;-0.4725966;0;
16624.21;12352.91;5.994033;21053.57;13.42002;-1.706244;17971.49;10060.37;-0.08809663;0.04761701;0;
17643.18;12939.4;62.13166;22375.81;19.97062;0.0369661;19059.9;10340.55;-0.02304076;-0.1473329;0;
3060.69;1532.141;403.9443;4391.313;12.31474;0.6397753;3052.109;162.3327;-0.3478543;-0.6669235;0;
-19255.87;-14202.16;382.3928;-23206.73;12.90461;0.6391325;-20977.77;-11119.3;-0.4124721;-0.2764494;0;
-16419.3;-11153.84;39.66498;-21988.21;10.14595;9.011174;-18220.1;-8965.33;-0.02225363;0.1136325;0;
-17269.19;-11708.82;61.77025;-22528.7;8.528164;10.81066;-19041.34;-8868.303;0.3026055;0.1784856;0;
-18711.37;-13753.46;17.80837;-23699.57;5.103343;10.46488;-20088.61;-10448.59;-0.02253533;0.2432736;0;
6029.235;3898.515;-259.5701;5600.542;1.883035;11.65994;6455.917;1949.038;-0.3473494;0.04812715;0;
18440.78;13529.47;-245.2539;22978.32;10.05282;4.883128;19991.98;10868.58;-0.1520984;0.1780135;0;
15711.52;11484.71;-23.85296;20376.28;10.57858;3.00276;17080.5;9280.046;-0.02201084;-0.2119694;0;
16486.91;12225.9;-9.914113;20924.52;13.58206;-0.9521281;17841.79;9942.681;-0.2168908;-0.4716258;0;
17714.86;13005.99;27.63948;22451.74;16.31508;-5.037069;19132.15;10410.87;0.3030659;-0.08134788;0;
2865.922;1428.965;368.0812;4263.127;9.332459;0.929351;2872.633;89.8432;0.4326961;0.04866854;0;
-19821.2;-14688.42;337.7264;-23687.09;7.58177;1.129366;-21522.1;-11542.15;-0.2174121;-0.0163477;0;
-16712.24;-11402.18;-15.32627;-22234.63;14.13824;-3.560452;-18496.71;-9210.453;0.04267571;-0.2112333;0;
-17411.27;-11827.75;0.9465859;-22626.98;15.66427;-2.820123;-19150.21;-8966.707;0.4324369;-0.5358577;0;
-18942.31;-14016.6;-40.12747;-23882.54;7.074716;-5.563529;-20325.17;-10596.73;0.04219832;-0.1455153;0;
6025.992;3879.335;-294.5842;5649.223;6.330673;-5.691844;6413.631;1994.622;0.04215591;0.244435;0;
18492.53;13580.31;-256.3386;23066.1;7.262317;-0.05974095;20043.38;10908.5;0.4968849;-0.01567999;0;
15733.2;11509.93;-22.27663;20384.73;7.523439;1.012046;17103.33;9313.3;0.561353;-0.08063158;0;
16624.92;12355.62;0.2969193;21072.42;9.390914;7.977071;17983.96;10081.19;-0.08888445;-0.1455179;0;
17649.58;12953.09;35.23219;22372.99;8.912963;10.84932;19056.75;10357.01;0.1710742;-0.015437;0;
2693.136;1380.665;358.0657;3965.907;22.23324;10.16859;2640.358;46.34562;1.080445;0.04954585;0;
-19617.44;-14402.13;334.8112;-23566.94;26.49781;12.16774;-21331.56;-11302.82;0.4296861;-0.340308;0;
-16584.64;-11265.68;20.44514;-22075.44;21.24627;5.591369;-18344.79;-9089.715;-0.2853864;-0.08009667;0;
-17551.39;-11935.51;52.40852;-22745.99;22.89987;3.978221;-19279.5;-8998.325;-0.155165;0.2448205;0;
-18865.27;-13963.19;-9.206943;-23864.45;17.78567;3.572326;-20205.84;-10559;-0.2199764;0.1796072;0;
6008.173;3833.197;-293.6641;5538.217;17.23193;1.023446;6429.834;1890.315;-0.08982072;0.04949203;0;
18323.49;13424.62;-267.8662;22863.52;10.24839;5.041272;19875.16;10770.54;-0.02476313;-0.5352638;0;
15714.97;11486.94;-35.2607;20373.21;5.482671;4.969223;17094.36;9292.694;-0.08970559;-0.5347259;0;
16530.28;12266.95;-18.37437;20964.49;19.00747;1.883138;17890.46;9993.563;0.1702539;-0.1443846;0;
17655.18;12950.29;42.34795;22393.37;20.46224;0.8765014;19078.89;10366.05;0.1051155;-0.01430483;0;
2686.732;1323.538;398.5638;4043.939;15.88635;1.679416;2693.698;-12.75025;0.2349446;0.2455789;0;
-20147.96;-14895.5;359.8857;-24009.18;16.07146;1.47678;-21824.04;-11761.05;0.4296105;0.05043012;0;
-16939.68;-11574.46;28.36244;-22429.79;13.77814;-2.208704;-18688.48;-9365.572;0.03937479;-0.2094899;0;
-17456.82;-11841.47;58.30325;-22664;12.29042;-3.278151;-19159.47;-8928.221;-0.09059945;-0.0143774;0;
-19100.03;-13985.89;-13.89095;-24019.32;13.81929;-3.542789;-20414.55;-10587.29;0.2343283;0.3754411;0;
5734.55;3773.52;-298.9368;5342.026;14.34127;-3.673195;6173.377;1857.43;0.1041581;0.1801618;0;
18349.8;13430.37;-275.8823;22892.24;5.484623;-3.736487;19904.99;10769.24;0.03908615;-0.2098233;0;
15664.44;11436.42;-40.12968;20322.53;3.604078;-3.062964;17035.94;9243.898;-0.02592046;0.1152243;0;
16527.9;12265.26;-8.776968;20974.42;4.270042;-2.189109;17891.79;9994.385;-0.3507311;-0.01482617;0;
17628.28;12931.14;25.6989;22349.75;1.520061;-1.918977;19037.74;10332.04;-0.4153461;-0.144746;0;
2470.909;1192.726;343.5289;3788.922;16.05322;5.048993;2434.569;-66.74216;-0.02512466;0.1152689;0;
-20110.52;-14863.71;318.821;-24015.61;20.39037;6.919442;-21808.08;-11645;0.23477;-0.01478165;0;
-17097.12;-11631.91;2.050336;-22584.91;10.92639;5.438865;-18838.73;-9359.219;0.1045994;-0.1447015;0;
-18031.41;-12298.49;16.71278;-23217.53;11.85244;5.500382;-19729;-9239.152;0.1694616;-0.2095234;0;
-19063.69;-14222.29;-42.33684;-24073.41;8.491625;4.222241;-20435.59;-10735.55;0.4291607;-0.1443456;0;
6095.566;3874.071;-291.747;5607.979;6.205917;4.084033;6452.686;1964.657;-0.02604191;0.5054729;0;
18350.51;13452.67;-259.9385;22904.83;15.30936;-3.221028;19898.21;10806.36;-0.09098309;0.504965;0;
15626.96;11405.16;-29.82408;20287.94;18.10702;-5.093313;17013.09;9209.379;0.1040104;-0.2101831;0;
16474.05;12203.53;2.533389;20914.16;7.907416;-7.164605;17837.28;9941.878;-0.2858982;-0.3399066;0;
17599.06;12908;38.7314;22324.76;6.626673;-9.434765;19018.66;10317.98;0.1041931;-0.2096304;0;
2542.062;1223.149;373.6023;3829.938;14.05475;-2.325277;2507.867;-60.89916;0.5588598;-0.1444524;0;
-20204.34;-14951.76;354.6268;-24107.42;14.5765;-1.787077;-21894.81;-11747.48;0.1684942;-0.01437261;0;
-17039.46;-11581.22;17.14309;-22506.84;19.38462;4.444009;-18765.89;-9373.909;0.1033576;-0.1442928;0;
-17674.81;-11960.84;39.14605;-22867.85;21.57594;7.58762;-19364.27;-9011.434;0.03828638;-0.2091152;0;
-19141.09;-14080.78;-16.50596;-24060.62;18.60653;4.030022;-20457.3;-10631.37;-0.3515562;-0.0789704;0;
5758.749;3781.628;-292.5225;5393.514;19.1237;5.767468;6191.685;1861.957;-0.09133353;-0.07889105;0;
18312.04;13409.44;-274.8935;22873.07;15.08599;-1.00342;19871.29;10757.41;0.233595;-0.3386812;0;
15628.92;11388.35;-56.66438;20280.57;13.26217;-2.743968;17007.16;9204.83;-0.3513458;-0.5982102;0;
16515.32;12264.07;-27.02856;20963.62;12.24447;0.1389939;17883.34;9997.287;-0.6758295;0.05206429;0;
17625.69;12910.34;26.92462;22346.31;9.351777;-0.4639921;19043.37;10325.7;0.03949032;0.1819467;0;
2570.993;1300.226;371.9272;3866.593;16.10753;3.35444;2542.613;9.564437;0.494222;-0.3379749;0;
-19826.99;-14514.35;360.5747;-23753.01;18.70332;4.958599;-21516.37;-11314.91;0.2988234;0.2470708;0;
-16838.86;-11426.7;46.43261;-22320.55;2.609597;7.230975;-18566.58;-9141.783;-0.02631356;0.3117899;0;
-17914.67;-12269.87;73.82529;-23075.95;-1.948352;10.23794;-19597.8;-9234.608;-0.4810585;0.05160721;0;
-19166.11;-14223.88;-11.89335;-24180.85;12.58927;7.414371;-20544.51;-10728.18;-0.6105098;0.5712941;0;
5842.153;3725.132;-308.6541;5321.784;13.91579;7.272955;6182.129;1849.498;-0.2850597;0.180916;0;
18207.53;13303.34;-275.5636;22756.25;8.14103;14.36572;19755.11;10652.87;-0.2847732;-0.07913515;0;
15582.19;11362.92;-36.26619;20256.39;7.128472;14.88715;16973.35;9175.138;-0.2844871;0.1808137;0;
16484.24;12207.56;-8.181354;20932.11;10.67128;15.87693;17852.11;9952.211;-0.4141359;-0.209172;0;
17619.22;12943.29;53.92065;22354.53;12.13443;16.12879;19041.03;10349.19;-0.1538504;-0.0140598;0;
2386.169;1050.962;397.9591;3724.698;3.414699;6.601309;2363.18;-176.4038;0.4959776;0.1808564;0;
-20565.24;-15290.54;345.0856;-24407.67;3.343919;2.30783;-22233.21;-12007.87;0.3655445;-0.2091294;0;
-17545.55;-11841.7;9.01703;-22967.45;-0.07569308;3.980084;-19246.81;-9550.927;0.3002099;-0.143952;0;
-18316.88;-12447.64;45.75512;-23433.67;-1.883302;2.904358;-19959.31;-9340.79;0.3648756;-0.2087746;0;
-19607.51;-14572.97;-23.55291;-24525.76;12.51956;-7.279722;-20917.98;-10977.73;-0.09026245;-0.1435975;0;
5689.611;3719.88;-307.1211;5269.377;16.99398;-9.281835;6082.042;1852.588;-0.3500411;0.2463508;0;
18339.22;13435.68;-272.5485;22912.4;15.77145;-8.13386;19896.19;10780.8;-0.2197547;0.4410053;0;
15577.17;11342.41;-27.83496;20244.24;16.89468;-8.795455;16964.72;9163.15;0.04033547;0.3106275;0;
16488.6;12225.96;-4.724843;20951.61;29.20159;2.198279;17860.23;9967.909;0.1702296;-0.2094234;0;
17661.22;12968.82;32.152;22380.17;34.32981;5.076275;19080.63;10378.4;0.2350259;-0.404115;0;
2347.613;1093.253;367.5136;3622.241;20.02905;14.58257;2314.332;-138.122;0.2347898;0.1160299;0;
-20535.96;-15177.75;332.7397;-24398.47;18.53506;20.59626;-22204.04;-11916.05;-0.1552502;0.1808806;0;
-17699.37;-11956.87;6.131906;-23095.25;14.96646;11.8679;-19397.85;-9577.54;-0.09012687;-0.2091052;0;
-18712.22;-12821.87;29.61394;-23842.26;10.73186;12.52581;-20367.94;-9583.597;-0.1550037;-0.01399308;0;
-19729.9;-14712.69;-41.14589;-24712.97;14.5385;9.901009;-21050.37;-11134.88;-0.02491322;0.5057597;0;
5700.777;3721.902;-304.8314;5210.423;11.7782;7.948555;6096.471;1816.689;0.4298832;0.4402842;0;
18185.46;13286.13;-273.4782;22737.88;15.18164;7.136773;19743.01;10642.07;0.1046145;0.05003774;0;
15497.31;11269.57;-49.89375;20160.16;14.4968;4.651295;16883.24;9086.042;0.03954209;-0.07994723;0;
16481.23;12207.19;-31.77457;20927.78;13.14306;8.53157;17853.99;9945.46;0.2344044;0.2449698;0;
17558.87;12890.84;8.799476;22280.55;14.40265;8.723947;18975.13;10304.33;-0.09066786;0.3746584;0;
2151.466;943.9048;355.8193;3433.843;-0.6159968;6.437822;2120.433;-286.4576;0.2992273;0.2443472;0;
-20932.86;-15529.65;330.7711;-24798.46;-4.969635;6.36437;-22607.11;-12226.46;0.2339593;-0.2106697;0;
-18294.47;-12414.34;-1.862997;-23689.98;0.7287862;6.558924;-20000.13;-9878.01;-0.0911125;-0.3403927;0;
-19411.42;-13394.04;4.026541;-24507.18;-0.6111166;6.418368;-21036.66;-9948.919;0.1688484;0.04975338;0;
-20460.07;-15297.14;-98.30107;-25457.59;2.269886;6.545885;-21813.47;-11527.59;-0.09119061;-0.0802313;0;
5338.126;3506.416;-384.1367;4756.639;3.070912;6.070426;5639.584;1711.732;-0.1560663;-0.145118;0;
18216.82;13309.07;-336.7743;22745.27;6.818871;6.533207;19759.07;10652.49;0.3638292;0.2448319;0;
15433.06;11190.52;-79.20586;20122.97;9.893477;6.727592;16831.75;9001.014;0.2984963;0.1146512;0;
16297.63;12032.79;-37.83453;20747.77;2.381448;3.840627;17663.16;9783.29;0.1682617;0.3744053;0;
17511.29;12829.26;12.72497;22236.21;0.3693234;3.43487;18933.39;10230.67;0.03815794;0.5039638;0;
2222.087;998.6686;352.3852;3501.789;9.27756;2.560641;2191.416;-203.982;-0.2867171;-0.146216;0;
-20948.19;-15550.16;306.3822;-24814.25;10.47369;2.022204;-22610.76;-12219.89;-0.2214617;-0.3409711;0;
-18405.89;-12416.76;-34.92614;-23807.71;5.77509;4.364514;-20101.63;-9910.16;-0.4161412;0.04917554;0;
-19205.64;-13117.28;-1.970091;-24336.33;7.175807;4.62806;-20855.73;-9747.279;-0.4806904;-0.08080855;0;
-19860.44;-14877.12;-60.51681;-24821.51;-3.816117;9.44612;-21186.16;-11244.7;-0.1553707;-0.210662;0;
5722.259;3725.724;-323.3083;5246.8;-7.764397;12.45074;6097.734;1840.078;-0.2851492;-0.01554834;0;
18237.61;13342.35;-285.9707;22788.68;7.582374;6.342964;19793.17;10701.48;-0.154928;0.114402;0;
15485.97;11238.74;-66.07504;20146;10.18672;5.800727;16877.15;9049.408;0.04012967;-0.08061501;0;
16415.24;12161.81;-45.394;20861.7;9.640624;11.42128;17787.55;9906.989;-0.08984534;-0.275436;0;
17573.47;12872.76;21.24314;22281.92;12.5777;12.01265;18993.16;10280.44;0.105147;-0.1452246;0;
2356.22;1053.021;371.124;3586.247;12.56506;12.80438;2319.1;-167.9911;0.429878;-0.08011132;0;
-20452.82;-15149.49;318.4805;-24377.82;14.56217;13.52832;-22129.08;-11836.18;0.1046094;-0.2099655;0;
-17592.08;-11891.24;-26.99412;-23028.71;14.81595;10.16571;-19294.03;-9484.365;-0.2203325;-0.1447872;0;
-18652.12;-12764.19;2.28393;-23805.15;15.80544;9.016781;-20301.33;-9532.104;-0.1551437;-0.07967437;0;
-19727.66;-14713.22;-77.28774;-24733.86;15.32105;8.53884;-21071.25;-11078.96;-0.02505315;-0.2744963;0;
5767.576;3743.043;-364.9405;5252.728;14.09923;7.056636;6120.437;1901.698;-0.08999532;-0.01435116;0;
18306.65;13393.38;-318.6125;22853.08;21.5198;7.38446;19857.58;10743.33;-0.08990489;0.3754673;0;
15541.29;11310.93;-60.65622;20211.14;23.30684;6.908159;16937.13;9122.575;0.1050875;0.180188;0;
16460.39;12193.51;-22.66122;20898.07;15.44654;3.954091;17831.74;9939.556;0.1699492;0.05007228;0;
17683.48;12998.63;16.98226;22406.38;13.75706;3.280289;19108.64;10403.33;0.03984377;0.05002197;0;
2338.508;1082.565;350.0634;3637.65;15.61827;0.8656681;2328.563;-148.5899;0.03980374;0.1149391;0;
-20589.35;-15322.46;313.3861;-24499.58;15.5362;-1.546526;-22246.42;-12099.84;-0.285073;0.5046276;0;
-17551.41;-11946.87;-34.0199;-23011.03;9.425021;6.492796;-19246.68;-9661.026;-0.1548518;0.4391532;0;
-18499.71;-12638.9;-10.10709;-23636.54;7.272097;7.82587;-20132.2;-9446.953;0.3000751;0.2438099;0;
-19435.08;-14518.33;-70.9882;-24363.31;10.41262;4.067084;-20754.64;-10908.77;0.1048716;0.1785976;0;
6048.881;3914.332;-347.075;5665.648;8.794569;5.804493;6426.199;2039.222;-0.0901358;0.2433855;0;
18323.76;13434.13;-303.2949;22920.97;15.75196;-3.042903;19881.91;10790.63;-0.02507789;0.3081083;0;
15588.79;11347.76;-59.22205;20247.38;18.28172;-4.98229;16979.07;9162.196;0.104882;0.372766;0;
16570.81;12308.33;-21.35343;21022.21;8.818884;2.055741;17942.61;10052.82;0.2996786;0.4373588;0;
17647.16;12955.41;34.20261;22360.75;7.939366;2.723505;19071.24;10362.48;0.03950815;0.0471153;0;
2708.331;1258.998;363.0654;3963.453;5.921657;7.275486;2680.027;18.79237;-0.1554336;-0.08286673;0;
-19846.13;-14716.74;345.5061;-23766.98;3.70588;9.076715;-21514.12;-11489.49;0.1695593;-0.01781612;0;
-17180.37;-11596.82;16.93333;-22635.5;6.180403;12.61757;-18886.32;-9333.943;0.2343563;-0.3426349;0;
-18022.79;-12249.2;15.91681;-23225.19;4.834046;15.21722;-19705.88;-9148.606;0.3640555;-0.1473886;0;
-18826.23;-14027.63;-41.8514;-23786.9;7.910648;11.98675;-20154.08;-10509.58;0.03885297;-0.2771752;0;
6152.145;3941.535;-316.3745;5795.911;8.840704;12.91247;6571.094;2029.506;-0.2860228;-0.7966354;0;
18325.39;13431.26;-304.9372;22915.65;3.473186;7.540982;19886.94;10792.11;0.6238074;-0.5359656;0;
15615.12;11380.89;-71.70096;20280.75;2.531692;5.590961;17003.58;9194.937;0.688148;-0.01568833;0;
16533.36;12270.89;-41.98756;20981.85;2.596497;7.326838;17904.8;10013.86;-0.2870536;-0.2105746;0;
17783.56;13087.93;13.99525;22519.19;2.660261;5.243066;19213.25;10503.08;-0.02689584;-0.600167;0;
2810.442;1378.595;364.758;4180.895;-3.169562;12.33781;2819.348;109.8212;0.2979679;-0.20976;0;
-19612.91;-14558.51;346.5255;-23457.56;-6.582628;13.933;-21263.94;-11348.72;-0.09213556;-0.07961451;0;
-16557.01;-11284.06;14.14105;-21990.13;6.284709;8.895402;-18268.67;-9058.287;0.03789171;-0.2094692;0;
-17709.86;-12075.72;4.085015;-22845.79;9.225155;9.221378;-19388.8;-9113.278;0.5575924;-0.4041607;0;
-18862.17;-13968.83;-78.22147;-23695.63;-0.6971004;4.724317;-20161.64;-10553.27;0.4920647;-0.5986567;0;
6366.551;4155.929;-332.0309;6117.618;-1.567056;2.64316;6822.285;2238.99;0.1017663;-0.4031531;0;
18550.28;13647.18;-288.469;23156.67;-0.3600327;5.788641;20117.06;11012.58;0.3615334;-0.207846;0;
15744.41;11504.53;-64.27605;20414.13;-1.698842;4.644114;17126.82;9318.858;0.4261374;-0.07770246;0;
16723.67;12474.08;-28.80738;21194.4;0.4463193;5.711175;18098.86;10222.99;-0.09402946;0.377147;0;
17804.75;13082.81;41.88916;22541.13;0.5122437;5.571471;19228.07;10493.76;-0.02896764;0.2468334;0;
3085.736;1496.001;383.1911;4421.628;-3.841552;2.819633;3072.267;252.0336;-0.02893853;-0.208186;0;
-18668.95;-13833.69;369.0786;-22538.13;-5.378909;2.013005;-20339.79;-10611.12;0.03605789;0.1168599;0;
-15696.31;-10687.24;58.08265;-21095.85;-4.904014;-0.06542777;-17425.21;-8591.623;0.3608584;0.3116445;0;
-16802.48;-11373.57;74.56285;-21950.59;-5.769742;-1.003123;-18504.93;-8613.475;0.1655937;-0.0135054;0;
-17616.37;-13024.74;-2.410918;-22438.04;-3.68784;-2.207747;-18923.26;-9750.79;-0.02947467;-0.1434265;0;
6914.156;4421.736;-293.7621;6796.713;-1.473332;-2.339494;7376.888;2452.878;0.03552229;-0.3381844;0;
18531.96;13656.1;-273.6487;23186.8;-6.629415;-3.274905;20101.09;11032.07;-0.2893501;-0.0130079;0;
15874.54;11652.21;-48.20568;20508.8;-5.01614;-3.40558;17257.42;9468.154;-0.4839614;0.1169399;0;
16780.98;12511.69;-33.24286;21255.53;-5.077472;2.559201;18156.53;10261.21;-0.09367105;-0.7927204;0;
17916.81;13220.61;15.84401;22645.7;-6.010375;4.833988;19342.34;10637.11;0.1662924;-0.6619892;0;
3322.398;1647.39;355.0951;4640.574;13.35312;6.838558;3305.982;395.4998;0.1661253;-0.01165063;0;
-18721.81;-13932.73;339.0118;-22613.63;18.2962;9.577987;-20393.91;-10709.07;0.03602373;0.05332841;0;
-15734.26;-10723.4;27.17147;-21185.47;19.61796;8.898534;-17452.17;-8694.095;-0.2238818;0.1832095;0;
-16746.95;-11277.54;42.0117;-21929.77;25.55912;9.961319;-18434.46;-8639.678;-0.1586895;0.1180581;0;
-17996.2;-13153.58;-29.36966;-22824.29;7.046635;11.96068;-19256.76;-9912.743;-0.1585301;-0.07696257;0;
6617.828;4314.834;-304.7642;6473.824;2.552552;12.9534;7132.471;2357.351;-0.2233381;0.2479515;0;
18600.64;13704.95;-275.5506;23233.55;7.30541;12.20357;20174.28;11076.75;-0.09317903;0.8324084;0;
15847.37;11621.73;-31.83362;20485.57;1.135151;12.45924;17227.52;9441.66;-0.02811807;0.63667;0;
16766.16;12513.29;4.53947;21223.01;15.20018;11.30801;18143.2;10257.77;0.03687753;0.3111936;0;
17878.36;13172.43;49.02817;22612.09;18.33372;9.890132;19303.62;10594.1;-0.1580615;0.2459135;0;
3341.784;1655.925;372.7224;4701.875;-4.860555;14.30095;3344.083;368.6098;-0.2228701;-0.209105;0;
-18342.29;-13556.03;358.3549;-22239.42;-8.472994;14.35356;-20008.7;-10388.03;-0.2876135;-0.2738622;0;
-15478.29;-10478.04;46.7763;-20957.32;-10.80803;11.92775;-17209;-8406.672;-0.4172592;-0.01371767;0;
-16568.19;-11232.57;56.63058;-21798.61;-15.3525;11.64783;-18277.68;-8546.588;-0.02703585;0.05126345;0;
-17384.86;-12900.61;-1.178548;-22275.62;-4.68715;5.741816;-18716.99;-9666.559;-0.02700868;-0.0137554;0;
7040.668;4462.757;-284.8317;6907.039;-3.27592;3.324722;7485.684;2511.179;-0.4167856;-0.4035456;0;
18608.31;13731.35;-286.3571;23259.47;-1.731411;3.589313;20178.62;11102.55;-0.2864321;-0.3381728;0;
15905.52;11702.76;-54.93549;20526.59;1.752953;1.777167;17287.87;9518.955;-0.416079;0.1169384;0;
16816.9;12544.12;-26.03542;21280.85;-1.866131;2.780125;18193.22;10296.15;-0.2857262;0.2467556;0;
17961.06;13283.52;25.91776;22680.71;-0.9262505;2.643366;19383.69;10698;0.2342996;0.2465076;0;
3296.937;1584.574;370.6403;4609.708;2.490932;0.698266;3247.831;356.0575;-0.1557399;0.1163253;0;
-18717.98;-13992.61;353.1359;-22629.48;3.492807;0.09471799;-20430.11;-10723.28;-0.4804201;0.1811757;0;
-15638.39;-10662.11;40.2194;-21109.97;7.374063;3.24276;-17369.09;-8630.253;0.1047687;0.5058304;0;
-16649.64;-11244.8;68.47726;-21865.58;11.1177;4.713065;-18349.88;-8630.093;0.5594348;0.5053221;0;
-17911.64;-13137.81;6.439607;-22771.68;1.126192;0.6894752;-19244.18;-9859.174;0.2990033;-0.07989171;0;
6636.118;4322.293;-276.8151;6513.604;-0.4815539;0.9567141;7071.484;2403.964;-0.2860032;-0.4046482;0;
18551.8;13663.81;-247.6921;23203.42;10.70471;2.29535;20118.18;11027.46;-0.4156505;-0.2743069;0;
15791.13;11576.28;-2.129018;20416.66;11.56461;2.560976;17177.77;9401.881;-0.02542879;-0.3389986;0;
16725.01;12472.37;27.77996;21183.02;19.59095;6.644239;18097.31;10222.92;0.1045314;-0.1437559;0;
17837.96;13137.7;60.673;22554.66;24.05826;8.245153;19262.28;10553;0.1693937;0.1162579;0;
3073.231;1469.215;365.4901;4376.714;15.86242;9.308596;3053.343;215.3326;0.4290929;-0.2086957;0;
-18640.44;-13803.79;351.4734;-22584.34;16.85183;10.70576;-20326.27;-10635.05;0.3636944;-0.1435186;0;
-15587.13;-10575.52;62.70272;-21089.27;10.20347;10.29311;-17326.72;-8501.92;0.1684269;0.05152763;0;
-16901.99;-11486.4;80.03722;-22131.72;5.838956;10.61768;-18614.58;-8728.884;0.03832303;0.1814106;0;
-17801.23;-13178.61;-1.143064;-22725.46;17.48836;10.40606;-19097.17;-9960.614;-0.02668282;0.3111629;0;
6826.802;4353.733;-299.3826;6610.896;17.40344;9.859864;7313.21;2357.41;0.03831134;0.1809156;0;
18379.85;13498.9;-284.839;23011.21;15.10878;10.92156;19949.79;10883.65;0.2331749;-0.01416821;0;
15665.32;11473.04;-38.69197;20295.85;15.56211;11.51343;17043.05;9293.082;0.03803854;-0.2740234;0;
16626.49;12347.2;-9.152293;21077.24;7.776944;4.937721;18003.58;10095.3;-0.3518037;-0.273748;0;
17712.29;13060.45;39.23883;22431.2;6.161539;2.320486;19131.35;10477.4;-0.2864829;0.05136377;0;
2861.888;1328.589;373.9218;4174.823;2.471652;9.083309;2842.896;106.9404;-0.09129301;-0.01365518;0;
-19350.26;-14400.76;328.5687;-23277.67;-0.1437755;9.275131;-21031.77;-11137.53;0.03873341;0.2462279;0;
-16553.03;-11265.05;-11.76245;-22031.11;4.545418;7.725204;-18265.96;-8999.409;0.03869449;0.3109478;0;
-17861.15;-12195.04;8.598517;-23017.41;4.004988;8.119339;-19511.88;-9142.353;0.2335576;-0.01420132;0;
-18911.56;-13920.41;-48.28778;-23781.27;9.628017;2.953617;-20244.33;-10444.46;0.3632576;0.0507803;0;
6227.178;4117.83;-319.1812;5983.797;12.76618;0.6732903;6613.616;2224.969;-0.2218134;-0.01423807;0;
18484.54;13590.66;-286.5486;23101.41;6.322986;4.423536;20046.17;10963.54;-0.4814599;-0.01422376;0;
15666.34;11449.67;-48.17722;20308.79;6.450355;4.352108;17056.69;9267.061;-0.09117211;0.05075787;0;
16514.05;12265.31;-23.62551;20976.09;8.319883;-0.9437944;17886.19;10024.49;-0.09108049;0.1806416;0;
17656.5;12981.17;32.40133;22385.82;7.976731;-2.41641;19080.98;10387.57;-0.285891;0.5052968;0;
2608.428;1157.734;374.7748;3917.759;6.82964;-2.213033;2576.502;-17.29652;-0.09070171;0.309887;0;
-19491.6;-14541.34;349.1765;-23399.56;3.942389;-3.483485;-21174.93;-11222.4;-0.1555779;0.374543;0;
-16396.56;-11185.06;36.93556;-21845.27;13.71769;-0.9346942;-18117.52;-8961.407;-0.8700624;0.3741666;0;
-17543.63;-11943.09;56.96648;-22711.5;17.05281;-0.2639257;-19226.55;-9002.378;-0.5443514;-0.01601339;0;
-18205.72;-13541.5;-26.87676;-23083.48;-1.652196;-3.0099;-19477.56;-10219.29;-0.08903304;0.04897004;0;
6780.867;4354.695;-305.1474;6562.249;-4.463575;-2.671961;7273.853;2367.996;-0.4787476;-0.01604651;0;
18428.34;13548.92;-264.1581;23061.44;-3.453736;-3.339105;20001.64;10941.29;-0.2833646;0.04893696;0;
15704.04;11509.48;-35.30443;20348.63;-6.196931;-3.536699;17086.2;9330.804;-0.1531451;0.1788225;0;
16682.6;12411.11;-28.50673;21152.54;3.655908;-1.992538;18062.91;10162.65;-0.08802392;-0.08122658;0;
17670.41;13011.2;14.28167;22401.08;5.660991;-2.459416;19090.41;10440.71;0.4967706;-0.01617762;0;
2793.595;1247.881;347.7091;4091.671;5.521581;1.963807;2781.1;1.571783;0.4962714;0.3086753;0;
-19530.68;-14515.59;324.34;-23449.39;6.119245;3.234509;-21203.76;-11273.08;0.1059687;0.04849582;0;
-16947.94;-11364.63;16.52806;-22400.47;11.73917;-1.792339;-18664.63;-9099.444;0.04089491;-0.341357;0;
-18148.76;-12270.03;28.48981;-23304.42;14.33935;-2.862265;-19807.46;-9281.143;0.1058212;-0.2760466;0;
-18969.07;-14020.63;-63.61753;-23886.4;1.196772;-3.529218;-20301.83;-10602.13;-0.02421985;0.1140348;0;
6262.359;4126.33;-347.6764;5946.973;-2.354403;-4.597338;6655.103;2233.309;0.04077183;0.2438549;0;
18556.12;13671.62;-311.6575;23151.61;-2.686831;-8.209736;20120.91;11046.87;0.4305349;0.1136752;0;
15760.23;11535.96;-76.46241;20402.58;-6.903689;-10.61281;17149.89;9359.97;0.1052656;0.04859363;0;
16630.62;12390.2;-53.17849;21081.15;-3.81627;-5.109669;18004.69;10149.58;-0.5445136;0.3084142;0;
17740.14;13058.69;9.655882;22456.72;-4.01253;-3.296057;19163.32;10474.44;-0.1541624;0.04823491;0;
2720.698;1217.172;350.6466;3998.825;-10.841;-9.990855;2685.824;6.918169;0.1708292;-0.2766503;0;
-19383.6;-14491.94;319.3099;-23340.86;-11.56704;-9.84685;-21070.14;-11248.23;0.1056902;-0.08147027;0;
-16485.52;-11271.81;5.412294;-21980.28;-9.746758;-8.29641;-18195.62;-9009.796;0.2355187;-0.4062251;0;
-17629.61;-12000.38;41.68549;-22831.85;-8.665238;-9.426723;-19288.15;-9021.981;0.3002494;-0.2109149;0;
-18105.08;-13473;-17.9202;-23074.17;-6.445728;2.505407;-19419.35;-10210.35;-0.08985636;0.3090358;0;
6820.854;4355.755;-307.4442;6497.604;-5.100081;5.851975;7235.49;2359.928;-0.7394395;-0.2759808;0;
18438.94;13566.56;-290.1438;23052.28;4.684308;0.2866335;20002.42;10970.82;-0.2839251;-0.3406709;0;
15789.8;11584.59;-54.9703;20426.54;9.636094;1.090141;17178.63;9399.457;0.0411969;-0.0804592;0;
16700.15;12443.46;-22.86868;21151.39;5.138433;-2.862887;18075.45;10205.65;-0.08877918;-0.210313;0;
17728.41;13046.18;27.28535;22451.27;6.539789;-3.931737;19153.44;10467.6;0.3660814;-0.08016703;0;
2874.022;1289.586;356.8891;4156.924;9.347234;-5.87023;2843.4;61.12196;0.3007462;-0.1450538;0;
-19180.92;-14285.62;343.9431;-23104.63;9.672634;-7.404879;-20864.48;-11077.93;-0.08936001;-0.01497339;0;
-16048.03;-10917.62;36.39254;-21527.88;8.055325;-5.58896;-17770.28;-8812.686;0.1056318;-0.01495834;0;
-17368.78;-11812.1;50.33332;-22563.53;5.635357;-5.985241;-19056.69;-8941.012;0.3004277;-0.33978;0;
-18604.47;-13652;-30.75464;-23461.62;9.515436;-1.156578;-19896.91;-10312.3;0.3001258;-0.5343406;0;
6412.044;4249.269;-319.1256;6199.013;9.438526;0.7201058;6882.792;2291.541;0.3647916;-0.208967;0;
18537.13;13649.55;-284.744;23153.93;-0.8187362;-0.1513959;20109.32;11033.51;0.2344904;0.181047;0;
15699.87;11486.48;-37.0666;20341.05;-3.363509;0.8535002;17080.58;9310.727;-0.09058195;0.1808651;0;
16569.25;12325.57;-23.58299;21037.83;-6.977452;2.259223;17947.24;10082.31;0.03944375;0.115716;0;
17711.84;13029.33;11.43874;22424.28;-9.850829;3.663595;19128.22;10449.14;0.2343061;0.2455344;0;
2634.833;1128.557;363.8751;3889.196;-8.032269;0.7797084;2590.215;-79.63215;0.3640054;0.1803204;0;
-19267.7;-14370.88;344.8314;-23227.07;-10.03393;0.9798738;-20958.68;-11122.56;0.4935743;-0.07973019;0;
-16027.07;-10884.42;25.83254;-21499.1;0.6934208;-1.76735;-17754.2;-8734.286;0.428111;-0.1446174;0;
-17409.13;-11818.4;70.23737;-22571.79;5.046981;-4.578796;-19093.26;-8975.353;0.2977462;-0.07950476;0;
-18113.09;-13464.11;-2.56227;-23002.46;-4.536284;7.884325;-19396.26;-10196.64;0.2324797;-0.07942487;0;
6871.326;4382.624;-304.6891;6609.651;-3.459999;10.42163;7337.79;2414.93;-0.157558;0.3754264;0;
18397.33;13517.52;-281.8942;23016.53;-4.528249;1.971555;19964.44;10913.84;-0.222367;0.4400164;0;
15682.51;11492.43;-54.10034;20324.24;-5.461704;1.634659;17067.79;9318.295;0.1026931;-0.1451318;0;
16630.22;12361.97;-27.68423;21088.41;1.978523;-3.457564;18012.1;10126.38;-0.2872141;-0.4048553;0;
17564.78;12908.5;31.29833;22288.57;3.450404;-7.004064;18985.66;10332.75;-0.2869255;-0.5993505;0;
2543.644;1065.12;353.8703;3833.333;6.929561;-3.648001;2516.507;-120.4275;0.1031668;-0.3388789;0;
-19579.64;-14599.94;314.0346;-23478.68;10.80736;-5.452814;-21232.85;-11297.2;-0.1568062;0.4410697;0;
-16514.99;-11306.62;-0.6541523;-21954.96;2.825902;-6.318113;-18208.4;-8999.721;-0.4814853;0.3106918;0;
-17667.62;-12069.62;23.77173;-22842.42;2.153477;-6.512652;-19342.46;-9017.602;-0.1561648;-0.2743265;0;
-18496.3;-13636.38;-36.08146;-23340.69;8.648047;-12.46747;-19770.93;-10284.67;0.03889411;-0.4039855;0;
6478.579;4239.106;-291.3232;6295.533;8.439263;-13.72762;6963.901;2272.613;-0.2859817;-0.01377552;0;
18417.52;13535.14;-246.8026;23049.21;11.84606;-13.04399;19993.15;10933.82;-0.3506617;0.116173;0;
15678.04;11471.7;-14.88986;20318.02;11.70043;-13.70072;17061.12;9298.211;-0.285342;0.1810236;0;
16485.82;12241.01;0.4455296;20963.28;12.35826;-8.931283;17869.71;10008.24;-0.09015324;0.3757437;0;
17622.01;12940.77;56.6512;22339.76;13.48492;-7.113769;19037.74;10359.49;0.2997414;0.3103989;0;
2509.777;1034.922;402.561;3800.952;0.1421341;-7.843433;2459.013;-159.8272;0.1045382;0.115185;0;
-19724.04;-14734.88;358.1942;-23624.79;-3.206911;-6.696843;-21413.52;-11509.32;-0.2853709;-0.01486548;0;
-16508.69;-11281.79;17.69279;-21977.52;-3.538482;-4.412755;-18218.04;-9074.771;-0.09018213;0.0501168;0;
-17945.79;-12300.23;23.96873;-23111.15;-6.616385;-2.666826;-19596.02;-9214.688;-0.1550589;-0.0149009;0;
-18813.72;-13978.38;-58.76379;-23756.02;1.428215;-3.333975;-20110.51;-10553.83;-0.4797398;0.3749181;0;
6523.866;4215.371;-319.1519;6144.664;4.038748;-1.723035;6940.345;2259.06;-0.349323;0.6993781;0;
18357.8;13471.15;-272.1828;22952.57;-0.7207321;-3.797775;19919.72;10871.99;-0.02413532;0.5037733;0;
15611.47;11416.81;-47.41282;20269.05;-0.5862861;-3.927863;17001.29;9245.55;-0.2190131;0.1784305;0;
16556.57;12298.33;-14.89712;21009.11;9.72943;2.506262;17935.21;10064.61;-0.2837604;0.04831647;0;
17520.27;12860.92;58.65901;22236.39;12.93484;4.04429;18938.17;10284.38;0.04136146;0.1782026;0;
2379.749;951.3359;384.202;3628.231;11.18053;5.446868;2332.357;-232.8435;-0.02364744;-0.08184582;0;
-19753;-14752.13;339.2603;-23712.35;13.58019;6.044241;-21431.2;-11464.04;0.106311;-0.3416329;0;
-16640.29;-11418.4;35.38443;-22111.44;6.868739;7.846646;-18348.42;-9097.598;0.04123684;0.3083838;0;
-18253.76;-12594.69;52.68391;-23407.4;5.32062;8.039711;-19919.05;-9439.764;-0.218674;0.1131719;0;
-19174.5;-14251.8;-54.90872;-24116.48;8.26301;3.811769;-20479.22;-10785.25;0.1063825;-0.7315173;0;
6354.337;4134.609;-347.2066;5981.291;7.182981;2.66929;6771.541;2223.253;0.04130823;-0.01614151;0;
18364.33;13471.1;-310.6572;22955.45;11.06053;-3.830615;19927.11;10869.7;-0.3485373;0.5685808;0;
15533.61;11335.32;-65.09329;20186;12.18849;-6.238091;16922.66;9159.807;-0.08831774;-0.08166395;0;
16452.25;12199.05;-24.4233;20911.17;10.16651;-8.844096;17831.6;9973.127;-0.2181637;0.3082222;0;
17548.41;12880.53;19.03254;22254.78;10.49109;-11.84932;18965.7;10295.21;-0.7376832;0.6327492;0;
2312.082;892.7595;335.7292;3549.766;9.141377;-1.723234;2254.825;-259.0742;-0.6070073;0.0474073;0;
-20057.17;-15007.4;309.0301;-23990.15;7.792046;1.024737;-21738.21;-11718.71;-0.4114954;-0.2125097;0;
-16818.51;-11466.88;-11.21332;-22271.38;9.592877;-3.330123;-18517.47;-9236.333;-0.2811472;-0.1473288;0;
-18126.29;-12406.45;8.147593;-23296.79;8.310441;-2.790913;-19795.36;-9280.307;0.238874;0.6324273;0;
-18984.73;-14126.92;-58.92064;-23868.8;9.507539;2.436438;-20278.96;-10654.15;-0.02123535;0.5668245;0;
6419.806;4181.607;-342.0472;6162.354;11.0392;4.041519;6868.652;2240.349;-0.3460507;-0.08341847;0;
18401.53;13521.74;-299.0062;23025.18;-2.368475;2.22898;19971.19;10919.08;-0.08583364;0.2415021;0;
15658.04;11452.62;-46.62938;20301.09;-5.246484;3.231484;17042.46;9281.471;-0.2806494;0.1762921;0;
16565.04;12317.24;-20.22077;21037.39;-0.7532336;-0.9246435;17946.2;10085.83;-0.02049805;0.1111476;0;
17484.46;12812.9;38.20769;22192.83;-2.493789;-1.593483;18900.13;10228.21;0.2393919;0.4358726;0;
2175.734;790.0034;360.4448;3389.724;5.947834;-1.32395;2107.013;-331.2154;-0.020718;0.1755653;0;
-20020.19;-14928.83;308.6241;-23970.35;6.812514;-2.193398;-21712.26;-11549.06;0.1742048;-0.3443499;0;
-16693.47;-11376.96;0.765476;-22150.84;10.42299;3.368268;-18396.56;-9060.946;0.1090625;-0.01916716;0;
-17684.77;-11998.43;27.73553;-22873.49;13.15918;4.2356;-19357.56;-8949.894;0.4987569;0.3056888;0;
-18275.72;-13460.54;-59.01438;-23158.79;1.155895;7.714396;-19536.04;-10180;0.5632231;-0.0844224;0;
6702.362;4391.751;-338.2678;6456.089;-0.4528568;10.11803;7197.165;2376.301;-0.2819183;-0.1493049;0;
18408.05;13522.42;-307.6775;23025.72;-7.283929;4.414375;19980.82;10945.92;-0.4115697;0.04574713;0;
15723.57;11532.18;-80.59171;20369.1;-11.83194;3.673188;17108;9352.886;-0.2162541;-0.2791356;0;
16585.28;12330.56;-47.38675;21060.35;-6.662485;4.473232;17972.76;10098.11;0.3037019;-0.2138877;0;
17508.64;12852.5;26.67054;22221.33;-8.196032;3.999856;18923.18;10280.74;0.5632662;-0.08373813;0;
2297.063;908.1918;365.2392;3515.159;-3.699818;1.718479;2243.963;-288.4699;0.1728961;-0.1486213;0;
-19907.88;-14823.49;310.9305;-23858.37;-2.08851;1.046983;-21581.6;-11542.65;0.3026571;0.2413321;0;
-16623.41;-11282.77;-16.52994;-22070.75;-2.890695;1.983632;-18314.67;-9043.894;0.3673203;0.1761222;0;
-17653.02;-11958.93;25.30939;-22841.41;-0.5432653;2.115604;-19312.38;-8917.865;-0.02285284;-0.08392411;0;
-18531.49;-13672.22;-34.26423;-23430.74;-7.843737;4.189888;-19816.84;-10234.6;-0.2177319;-0.08383978;0;
6425.953;4196.279;-317.1657;6174.651;-10.38145;4.855508;6882.211;2276.215;-0.2824805;-0.0187882;0;
18408.02;13530.31;-293.6868;23027.3;-0.05589219;6.927039;19982.21;10918.68;0.04264008;0.1111654;0;
15719.11;11518.39;-49.28002;20355.21;1.551754;7.254993;17106.11;9351.519;0.3024666;0.1110537;0;
16589.87;12346.34;-0.5830771;21059.32;-5.41603;8.855293;17974.07;10115.3;0.4320974;0.4357788;0;
17484.03;12815.54;49.06443;22177.62;-6.213895;9.181311;18898.3;10227.17;0.1068265;0.5652756;0;
2231.413;854.8094;366.668;3395.59;-7.078307;6.358802;2153.613;-290.4081;-0.1531502;0.1099362;0;
-19599.44;-14544.31;334.3781;-23597.6;-8.812508;6.955259;-21289.47;-11286.84;-0.1529963;0.1747931;0;
-16351.32;-11068.78;19.54392;-21826.63;-5.45475;-2.429096;-18045.87;-8883.388;-0.02290792;0.2395848;0;
-17686.43;-12013.75;45.88604;-22902.46;-4.913405;-4.83798;-19368.3;-8990.81;0.04208244;0.3043114;0;
-18158.96;-13446.21;-38.80502;-23065.88;-9.530169;-0.747282;-19424.27;-10190.59;-0.3477639;0.2390383;0;
6786.854;4406.868;-327.1055;6545.502;-10.4586;-1.818197;7292.267;2352.725;-0.4773491;-0.4108753;0;
18303.16;13433.74;-280.2065;22923.33;-9.376362;5.953467;19879.31;10861.07;-0.2170001;-0.4104625;0;
15690.39;11504.9;-35.68829;20328.11;-10.03653;6.952168;17073.91;9327.811;-0.08684741;-0.1501807;0;
16560.12;12300.68;4.374322;21031.18;-9.691648;12.37068;17944.4;10065.55;0.04317454;-0.3449318;0;
17421.8;12771.45;75.42796;22134.3;-10.82099;15.43934;18837.18;10201.72;-0.08680353;0.1751536;0;
2089.353;772.8945;387.1798;3315.326;-7.461211;4.037034;2047.056;-428.288;-0.1516836;0.4998143;0;
-20273.26;-15102.64;308.908;-24228.44;-6.381987;2.157516;-21945.69;-11833.97;0.04337079;0.04454064;0;
-17010.52;-11572.15;-21.37712;-22480.79;-12.60487;-1.662557;-18711.22;-9279.074;0.1732619;-0.02047145;0;
-17953.54;-12159.42;16.45348;-23133.79;-12.19006;-4.206177;-19626.08;-9096.197;0.1081205;0.1744512;0;
-18572.49;-13678.05;-63.05434;-23464.86;-17.87124;-6.546292;-19858.34;-10366.87;0.04304448;0.1093085;0;
