Fp1;Fp2;O1;O2;POLY3;POLY4;A1;A2;Video;Audio;event;
20280.3;12594.43;1477.602;20291.06;12.58794;-10.62929;17739.39;8884.042;-0.1379906;-0.7764897;0;13:05:40 Глаза открыты;
23165.78;14631.21;3298.232;23196;12.97743;-14.1016;20372.34;10438.52;-0.007917296;0.1338333;0;
6308.62;3921.545;3413.702;6592.616;10.15135;-9.130813;5504.989;1742.3;0.3818947;0.1336989;0;
-25404.8;-17390.64;2572.35;-24993.51;9.671659;-7.982989;-22971.56;-12168.46;0.4464783;-0.3861742;0;
-24799.22;-15309.73;1048.811;-24979.64;4.973868;-5.496661;-21811.92;-10877.23;0.121193;-0.06094948;0;
-21325.89;-12410.72;-1222.102;-21402.09;0.01140172;-2.476967;-18572.64;-7918.052;-0.2037655;0.4588505;0;
-26623.26;-17656.61;-2974.696;-26654.94;4.164576;-4.684854;-23647.03;-11274.83;-0.07362606;0.2634874;0;
1313.745;1282.265;-3070.001;731.0789;3.490806;-3.943334;1812.761;-292.7625;-0.2684541;-0.2565161;0;
23266.76;15037.37;-2326.429;23076.6;8.644862;-8.49415;20750.78;10472.43;-0.1382497;0.1335457;0;
20786.71;12556.86;-908.2096;20895.62;14.3296;-10.29409;18004.98;8937.208;-0.07314343;0.003476853;0;
20457.64;12742.93;1530.072;20468.11;8.420707;-15.30735;17911.54;9017.059;-0.5278413;-0.3213634;0;
23147.42;14630.07;3320.165;23178.4;3.187333;-21.05238;20359.46;10444.48;-0.007572215;-0.1911058;0;
6253.098;3921.608;3418.934;6549.21;11.75795;-18.01705;5492.403;1699.016;0.3822394;-0.3208484;0;
-24942.23;-16874.58;2591.006;-24524.83;21.52539;-19.33855;-22486.8;-11728.57;0.2519207;-0.2555587;0;
-24224.31;-14785.44;1059.765;-24400.82;4.624556;-14.3625;-21256.68;-10440.39;0.1217329;-0.3852366;0;
-21074.9;-12241.66;-1240.863;-21125.23;-2.547387;-9.726368;-18349.28;-7795.524;-0.07329147;-0.5147842;0;
-26394.13;-17403.87;-3001.73;-26433.82;-2.812271;-11.25714;-23450.16;-11073.93;-0.2031525;0.07043917;0;
1383.346;1387.055;-3070.319;765.5306;-12.25392;-11.3798;1865.139;-256.297;-0.137981;-0.05956631;0;
23319.29;15096.57;-2291.077;23119.37;4.906027;-7.818388;20813.02;10526.07;-0.007907715;0.07042824;0;
20985.67;12746.21;-865.7712;21092.19;14.41194;-3.8586;18200.47;9131.332;-0.2677691;0.5251288;0;
20562.49;12855.06;1570.5;20571.41;14.19639;-9.682117;18014.54;9125.233;-0.7872388;0.1347972;0;
23253.64;14725.04;3366.643;23289.28;19.20597;-11.27992;20463.02;10539.15;-0.006839693;-0.3201097;0;
6406.576;4009.438;3469.769;6713.122;19.52146;-15.75638;5629.329;1801.427;0.3829712;0.005048671;0;
-24817.45;-16800.76;2634.919;-24399.57;23.78875;-22.70659;-22361.65;-11638.5;-0.1371523;0.1349783;0;
-24074.75;-14686.3;1090.391;-24278.14;16.59756;-16.45448;-21103.44;-10392.01;0.05788752;0.004907971;0;
-20566.25;-11754.14;-1199.43;-20659.48;14.10263;-14.56249;-17838.68;-7500.764;0.2527314;0.1998051;0;
-25325.84;-16479.73;-2937.054;-25406.17;5.984136;-14.68182;-22399.86;-10481.13;-0.1373266;0.524441;0;
2212.047;1942.844;-2992.995;1580.091;-8.892332;-11.85385;2641.913;103.8036;-0.3320906;0.3939794;0;
23453.22;15172.19;-2215.908;23259.4;7.929441;-14.65516;20926.3;10624.99;-0.006920259;0.0687468;0;
20960.93;12748.28;-803.7336;21071.76;17.09752;-16.51589;18178.86;9141.537;0.5128254;0.003710365;0;
20492.7;12772.69;1626.603;20504.75;7.36843;-12.48044;17943.99;9035.619;0.4473428;0.1986087;0;
23147.35;14616.91;3422.471;23174.58;7.62847;-9.386749;20355.03;10441.33;-0.1378128;0.1984091;0;
6458.526;4004.61;3527.29;6737.245;1.391514;-12.92735;5661.909;1736.114;0.1871624;-0.321529;0;
-24501.58;-16528.61;2690.571;-24109.26;-6.513138;-15.05776;-22067.75;-11493.17;0.4468437;-0.3212059;0;
-23762.27;-14442.21;1128.058;-23965.27;1.66508;-12.96622;-20809.57;-10171.19;-0.1383113;0.06892089;0;
-20792.16;-12006.06;-1178.136;-20879.22;7.022042;-13.35502;-18049.26;-7585.01;0.05672965;0.06885163;0;
-25498;-16683.64;-2912.501;-25597.39;-2.363112;-11.26519;-22599.66;-10607.08;0.3815094;0.0038151;0;
2518.054;2074.594;-2967.39;1875.75;-6.982438;-7.302004;2820.443;159.1673;0.2511913;0.06877862;0;
23540.42;15189.99;-2194.217;23357.22;-4.563549;-14.59562;20960.77;10634.62;0.3159063;0.003742157;0;
20933.16;12747.87;-772.0385;21039.86;-4.491614;-21.34605;18169.76;9148.204;0.4455235;0.1336731;0;
20842.01;13112.41;1670.447;20843.74;-4.621799;-12.41612;18288.28;9369.958;-0.009695519;-0.1263306;0;
23679.89;15151.96;3464.554;23707.9;-5.28674;-7.045128;20886.87;10985.59;-0.3994898;-0.6459424;0;
6905.537;4445.175;3551.996;7200.969;0.411999;-12.73148;6090.195;2139.77;0.250585;-0.5153586;0;
-24074.04;-16080.87;2699.541;-23659.99;7.645254;-14.05828;-21652.62;-11088.51;0.5102026;-0.1900041;0;
-23308.36;-14012.52;1124.681;-23497.51;1.408281;-13.91019;-20349.85;-9857.173;0.1198859;-0.3847152;0;
-20475.74;-11762.16;-1196.033;-20540.56;-3.414929;-15.90564;-17743.92;-7517.314;-0.01016927;-0.1894266;0;
-25472.33;-16625.34;-2942.687;-25548.81;7.037352;-12.54063;-22574.47;-10569.74;-0.1400937;0.3305025;0;
2345.275;1955.499;-3006.509;1703.782;10.58025;-10.04972;2658.118;100.6959;-0.139953;-0.1246011;0;
23495.22;15140.02;-2223.521;23304.55;13.98587;-12.31699;20913.47;10579.42;-0.009877662;-0.7741492;0;
20974.36;12791.63;-795.5659;21081.12;21.74135;-11.50081;18210.4;9194.061;0.1200669;-0.513502;0;
20631.44;12901.7;1628.422;20636.43;11.00224;-13.49868;18071.27;9159.444;-0.009988381;-0.2531167;0;
23239.92;14713.41;3410.826;23270.33;5.164034;-15.36064;20446.29;10547.33;-0.139913;-0.3827971;0;
6527.505;4068.427;3503.569;6820.049;5.89578;-12.19707;5735.189;1791.321;0.1200969;-0.05757571;0;
-24384.91;-16409.32;2660.658;-23980.58;-0.1383643;-11.71594;-21962.79;-11408.28;-0.009958433;0.3972535;0;
-23734.6;-14331.4;1098.363;-23944.56;5.889995;-8.890942;-20786.51;-10094.65;-0.1398831;0.5267891;0;
-20609.38;-11760.27;-1201.117;-20715.41;9.500422;-7.274478;-17894.13;-7457.964;0.05515947;0.3313577;0;
-25036.57;-16278.15;-2928.635;-25153.37;4.869176;-5.860528;-22133.48;-10364.69;-0.009863297;0.2010901;0;
2662.197;2172.053;-2991.878;2009.965;7.945743;-3.912195;3051.911;217.7982;-0.07482073;0.1359207;0;
23472.15;15140.48;-2215.104;23283.08;-0.9035004;-6.520537;20928.29;10586.55;0.3150585;-0.1240853;0;
20965.1;12790.08;-789.4376;21072.11;-7.534025;-6.982866;18184.54;9188.864;0.2497746;-0.2538953;0;
20596.07;12857.53;1625.08;20604.34;-0.4265078;-11.86548;18036.72;9110.104;-0.1402804;-0.1237055;0;
23185.03;14671.08;3414.391;23214.12;-2.23474;-16.40828;20388.21;10486.13;-0.2700742;0.00635352;0;
6304.003;3887.956;3532.711;6599.417;9.422779;-17.19558;5505.16;1738.281;-0.009933426;0.2662165;0;
-24617.82;-16627.75;2699.172;-24206.54;18.12085;-19.05377;-22202.17;-11461.41;-0.07489078;0.2009817;0;
-23552.41;-14309.59;1150.831;-23768.01;16.09291;-20.8431;-20617.92;-10082.33;-0.1397829;0.005877694;0;
-21178.16;-12534.38;-1138.738;-21268.95;20.43099;-22.02785;-18480.19;-8064.428;-0.00970774;-0.05909555;0;
-26908.71;-17888.93;-2877.672;-26976.09;14.11383;-21.13494;-24008.94;-11496.22;-0.1396327;-0.1889709;0;
1466.974;1477.977;-2937.952;829.1951;12.08991;-20.97974;1863.937;-180.3668;-0.3993617;-0.05884629;0;
23533.85;15292.31;-2146.802;23324.38;5.714752;-17.14075;20986.17;10728.53;-0.07412374;0.07114753;0;
21069.6;12834.96;-703.5882;21167.38;-1.257215;-14.51125;18282.21;9205.515;0.3157548;-0.123826;0;
20653.38;12950.88;1738.485;20652.2;-1.457023;-11.0806;18091.98;9210.929;-0.009399193;-0.2536363;0;
23377.24;14845.65;3537.989;23395.76;-7.884944;-6.112855;20573.67;10656.71;0.05557759;-0.1884141;0;
6579.965;4205.618;3631.417;6843.313;0.7631668;-7.714303;5748.388;1897.507;0.6402278;-0.05829006;0;
-24267.47;-16230.65;2777.102;-23932.58;6.79062;-6.500859;-21906.02;-11309.64;0.5096498;-0.05823149;0;
-23333.69;-14072.68;1224.34;-23623.19;2.96638;-7.432088;-20448.33;-10022.41;0.2492684;-0.3830097;0;
-20299.08;-11558.41;-1075.078;-20459;3.967777;-9.768962;-17644.77;-7468.263;0.1190832;-0.1877228;0;
-24884.53;-16171.72;-2804.503;-25045.18;4.031139;-4.601582;-22051.76;-10357.22;-0.01097112;0.1373025;0;
2863.043;2270.08;-2870.151;2176.942;5.433608;-0.8459752;3186.524;287.3368;-0.01096009;-0.1227048;0;
23474.27;15108.72;-2122.141;23274.88;0.9401699;-3.658347;20900.28;10544.3;0.1839529;0.2672226;0;
20880.81;12724.56;-688.8847;20973;-4.486758;-4.793381;18089.71;9111.216;0.3137028;0.7217254;0;
20696.13;12951.74;1748.989;20685.79;-0.1953424;-1.305513;18116.62;9175.742;-0.3362858;0.5260982;0;
23210.57;14698.75;3524.4;23229.46;1.613515;-0.768338;20397.88;10522.36;-0.5308499;0.4606023;0;
6499.06;4061.15;3636.208;6729.428;-3.210877;3.452237;5649.588;1729.136;0.3142589;0.5900741;0;
-24232.48;-16248.16;2801.128;-23939.48;-3.475095;8.003486;-21930.96;-11366.18;0.2489758;0.4595465;0;
-23571.26;-14199.33;1233.662;-23884.85;-8.361723;3.976589;-20750.8;-10021.24;-0.1410784;-0.06065398;0;
-20938.19;-12167.93;-1063.267;-21124.51;-13.91205;2.097072;-18345.29;-7781.696;0.1839;-0.3204624;0;
-26212.36;-17250.97;-2813.537;-26381.5;-7.200266;3.099709;-23422.66;-11022.13;-0.01118679;-0.1252384;0;
1634.602;1565.162;-2914.83;942.2677;-4.447341;2.56073;1969.11;-138.7123;-0.5309143;-0.06014519;0;
23350.65;15111.08;-2152.017;23132.65;-3.57124;0.5487914;20780.44;10515.42;-0.4004461;0.06984995;0;
20973.06;12752.21;-725.4457;21062.03;-1.759967;-0.9923675;18160.29;9103.397;-0.2701091;0.1347471;0;
20538.12;12821.25;1685.384;20517.38;0.3852554;-3.335712;17948.33;9055.458;-0.139903;0.199579;0;
23228.27;14711.53;3477.196;23229.83;3.265256;-6.212565;20400.1;10492.9;-0.2047298;0.004476468;0;
6340.707;3985.713;3598.639;6556.23;2.658763;-5.469511;5461.051;1697.613;-0.1395567;-0.4502994;0;
-24869.31;-16821.05;2758.693;-24623.94;5.938621;-4.727263;-22609.14;-11875.24;0.1204529;-0.2549449;0;
-24233.05;-14797.8;1204.264;-24613.33;-1.569434;-7.736624;-21455.71;-10605.8;0.3152339;-0.1247541;0;
-21002.11;-12139.53;-1079.924;-21241.7;-9.672182;-9.403423;-18458.85;-7830.5;0.5098191;-0.05966138;0;
-25563.4;-16709.09;-2813.92;-25791.08;-1.892931;-8.121299;-22840.64;-10768.79;0.1195028;0.3302026;0;
2205.821;1955.812;-2897.205;1468.525;-3.364898;-8.782968;2496.696;26.35778;-0.595258;0.07000147;0;
23281.96;15013.31;-2147.654;23051.18;3.604708;-6.295835;20707.55;10429.99;-0.3347905;-0.1249709;0;
20851.19;12644.3;-731.8;20920.36;15.18901;-5.016894;18033.75;8997.368;0.05534994;0.005089349;0;
20653.4;12935.6;1696.652;20610.6;-2.375047;-4.208058;18056.03;9139.033;-0.204575;0.07005159;0;
23446.67;14920.46;3498.729;23439.92;-9.406235;-1.122676;20610.64;10726.02;-0.5292062;0.1349486;0;
6789.77;4342.385;3615.809;6986.333;-8.994641;-6.078163;5863.612;1903.184;-0.3337724;0.00487825;0;
-24210.44;-16216.27;2762.946;-23983.09;-16.1529;-7.411714;-22011.07;-11536.8;0.3162364;0.06984071;0;
-23934.8;-14499.71;1197.674;-24321.61;-5.821541;-9.54766;-21194.29;-10238.03;0.5108206;0.2646725;0;
-22214.53;-13409.85;-1094.222;-22472.1;-3.471167;-13.82485;-19713.13;-8757.355;0.1854707;0.06950458;0;
-27742.67;-18745.27;-2837.027;-27972.79;3.833338;-8.586413;-24995.1;-12374.73;-0.07458507;0.1344021;0;
1099.303;1159.699;-2912.528;368.2844;15.95328;-8.44382;1491.452;-438.3397;-0.2044448;-0.060635;0;
23259.03;15070.24;-2148.624;23015.23;4.684113;-3.612687;20714.8;10476.77;-0.2042394;-0.3854108;0;
20810.53;12571.44;-745.9818;20880.76;2.669674;1.548446;17976.23;8888.958;-0.2690015;-0.1251542;0;
20512.26;12804.86;1660.746;20476.47;0.3234432;-1.333254;17915.16;9035.37;-0.2037639;0.524645;0;
23424.82;14903.34;3463.327;23414.54;-8.786561;1.28042;20587.73;10661.3;-0.07362444;0.3292159;0;
6329.282;3927.061;3585.065;6521.131;4.886298;-5.017201;5423.31;1708.58;0.05638422;-0.3207884;0;
-25181.07;-17183.65;2752.754;-24962.68;14.12479;-9.834809;-22972.18;-12183.86;0.1862622;0.06933801;0;
-24162.24;-14772.78;1212.605;-24557.83;2.924813;-8.217337;-21436.45;-10612.96;0.2510424;0.3291377;0;
-21765.48;-12960.16;-1096.891;-22029.82;-2.303039;-12.36196;-19251.56;-8511.208;0.2507902;-0.1259644;0;
-27421.35;-18458.23;-2846.534;-27654.08;1.316598;-4.579702;-24698.77;-12104.91;0.05563616;-0.2557725;0;
1372.48;1317.698;-2895.257;648.8048;0.8467603;3.328703;1665.184;-303.5608;0.05558026;0.004353833;0;
23337.29;15091.11;-2125.155;23104.35;2.386151;-4.24353;20744.62;10486.02;0.1854591;0.06931681;0;
20802.11;12582.98;-704.8578;20875.49;8.613044;-5.109983;17979.69;8903.435;-0.07459662;0.004279808;0;
20564.66;12851.71;1719.632;20532.32;-4.256333;-4.301115;17962.89;9074.476;-0.07452167;0.1342102;0;
23107.44;14591.74;3490.451;23101.76;-14.56718;-8.85151;20270.84;10351.93;0.2503899;0.06910801;0;
6200.63;3856.344;3599.762;6383.987;-2.897273;4.017802;5316.043;1549.354;0.380073;-0.2557982;0;
-24802.96;-16738.7;2759.347;-24597.69;-1.0857;12.85527;-22586.28;-11887.92;0.2497564;-0.3854758;0;
-24432.33;-14879.4;1174.338;-24821.83;4.94361;7.885736;-21717.68;-10653.23;-0.2052659;0.06968293;0;
-21650.9;-12664.38;-1125.405;-21911.59;12.8419;9.21747;-19154.32;-8168.174;-0.1400923;0.2645149;0;
-25832.63;-17025.71;-2833.603;-26107.78;7.336637;5.926167;-23140.89;-11111.16;0.2498525;-0.1255549;0;
2399.898;2052.664;-2882.604;1635.147;7.262892;2.638049;2683.831;47.43716;-0.1402026;0.06947328;0;
23327.62;15038.26;-2114.718;23094.19;5.245862;2.702381;20750.57;10466.34;-0.2699964;0.3292728;0;
20777.97;12586.66;-692.7126;20852.03;2.963416;0.6902997;17954.27;8918.268;-0.009855759;-0.1258294;0;
20480.46;12751.61;1738.855;20447.32;2.022433;-0.04720616;17872.67;8953.519;-0.2697152;-0.320605;0;
23135.46;14632.06;3529.676;23132.73;1.216118;0.3547389;20305.15;10415.49;-0.1395095;0.00455384;0;
6160.439;3868.855;3626.235;6338.102;-3.473178;-3.329618;5288.767;1573.679;0.05553268;0.06951662;0;
-25100.31;-17024.05;2770.145;-24899.8;-10.77071;-6.809324;-22884.87;-12100.94;0.1854116;-0.3853246;0;
-24069.56;-14655.7;1208.27;-24477.09;-1.985973;-0.7741398;-21374.83;-10555.38;0.1202579;-0.7747415;0;
-21117.02;-12235.73;-1099.878;-21396.97;1.365901;2.50868;-18629.89;-7960.491;-0.1397323;-0.3191917;0;
-26329.65;-17474.38;-2842.756;-26564.1;1.430902;4.11375;-23645.08;-11343.63;-0.07462454;-0.1239689;0;
1903.641;1600.9;-2871.212;1191;8.128245;7.123726;2151.818;-123.1798;-0.4643536;-0.3187464;0;
23438.7;15147.39;-2074.288;23208.56;-2.999333;8.791142;20835.84;10540.71;-0.3989197;-0.3184261;0;
20772.2;12574.34;-644.3593;20846.65;-8.020161;11.66245;17948.91;8903.544;0.05625255;-0.1881714;0;
20513.21;12789.24;1805.026;20479.15;-7.275168;11.24896;17906.76;9009.806;-0.07373866;0.2018217;0;
23132.6;14619.32;3588.284;23128.05;-12.42542;11.84038;20293;10376.48;-0.2035992;0.07168422;0;
5972.046;3638.718;3675.82;6162.66;-2.968465;11.42671;5060.268;1444.682;-0.008492648;-0.2532245;0;
-24807.52;-16760.98;2836.328;-24608.05;2.25943;10.00858;-22621.56;-11782.03;-0.07345145;-0.1880028;0;
-23868.16;-14474.88;1259.269;-24272.44;2.25716;11.53901;-21169.72;-10334.38;-0.138345;-0.3177485;0;
-21257.09;-12395.76;-1060.175;-21541.48;3.661412;11.12564;-18773.96;-8008.254;0.2515981;0.007407455;0;
-25735.54;-16918.09;-2779.245;-26018.42;7.275055;11.44938;-23062.94;-10964.2;0.05644323;0.3322367;0;
2426.032;2086.492;-2825.584;1689.619;12.29061;11.37089;2674.369;128.0107;-0.5283195;0.07203353;0;
23316.54;15038.13;-2047.915;23098.21;5.647805;10.8236;20721.48;10458.61;0.1218847;-0.1229409;0;
20841.72;12647.3;-598.7411;20913.86;4.03454;12.21924;18020.06;8981.34;0.5765336;0.07208469;0;
20564.18;12839.81;1849.193;20534.86;-0.6585636;7.987164;17959.63;9047.012;-0.008751737;0.396849;0;
23132.48;14623.09;3630.407;23134.86;-5.949187;6.036756;20297.3;10399.64;0.0562244;-0.0583212;0;
6096.646;3743.105;3707.469;6288.914;-4.53669;5.293878;5186.761;1542.172;0.5109393;-0.3830993;0;
-24841.71;-16798.41;2848.392;-24634.04;-8.551596;1.604497;-22656.57;-11761;0.4454586;0.1370244;0;
-23610.03;-14264.22;1287.001;-24009.91;-0.3039802;7.899158;-20913.45;-10200.17;0.3800436;0.4617234;0;
-20846.82;-12032.06;-1033.689;-21111.47;4.451747;10.50356;-18360.54;-7877.863;0.1197924;0.2013901;0;
-25990.88;-17138.48;-2776.742;-26249.83;6.323284;12.30142;-23323.22;-11151.09;-0.2051647;-0.1886163;0;
2180.921;1826.437;-2819.008;1437.28;14.42126;17.17869;2415.552;18.92305;0.1848455;-0.1884268;0;
23488.38;15168.27;-2041.205;23260.74;4.895921;10.59735;20891.66;10582.88;0.4445291;0.1365993;0;
20902.53;12722.09;-603.126;20978.82;-0.4676334;6.366773;18088.27;9056.113;0.1842131;0.07149466;0;
20618.96;12891.25;1842.189;20593.9;3.283881;7.900983;18016.5;9110.45;-0.07584136;0.1363902;0;
23165.23;14656.33;3619.568;23169.58;-0.3367414;7.424164;20337.33;10431.88;-0.1407325;0.3311552;0;
6236.141;3899.249;3714.382;6432.057;5.960237;3.732764;5357.619;1612.807;0.05431094;-0.05898167;0;
-24675.37;-16626.04;2858.203;-24445.73;10.77702;2.188406;-22451.79;-11729.48;0.5739951;0.006044938;0;
-24144.13;-14682.27;1261.57;-24517.61;4.402202;-0.9618683;-21417.07;-10443.98;0.5734183;0.07100622;0;
-21448.26;-12521.65;-1052.66;-21706.76;3.996613;-5.0468;-18935.39;-8040.499;0.1180708;-0.3188692;0;
-25811.18;-16995.07;-2772.894;-26077.07;-2.772557;-0.754882;-23103.9;-11016.31;-0.01198254;0.07125527;0;
2371.981;2026.59;-2838.151;1628.75;-11.81308;-0.285243;2659.703;93.22702;-0.2068725;0.00621632;0;
23294.1;15017.16;-2076.946;23077.21;-3.628558;3.599932;20719.87;10444.29;-0.07672997;-0.2536593;0;
20731.95;12548.18;-626.7747;20822.56;1.13051;8.151031;17920.47;8898.988;-0.1416202;0.1363997;0;
20494.57;12758.95;1830.495;20480.5;-8.114026;5.798561;17901.87;8975.191;-0.4663146;-0.05863944;0;
23101.25;14609.14;3609.823;23118.65;-12.05799;7.199254;20284.56;10405.79;-0.1410094;-0.3184499;0;
5933.438;3631.755;3678.722;6177.02;-12.91653;4.579808;5081.515;1496.404;0.4438384;-0.1232279;0;
-25370.96;-17307.62;2801.777;-25070.56;-17.65897;3.637445;-23106.05;-12136.34;0.5083598;0.006830618;0;
-24282.07;-14786.35;1228.251;-24604.65;-11.34556;1.691285;-21515.61;-10553.83;0.1830123;0.07179111;0;
-21704.55;-12755.3;-1082.822;-21884.88;-5.037525;-2.061337;-19147.84;-8397.613;-0.2069757;0.1366863;0;
-27442.94;-18455.54;-2827.512;-27566.57;-14.27586;2.361486;-24641.62;-12060.63;-0.3367024;-0.05835307;0;
1203.082;1141.871;-2867.962;551.884;-18.54843;2.894977;1592.057;-336.4887;-0.4013314;0.07164027;0;
23446.72;15214.37;-2071.261;23234.1;-15.51568;7.513768;20898.89;10635.4;-0.3359608;0.4613723;0;
20855.89;12635.04;-632.0893;20951.65;-16.30437;14.74025;18051.83;8971.479;0.2490828;0.5258761;0;
20617.78;12911.03;1802.697;20619.71;-12.53695;8.965032;18042.92;9174.451;0.5736693;0.200511;0;
23229.97;14722.39;3564.343;23259.39;-7.366785;7.884297;20426.47;10502.19;-0.01161323;-0.1894946;0;
6045.882;3787.46;3636.443;6297.346;-11.84639;9.684914;5243.524;1553.704;-0.01160157;0.005597863;0;
-24635.37;-16508.87;2779.811;-24312.71;-13.84421;5.857277;-22299.25;-11582.22;0.3782142;-0.0593751;0;
-23789.62;-14338.31;1204.277;-24041.76;-7.065149;15.42971;-20956.57;-10129.61;-0.07693728;-0.5140868;0;
-21243.06;-12331.27;-1100.525;-21371.53;-3.039562;19.56702;-18618.08;-7825.051;-0.4016967;-0.2537009;0;
-25672.03;-16835.34;-2825.458;-25815.04;-1.696361;18.67658;-22845.39;-10862.3;-0.4012931;0.1363581;0;
2480.037;2150.964;-2897.159;1827.076;-1.226142;23.3465;2856.59;154.0533;-0.2709551;0.1362211;0;
23308.26;15028.67;-2147.608;23129.86;4.937032;11.19938;20768.82;10480.47;-0.2706829;-0.05881786;0;
20758.58;12576.53;-730.7549;20872.35;9.553772;4.958954;17971.98;8968.213;-0.4003456;-0.05875875;0;
20508.63;12782.46;1683.297;20519.2;6.731133;0.6671852;17949.09;9020.827;-0.07510661;0.1362023;0;
23258.85;14760.03;3465.334;23299.38;6.657996;-6.098639;20465.5;10589.99;-0.1399985;0.07109813;0;
6235.824;3850.553;3566.987;6552.562;1.962257;-5.288777;5439.043;1716.565;-0.2048252;0.2009614;0;
-25256.63;-17229.16;2693.559;-24819.72;-2.928859;-9.905164;-22861.68;-12012.45;0.1202174;0.07082476;0;
-24566.4;-14983;1106.93;-24741.92;-5.069369;-0.04890252;-21635.93;-10510.09;-0.009838122;0.00578624;0;
-22143.25;-13164.21;-1209.019;-22190.91;-8.882668;8.993598;-19438.03;-8440.804;-0.2047303;0.1357151;0;
-27775.16;-18695.74;-2957.862;-27768.58;-11.9552;5.434588;-24817.07;-12064.92;-0.4643939;-0.1242906;0;
837.102;1005.212;-3007.16;290.5309;-13.55078;7.974357;1370.719;-382.5052;-0.5288946;-0.05919839;0;
23230.07;15078.39;-2218.049;23061.75;-17.89045;10.24376;20741.07;10532.89;-0.1385591;0.2007305;0;
20800.01;12556.28;-784.1653;20927.29;-20.01592;10.83632;18020.01;8918.24;-0.2683546;0.1355614;0;
20526.8;12841.17;1658.083;20564.86;-18.2545;15.84903;17991.46;9144.239;-0.2031176;-0.1894115;0;
23237.66;14728.77;3438.927;23294.12;-17.09708;19.71799;20460.47;10527.05;0.1219232;-0.6439925;0;
5816.122;3549.909;3517.961;6166.955;-11.98969;17.55472;5096.705;1449.363;0.05683333;-0.5783781;0;
-25085.46;-16948.06;2664.885;-24591.92;-9.029902;17.60407;-22585.97;-11813.19;0.3166456;0.07187644;0;
-24094.6;-14604.68;1101.898;-24173.35;-1.117574;15.77796;-21108.32;-10235.58;0.2513601;0.3966409;0;
-21593.47;-12622.14;-1185.873;-21537.37;2.701942;12.41296;-18821.19;-7893.326;0.1211728;0.136373;0;
-25824.69;-17019.91;-2902.958;-25812.37;12.1437;16.15141;-22853.12;-10892.52;0.05608374;0.00630129;0;
2640.592;2207.676;-2977.736;2068.581;24.32166;18.14467;3092.894;245.5622;-0.0739073;-0.05867238;0;
23336.38;15026.29;-2225.402;23193.93;11.90599;14.0406;20820.28;10521.99;0.05610165;-0.3184828;0;
20645.19;12485.23;-803.286;20782.39;9.415777;9.80669;17889.76;8895.624;-0.2038241;-0.05829342;0;
20416.13;12684.14;1618.898;20457.97;0.8988739;14.61948;17884.25;8966.521;-0.333554;0.2666019;0;
22986.6;14505.71;3402.468;23059.25;-12.49764;18.15477;20225.68;10347.92;0.3164546;0.2013667;0;
5830.345;3610.337;3518.895;6191.565;-3.10796;11.70629;5151.241;1488.347;0.5110387;0.2011643;0;
-25164.3;-17011.55;2691.554;-24638.8;-3.506978;10.02007;-22617.42;-11770.77;0.1207211;-0.3837439;0;
-24118.88;-14583;1132.507;-24184.25;-2.163308;6.526893;-21090.17;-10265.52;-0.07430222;-0.513293;0;
-21347.81;-12344.59;-1169.349;-21301.27;2.393217;2.70243;-18545.45;-7848.834;-0.009260218;-0.1229732;0;
-26113.92;-17202.42;-2899.898;-26035.56;-2.833124;5.044117;-23114.3;-10935.22;0.05571643;0.007085063;0;
2053.125;1802.989;-2965.043;1560.885;-0.6877996;5.106031;2532.637;76.72209;0.1855951;0.0720453;0;
23249.98;14978.01;-2210.598;23112.75;-7.116494;6.641386;20743.78;10453.73;0.445278;-0.1229291;0;
20669.74;12479.69;-800.241;20813.42;-14.74515;6.634713;17916.63;8897.218;0.2499286;-0.2527403;0;
20326.72;12609.95;1617.317;20382.51;-3.076039;11.58466;17800.97;8902.208;0.05477541;0.007383026;0;
22956.48;14458.77;3400.607;23028.45;1.616101;15.45803;20196.08;10296.79;0.3795571;0.2022776;0;
5729.657;3461.448;3518.192;6117.366;3.690582;15.4425;5045.716;1432.115;0.249241;-0.05779498;0;
-25360.38;-17245.4;2686.417;-24799.2;9.916164;20.11567;-22813.35;-11912.54;-0.2057808;-0.3176063;0;
-24495.03;-14950.05;1124.907;-24530.7;5.2845;11.85667;-21463.32;-10385.38;-0.1406067;-0.1873525;0;
-22122.39;-13125.81;-1171.663;-22036.84;2.466151;6.553231;-19316.04;-8300.001;0.05443661;0.1376725;0;
-26778.67;-17844.95;-2898.867;-26679.77;9.161478;8.154237;-23735.47;-11517.27;-0.01058543;0.3324362;0;
1949;1807.38;-2975.383;1455.657;15.44891;3.926241;2492.813;42.88456;-0.2054768;0.07223281;0;
23256.75;15027.9;-2230.297;23124.19;6.457432;9.883655;20767.29;10523.14;-0.2052704;-0.2526765;0;
20647.51;12449.64;-801.867;20797.57;-0.9164467;13.35671;17889.35;8857.191;-0.2700315;-0.1874553;0;
20350.73;12626.38;1622.658;20408.68;9.063833;11.66872;17826.28;8924.44;-0.2697601;-0.1872669;0;
22896.27;14415.53;3388.014;22970.61;12.67205;13.5995;20140.2;10249.01;-0.009619692;0.007823282;0;
5571.777;3393.441;3496.429;5975.47;13.52997;10.90652;4913.997;1361.545;0.05535731;0.07278278;0;
-25729.03;-17553.24;2658.46;-25147.17;17.93701;10.09189;-23159.54;-12185.47;-0.1396003;-0.5119964;0;
-24663.96;-15104.14;1087.358;-24722.08;13.83315;8.13924;-21630.66;-10632.45;-0.2044274;-0.6414167;0;
-21788.93;-12773.04;-1217.014;-21743.28;10.60406;3.24143;-18970.07;-8068.301;-0.204222;-0.5108375;0;
-26785.68;-17774.13;-2960.086;-26678.8;15.95204;9.802378;-23742.99;-11337.19;-0.07408211;-0.2504548;0;
1582.783;1523.416;-3030.185;1113.017;18.07947;15.21802;2087.711;-122.099;0.1858617;0.009666193;0;
23186.61;14942.3;-2269.927;23055.17;16.78851;7.030937;20677.02;10425.85;-0.009227083;0.009656481;0;
20618.24;12406.61;-860.728;20765.62;18.11178;3.808814;17869.28;8813.91;-0.2041198;0.009646778;0;
20314.85;12607.27;1566.667;20370.23;13.60561;3.738004;17792.11;8905.129;-0.00901271;0.009637085;0;
23013.88;14511.55;3355.318;23084.82;9.506099;0.1842744;20259.65;10351.01;0.120931;0.07459476;0;
5787.951;3533.055;3467.638;6186.468;12.71173;5.207687;5131.983;1458.014;0.1208095;0.009552448;0;
-25446.57;-17336.15;2639.35;-24861.52;14.10547;8.484496;-22867.35;-12033.62;0.1856555;-0.2503265;0;
-24579.12;-15030.19;1072.234;-24594.36;11.21091;4.99298;-21514.65;-10481.7;0.1854689;-0.444977;0;
-21977.65;-12990.81;-1228.468;-21860.95;9.056194;3.648305;-19140.12;-8172.96;0.1203152;-0.3795626;0;
-27082.72;-18044.99;-2962.393;-26918.46;11.39162;4.381451;-23995.25;-11576.99;-0.0747077;-0.1193118;0;
1337.481;1431.283;-3044.53;890.5739;11.44752;4.912912;1941.457;-219.1195;-0.5943714;0.1406775;0;
23136.01;14978.39;-2271.389;23007.42;12.90891;1.424863;20672.51;10467.43;-0.6587415;0.01060141;0;
20730.04;12485.23;-815.2125;20885.2;16.04475;-1.456713;17970.28;8901.274;-0.1383408;-0.3142459;0;
20493.66;12798.24;1621.007;20557.61;10.46892;-1.120334;17980.75;9099.773;-0.2031692;-0.4438649;0;
23163.84;14653.35;3385.054;23238.15;7.980155;-0.7842938;20409.05;10508.35;-0.2679324;-0.5733535;0;
5974.661;3697.592;3471.638;6384.076;6.297198;-4.534489;5296.768;1551.371;0.2520756;-0.2479407;0;
-25004.52;-16872.72;2615.86;-24390.83;1.066934;-6.472377;-22427.17;-11703.51;0.3167896;-0.1177569;0;
-24061.61;-14649;1028.621;-24058.04;7.227803;-6.264925;-20995.08;-10187.49;0.05660196;-0.3125406;0;
-21568.56;-12693.98;-1289.591;-21463.26;11.90959;-8.602971;-18722.21;-7974.971;0.3813818;-0.1173246;0;
-26459.64;-17512.45;-3028.577;-26308.13;4.127115;-2.097165;-23403.67;-11144.69;0.3809986;-0.05223934;0;
1988.456;1777.255;-3093.859;1537.856;-0.2976614;3.531386;2481.735;90.24278;-0.07415564;-0.1821215;0;
23397.12;15107.75;-2318.872;23266.59;1.511299;0.379762;20882.63;10591.75;-0.2040158;-0.1169712;0;
20797.23;12603.88;-881.0451;20952.94;0.2369826;-0.08950008;18050.98;9017.36;-0.2687782;-0.181821;0;
20464.6;12747.47;1554.273;20529.37;0.3714424;2.388836;17941.95;9052.434;-0.2685081;-0.05170362;0;
23119.35;14616.15;3329.849;23195.24;2.915689;2.989282;20358.83;10457.86;-0.203271;0.07828303;0;
6014.064;3775.674;3412.491;6405.702;-4.856773;3.790074;5329.398;1610.295;-0.008164679;-0.181665;0;
-24892.34;-16744.21;2550.4;-24330.6;-10.07681;5.527822;-22330.62;-11650.94;0.3816476;-0.2464498;0;
-24014.6;-14591.09;949.6721;-24046.25;-6.650429;1.302343;-20960.64;-10165.44;0.1863621;0.2085692;0;
-21604.85;-12691.98;-1392.886;-21517.21;-6.308954;-1.378161;-18775.42;-7898.706;-0.6584007;0.2083597;0;
-26003.17;-17187.32;-3120.805;-25912.13;-5.163539;-1.041862;-22983.07;-10961.65;-0.7876738;0.2731176;0;
2570.589;2109.084;-3162.428;2075.848;-5.024629;-1.710644;3032.197;212.5998;-0.3321109;0.3378105;0;
23383.53;15057.22;-2385.514;23258.41;-0.1968088;-2.914618;20865.54;10556.45;0.1229942;0.2725038;0;
20714.41;12546.05;-937.6564;20863.33;4.090297;-5.791894;17966.65;8969.435;0.1228706;0.4021646;0;
20572.97;12844.66;1506.558;20627.83;4.420979;-0.3605182;18050.89;9129.212;-0.3969916;0.2718259;0;
23352.04;14848.15;3281.463;23426.01;8.970888;3.2568;20589.22;10707.24;-0.3965927;0.141618;0;
6394.967;3969.22;3362.874;6803.006;3.067376;1.24404;5684.073;1825.801;0.1885119;0.2714104;0;
-24906.74;-16892.66;2484.965;-24293.17;-1.82485;2.113568;-22358.02;-11692.13;0.3182572;0.141203;0;
-24285.72;-14695.75;883.1161;-24275.46;3.133477;0.03509542;-21211.27;-10239.81;0.1230353;0.1410612;0;
-21735.46;-12726.03;-1438.448;-21626.26;0.9868745;-1.639513;-18901.4;-8038.559;0.4477484;0.3358214;0;
-26617.31;-17697.77;-3165.103;-26498.2;6.94773;-2.575627;-23580.21;-11330.65;0.3173638;0.01064728;0;
1893.973;1689.764;-3205.495;1409.194;12.96897;-4.4485;2418.773;24.48487;-0.07275909;-0.3791675;0;
23415.38;15143.01;-2411.64;23283.47;3.77891;-4.310064;20927.1;10640.47;-0.07268599;-0.05394977;0;
20812.8;12619.75;-951.7307;20963.45;-0.578168;-2.497255;18057.83;9030.596;-0.007645609;0.1410065;0;
20492.68;12762.12;1499.494;20550.17;-1.582941;-8.523026;17967.82;9066.327;0.1872641;0.07589746;0;
23110.09;14621.95;3269.815;23188.25;-3.187965;-13.93996;20354.59;10472.01;0.2520433;0.01085383;0;
5950.436;3744.124;3346.084;6327.869;-8.208604;-6.223097;5273.657;1556.913;-0.008079344;-0.1840591;0;
-25085.12;-16923.41;2473.408;-24533.17;-12.48726;-2.331956;-22523;-11818.21;0.2517982;0.2059299;0;
-24447.24;-14840.89;856.2973;-24467.16;-11.13554;-2.26263;-21396.85;-10346.33;0.3165125;0.400625;0;
-22038.87;-12965.37;-1487.229;-21948.39;-11.05701;-1.389578;-19199.53;-8140.699;0.1862598;0.0104184;0;
-26398.3;-17525.75;-3203.075;-26299.66;-10.37631;3.50145;-23356.92;-11210.99;0.3809746;0.01040793;0;
2252.412;1928.328;-3232.98;1766.518;-11.70506;9.057393;2723.276;128.8961;0.1856898;0.07536483;0;
23305.74;15007.13;-2449.031;23171.62;-3.11948;4.024694;20778.04;10491.12;-0.00939881;-0.1845803;0;
20682.58;12492.79;-992.3944;20827.88;2.844526;1.475299;17934.04;8911.805;0.1855127;-0.2493622;0;
20495.68;12772.12;1456.404;20549.8;3.578602;2.210629;17967.87;9059.459;0.05539157;0.1406925;0;
23209.66;14709.57;3228.83;23278.8;10.87602;-0.2028563;20452.02;10560.25;-0.009631427;0.2055184;0;
6203.564;3868.188;3304.733;6596.723;0.7510387;-0.06868662;5537.583;1742.46;0.1852803;-0.1844921;0;
-25000.83;-16921.39;2416.982;-24418.88;-4.474629;-0.3365493;-22436.64;-11738.34;0.1201268;0.01059528;0;
-24382.6;-14777.65;817.9186;-24385.18;-2.929891;-4.556075;-21333.95;-10303.94;0.05503872;0.07555199;0;
-21931.56;-12933.23;-1496.709;-21808.76;-8.485677;-6.359975;-19111.31;-8166.183;0.1849181;-0.05445862;0;
-26845.58;-17875.4;-3226.944;-26724.92;0.6989016;-9.099824;-23799.57;-11492.99;0.1197649;0.2054655;0;
1681.142;1613.818;-3278.502;1188.648;4.516593;-10.63129;2224.838;-60.85307;-0.2051921;0.3351937;0;
23273.37;15030.47;-2504.658;23136.83;5.248013;-12.42908;20786.94;10520.86;-0.1400186;0.2049222;0;
20670.93;12460.7;-1058.773;20820.75;8.324198;-17.0383;17914.46;8873.938;0.1849588;0.334651;0;
20353.17;12630.05;1387.406;20411.72;7.244107;-8.045706;17827.4;8937.281;-0.01012905;0.2693474;0;
22992.41;14505.48;3156.622;23067.59;11.65746;-2.679109;20241.25;10336.25;-0.2050209;0.1391421;0;
5458.785;3335.679;3229.755;5872.807;0.05781882;-2.408485;4825.913;1373.754;-0.009912868;0.2039696;0;
-25668.51;-17468.89;2365.162;-25065.72;-9.118291;3.01943;-23074.38;-12064.09;-0.07487025;0.008862615;0;
-24331.16;-14830.64;787.6395;-24329.54;-3.817843;-2.141167;-21284.43;-10383.93;-0.3996317;-0.2510157;0;
-21585.05;-12577.52;-1527.926;-21466.51;-5.019456;-3.947494;-18745.54;-7911.127;-0.4641975;-0.05586141;0;
-26141.34;-17286.55;-3244.074;-26028.98;-2.267746;-3.742579;-23111.99;-11024.98;-0.5286984;0.2690314;0;
2422.927;2060.336;-3271.799;1937.77;0.8823645;-7.422819;2875.622;251.494;-0.4631999;0.0738591;0;
23457.92;15148.72;-2493.073;23333.01;0.01082173;-2.056848;20929.89;10636.55;-0.1378977;0.008817523;0;
20805.26;12616.78;-1049.948;20949.81;-0.4586797;0.08867302;18057.67;9034.321;0.1870776;-0.2510607;0;
20583.55;12857.56;1391.411;20638.34;5.035114;-0.3133137;18053.78;9144.746;0.2518569;-0.3807431;0;
23148.76;14644.77;3155.001;23226.95;8.71375;2.567145;20385.35;10494.87;0.1866365;0.07441086;0;
5962.531;3675.376;3240.849;6373.148;8.370201;-1.72222;5277.733;1536.623;0.1214816;0.009368734;0;
-24761.91;-16664.39;2392.704;-24176.17;12.6487;-2.993165;-22208.21;-11565.79;-0.2034771;-0.3154774;0;
-23742.48;-14325.66;811.1252;-23783.9;4.263245;-4.329755;-20687.52;-9947.632;-0.3332074;-0.3151604;0;
-22313.96;-13465.3;-1514.271;-22216.03;-0.9659519;-9.081071;-19494.36;-8578.976;0.1868662;-0.184909;0;
-27935.86;-18915.49;-3245.16;-27776.08;0.6426091;-1.704007;-24887.6;-12209.18;0.2516457;-0.05478856;0;
1349.852;1340.421;-3282.66;892.1721;-3.310152;1.579747;1908.237;-144.3008;-0.07344382;0.01023384;0;
23514.63;15289.94;-2487.385;23371.88;1.784365;0.506555;21031.43;10780.17;0.1864993;-0.1846785;0;
20948.66;12718.7;-1043.391;21093.72;1.112011;2.716361;18184.7;9105.451;0.1213446;0.1403438;0;
20658.62;12954.11;1381.501;20720.54;7.876048;-1.23824;18133.93;9265.295;-0.203614;0.3351048;0;
23271.49;14759.01;3150.192;23339.58;17.04516;-1.370961;20512.5;10602.11;-0.3333441;-0.249938;0;
6121.188;3899.645;3237.294;6515.5;5.37276;-7.397926;5461.413;1693.925;-0.1381071;-0.05478482;0;
-24473.26;-16326.19;2383.656;-23895.76;3.558701;-14.82541;-21899.25;-11319.17;0.2518357;0.659911;0;
-23146.54;-13908.69;812.8304;-23183.99;-4.348129;-8.380279;-20114.69;-9786.456;-0.008286735;0.3344112;0;
-20342.23;-11552.91;-1488.58;-20258.46;-15.46317;-6.362431;-17513.7;-7253.906;-0.3980825;-0.1856636;0;
-24823.14;-16043.37;-3218.214;-24745.33;-6.204233;-8.23156;-21845.2;-10116.16;-0.07284576;-0.1205097;0;
3146.088;2518.885;-3294.003;2619.215;-4.925201;-7.55346;3503.665;533.1261;0.5119335;0.07451347;0;
23630.64;15227.79;-2522.892;23495.03;-2.575727;-7.746819;21073.11;10715.22;0.5763865;0.139406;0;
20909.43;12761.68;-1076.989;21053.93;4.8616;-7.203171;18170.05;9189.732;0.3159379;-0.2505382;0;
20688;12947.66;1338.38;20737.28;-5.12362;-7.597831;18151.41;9227.6;0.1856858;-0.4451885;0;
23219.48;14714.49;3097.994;23293.06;-13.75866;-9.06376;20456;10577.1;0.2504666;-0.3797738;0;
6173.846;3886.889;3202.358;6584.32;0.1876149;-6.241431;5488.833;1633.71;0.6400189;-0.2494575;0;
-24267.4;-16157.72;2364.779;-23681.2;8.425473;-3.756852;-21716.12;-11222.05;0.3795065;0.0106625;0;
-23035.61;-13765.03;799.5006;-23080.46;0.7148239;-7.236128;-20002.82;-9645.481;-0.400483;-0.1192829;0;
-20465.51;-11699.95;-1491.339;-20386.23;-0.0901776;-7.563772;-17648.83;-7359.371;-0.01027649;-0.119163;0;
-24896.66;-16107.75;-3210.179;-24814.54;-4.175924;-11.50804;-21905.7;-10209.26;0.1196685;0.1408261;0;
3116.036;2566.995;-3272.202;2607.619;-9.865155;-17.52482;3511.811;533.6829;-0.4651578;0.07571723;0;
23509.39;15141.16;-2512.56;23385.88;-5.367264;-10.4072;20959.73;10635.27;-0.1398537;0.2705432;0;
20803.44;12650.3;-1090.936;20945.89;-1.811898;-6.377832;18057.13;9082.532;0.1851235;0.5301407;0;
20801.03;13053.81;1340.033;20845.08;-9.714307;-10.65827;18262.97;9330.762;-0.07493184;0.2047713;0;
23553.55;15064.1;3123.82;23621.1;-16.335;-10.5136;20793.2;10922.83;0.05507813;-0.2502059;0;
6292.169;4064.783;3220.569;6700.25;-5.86974;-12.51246;5628.089;1843.258;0.3798595;-0.05505243;0;
-24538.16;-16390.01;2360.732;-23959.53;1.771969;-14.04043;-21979.3;-11398.6;0.05464111;0.009970229;0;
-23367.52;-14067.87;785.1818;-23419.93;-3.118956;-12.48578;-20346.78;-9877.714;0.1195535;-0.2499092;0;
-20871.75;-12087.86;-1507.705;-20797.03;-4.053827;-12.33927;-18065.05;-7592.76;0.3793028;-0.3146254;0;
-25549.32;-16661.83;-3230.823;-25472.32;1.375254;-10.18347;-22573.17;-10542.97;-0.3357191;-0.1194072;0;
2659.075;2266.342;-3297.979;2142.357;2.64667;-8.967549;3039.543;374.6703;-0.5302838;0.2055495;0;
23470.85;15110.61;-2542.2;23334.43;7.801574;-6.078334;20915.67;10593.89;0.3148245;0.3352776;0;
20789.52;12625.73;-1121.608;20926.68;12.48278;-3.058055;18046.62;9048.05;0.6393449;0.4648754;0;
20572.31;12830.99;1286.715;20618.92;9.187712;-2.251249;18032.36;9119.933;0.2488984;0.399441;0;
23057.14;14571.11;3037.011;23123.35;9.982763;1.234004;20295.36;10410.07;0.1187136;0.3340723;0;
5728.065;3604.131;3136.001;6127.448;3.944513;-1.446431;5074.155;1494.382;0.3134964;0.2687692;0;
-24922.71;-16699.97;2292.866;-24350.08;-1.686505;-2.583688;-22359.8;-11566.74;0.1832467;-0.05633754;0;
-23754.43;-14352.02;715.6042;-23797.04;-1.015225;0.4331404;-20734.93;-10081.94;-0.1417742;-0.05628093;0;
-21140.8;-12248.6;-1583.772;-21052.37;-4.094688;0.3657222;-18337.93;-7690.49;-0.1416317;0.203645;0;
-25304.34;-16520.96;-3307.469;-25229.35;-1.411256;5.388953;-22326.8;-10524.37;-0.3363914;0.0735057;0;
2914.927;2413.777;-3389.666;2395.594;3.211862;7.99575;3322.357;381.858;-0.1411514;-0.05650286;0;
23390;15049.44;-2654.128;23258.17;-4.427176;11.20278;20849.44;10551.92;0.05389246;0.2683906;0;
20813.64;12648.48;-1224.397;20950.07;-11.12151;15.41144;18059.21;9072.279;-0.07609638;0.463023;0;
20588.77;12848.82;1198.272;20635.06;0.5449409;12.91759;18050.78;9123.977;-0.1409873;0.007786329;0;
23217.25;14716;2947.064;23279.14;5.634608;13.17254;20441.96;10580.57;-0.01091091;-0.3170582;0;
6158.639;3854.945;3023.375;6557.832;7.035466;9.676314;5449.152;1674.615;0.1190347;0.07306445;0;
-24898.36;-16826.22;2141.279;-24310.18;12.92289;5.245841;-22367.52;-11774.17;0.1838825;0.3978277;0;
-23852.22;-14456.4;546.1783;-23905.6;7.350204;6.312174;-20821.01;-10139.12;-0.141139;0.3324606;0;
-21957.05;-13131.99;-1767.552;-21877.09;7.74496;4.698363;-19154.96;-8353.514;-0.2709319;-0.05767747;0;
-27695.05;-18629.96;-3519.3;-27579.4;1.776307;3.086052;-24676.74;-12073.17;-0.2706596;-0.3174889;0;
1289.414;1377.553;-3586.166;783.9728;-6.665571;2.748036;1799.584;-212.852;-0.335355;-0.3171699;0;
23456.38;15248.26;-2803.111;23310.5;2.116013;-1.407545;20955.18;10733.45;-0.2700507;-0.3168512;0;
20866.84;12627.83;-1360.862;21013.8;2.984543;-4.085387;18100.61;9023.96;-0.1398447;-0.1216308;0;
20594.15;12888.28;1061.601;20644.72;6.531518;-4.95206;18056.36;9196.333;-0.2696388;0.3982302;0;
23166.17;14664.74;2815.09;23232.59;12.82062;-7.827289;20403.2;10495.18;-0.2044006;0.4627974;0;
5786.416;3688.768;2892.284;6186.643;6.37835;-3.666543;5137.202;1512.758;0.1206415;0.007560961;0;
-24612.84;-16379.87;2033.652;-24053.11;6.573012;0.9587803;-22038.93;-11381.53;-0.1393491;-0.3172833;0;
-23030.6;-13831.82;458.274;-23075.86;1.341495;-4.333652;-20019.47;-9766.433;-0.3341111;-0.2519972;0;
-20643.55;-11906;-1850.058;-20545.18;-7.568461;-5.936827;-17830.64;-7545.434;-0.2038407;0.1380601;0;
-25213.9;-16422.66;-3573.909;-25154.88;3.557578;-3.452554;-22259.53;-10475.86;-0.3335705;0.3328234;0;
3104.74;2535.787;-3632.022;2564.207;8.376775;-3.650033;3420.828;491.9401;-0.4631701;0.2025543;0;
23526.24;15133.86;-2881.045;23400.19;4.34987;0.2385832;20949.16;10615.54;-0.527672;0.1373834;0;
20852.08;12706.97;-1445.261;20993.25;6.690024;2.180727;18109.6;9141.879;-0.4621744;0.1372454;0;
20902.73;13156.33;994.3409;20945.12;-0.01547963;4.455955;18361.39;9418.627;0.05802869;0.2020748;0;
23493.66;14996.37;2745.617;23556.22;-3.765532;7.733519;20720.66;10867.82;0.1229377;0.2018718;0;
6381.257;4036.599;2821.756;6766.462;-3.896446;5.180519;5640.156;1788.896;-0.007120491;-0.3180698;0;
-24429.87;-16362.36;1947.921;-23860.13;-8.11209;5.443245;-21938.98;-11471.25;0.4476581;-0.4476849;0;
-23934.66;-14401.48;328.9955;-23993;-0.8029214;2.825442;-20914.56;-10035.5;0.2523062;-0.3822677;0;
-22509.28;-13592.17;-2007.161;-22443.07;4.55652;0.5453051;-19717.28;-8624.968;-0.267686;-0.5767856;0;
-27722.94;-18686.98;-3738.351;-27606.47;2.140068;-0.05808927;-24698.36;-12052.04;-0.3323844;-0.1214347;0;
1396.593;1444.518;-3761.159;908.1052;3.008574;-3.809014;1910.936;-104.0583;-0.3970177;-0.1213127;0;
23375.98;15156.17;-2945.491;23221.45;5.082632;2.424043;20865.41;10639.52;-0.2666841;-0.3810602;0;
20839.29;12615.32;-1487.498;20969.4;5.412317;7.244256;18068.53;8998.837;0.05842052;0.07409412;0;
20659.34;12942.3;965.8271;20701.82;8.62206;3.486055;18123.26;9255.1;0.1233292;0.2689217;0;
23367.8;14876.17;2732.843;23424.78;12.16337;3.549535;20594.87;10689.06;-0.006729442;0.2036842;0;
5771.295;3676.153;2792.784;6163.92;6.859862;4.349764;5052.997;1561.557;0.3830814;0.3334142;0;
-24954.02;-16718.09;1926.974;-24396.82;2.967227;4.077461;-22442.42;-11664.94;0.3177291;0.3980465;0;
-23691.66;-14272.9;327.6848;-23767.24;5.30877;6.149713;-20682.51;-10073.47;-0.2672962;0.1377772;0;
-21995.33;-13086.12;-2009.314;-21936.28;7.313168;6.545432;-19192.09;-8333.482;0.05780906;0.00770403;0;
-26723.08;-17817.68;-3719.887;-26654.6;-0.9332029;7.677565;-23742.82;-11484.36;-0.007216365;0.3975004;0;
2383.311;2084.293;-3741.902;1850.254;-10.17567;8.607611;2768.004;227.6846;-0.5269479;0.4620683;0;
23480.9;15153.77;-2950.147;23329.35;-0.9220406;7.929133;20917.71;10643.72;-0.3315164;-0.05813475;0;
20786.57;12603.08;-1488.463;20914.51;2.495137;9.86367;18035.97;9014.151;-0.2012486;-0.188011;0;
20647.94;12914.37;960.0836;20689.46;-1.459485;4.763179;18105.27;9201.823;-0.2010463;0.07204728;0;
23115.06;14627.16;2711.675;23181.46;1.221299;2.213041;20346.09;10460.74;-0.005942297;0.3968116;0;
5632.284;3520.946;2774.792;6031.194;-8.491843;2.344784;4949.074;1415.173;0.1239984;0.5913149;0;
-25050.35;-16828.91;1904.909;-24471.4;-14.17674;-1.408495;-22514.16;-11695.63;0.1888411;0.460786;0;
-23738.95;-14319.24;289.7747;-23774.3;-15.03315;6.89856;-20717.66;-10088.99;0.2536187;-0.124383;0;
-21319.3;-12425.3;-2052.808;-21236.77;-21.31468;11.58031;-18513.05;-7859.953;0.1883965;-0.124258;0;
-25775.64;-16912.61;-3771.49;-25702.44;-13.25531;12.90833;-22807.39;-10808.41;-0.2665642;0.1357362;0;
2632.383;2298.281;-3790.454;2115.759;-7.816988;17.51707;3033.688;364.0093;-0.3312637;0.005665099;0;
23462.61;15146.45;-2967.792;23323.44;-12.9667;14.6863;20921.68;10646.55;0.3187426;0.3954635;0;
20851.94;12667.44;-1489.973;20985.84;-15.49829;14.0687;18092.68;9079.341;0.1884876;0.7199028;0;
20626.36;12893.79;958.8568;20670.45;-10.32515;13.45172;18079.79;9171.229;0.1233309;0.5892448;0;
23109.47;14619;2711.293;23169.82;-4.956141;11.96457;20341.53;10466.81;0.6429457;0.5886527;0;
5662.602;3541.554;2763.042;6068.215;-12.78804;10.88083;4982.905;1420.914;0.4473976;0.1982572;0;
-24986.31;-16789.99;1897.917;-24401.96;-14.51651;9.329408;-22451.83;-11696.73;0.05714406;-0.1267788;0;
-23614.82;-14280.61;310.9009;-23658.9;-18.85618;9.855897;-20617.9;-10030.55;-0.007880699;-0.06168404;0;
-21170.78;-12298.12;-2022.645;-21097.65;-27.41105;12.32424;-18377.02;-7721.061;0.2519966;-0.06162206;0;
-25596.67;-16774.38;-3749.931;-25543.58;-15.25971;7.489207;-22650.58;-10682.45;0.4466454;0.06837456;0;
2789.01;2300.455;-3791.546;2256.188;-7.943362;2.190153;3121.875;370.0922;0.1213599;0.1332732;0;
23456.05;15091.28;-3004.006;23324.27;-12.48973;12.4361;20881.59;10589.8;-0.2035988;0.1331393;0;
20823.36;12666.12;-1536.598;20957.49;-12.61188;15.1699;18073.71;9076.292;-0.008492145;-0.06189654;0;
20670.48;12921.07;905.2504;20711.92;-9.4504;21.91969;18120.66;9201.198;0.3163531;0.003132999;0;
23080.05;14603.2;2640.843;23146.81;-7.097356;32.14581;20310.42;10449.54;0.3810026;0.587836;0;
5626.313;3528.122;2691.85;6009.769;-7.893531;21.39648;4930.53;1391.665;-0.2040863;0.4573106;0;
-25047.08;-16831.24;1816.677;-24494.35;-6.813873;18.62881;-22539.26;-11753.95;-0.5936853;0.002079683;0;
-23693.54;-14302.76;229.399;-23751.58;-9.084202;14.52425;-20711.79;-10118.12;-0.5281215;-0.1278571;0;
-21259.53;-12365.81;-2075.611;-21194.27;-10.61629;6.538811;-18485.22;-7856.628;-0.0728194;-0.192696;0;
-25851.04;-16995.38;-3796.034;-25788.06;-10.94042;11.48886;-22892.97;-10851.18;0.2520905;0.1973017;0;
2617.811;2232.261;-3842.335;2089.041;-14.3447;11.1424;2992.533;344.0726;0.05693515;0.4569728;0;
23535.6;15203.22;-3049.996;23384.75;-8.436764;9.858647;20969.19;10681.89;-0.2029914;0.1966443;0;
20863.71;12679.98;-1603.141;20988.26;-5.078408;10.18366;18105.77;9088.921;-0.5276242;0.2614141;0;
20614.94;12884.19;820.3773;20648.46;-6.480801;7.36014;18063.46;9160.107;-0.4621267;0.06624936;0;
23153.39;14653.56;2578.981;23204.99;-3.861345;4.941481;20377.06;10496.41;-0.006890923;-0.3236213;0;
5786.903;3630.162;2654.351;6178.894;-8.948655;7.012865;5097.836;1485.188;-0.1368187;-0.06342673;0;
-24849.87;-16695.19;1788.992;-24296.61;-12.15484;10.221;-22339.01;-11641.43;-0.2666159;0.2614737;0;
-23305.64;-14040.63;205.7706;-23411.18;-12.27635;3.512558;-20340.89;-9930.223;0.1234561;-0.06362572;0;
-20673.3;-11833;-2109.491;-20663.22;-17.28786;1.097643;-17916.42;-7492.902;0.05836467;-0.4533658;0;
-25102.62;-16354.24;-3838.298;-25073.47;-9.7684;-0.04204811;-22189.04;-10404.63;-0.2665307;-0.3229756;0;
3180.826;2549.339;-3889.508;2643.399;-2.52394;-4.73075;3498.818;566.3983;-0.1363282;-0.1277491;0;
23629.71;15237.66;-3103.618;23487.94;-13.23867;4.249533;21050.71;10720.93;0.2536128;-0.06265336;0;
20852.55;12708.65;-1638.781;20978.26;-17.37856;9.201879;18097.72;9122.156;0.253358;-0.1925251;0;
20716.39;12959.18;799.235;20749.53;-16.02095;9.795479;18160.98;9232.149;0.05820141;-0.3222663;0;
23133.7;14658.83;2540.244;23189.8;-18.41672;13.40259;20362.96;10500.62;0.1880776;0.2627636;0;
5597.456;3533.64;2605.688;5968.727;-13.10596;11.58059;4914.691;1386.037;0.5127254;0.3274669;0;
-24976.12;-16745.03;1737.849;-24452.36;-8.471087;10.49722;-22460.69;-11685.97;0.05743876;-0.3225356;0;
-23464.89;-14191.08;152.5238;-23559.35;-11.00817;11.42444;-20485.15;-10003.57;-0.332423;-0.3871788;0;
-20920.08;-12094.05;-2138.384;-20883.71;-13.27429;11.81485;-18140.17;-7599.348;0.1226824;-0.06195308;0;
-25244.13;-16473.21;-3854.778;-25214.1;-4.419689;6.779385;-22330.46;-10445.39;0.05759179;-0.06189083;0;
3058.072;2470.098;-3931.802;2510.386;2.216184;3.2226;3349.241;489.3679;-0.007433419;-0.321698;0;
23553.63;15169.08;-3154.365;23407.58;-0.6664307;0.6070274;20963.5;10658.51;0.3174108;0.003461945;0;
20866.71;12715.46;-1691.96;20990.99;2.013556;-3.278471;18116.11;9132.754;0.4470265;0.3282952;0;
20716.48;12966.15;729.6488;20749.22;-2.275375;-3.141211;18159.05;9241.674;0.1217406;0.262998;0;
23191.64;14711.67;2483.471;23254.07;-5.823062;-4.410669;20420.98;10557.74;-0.2681858;0.132799;0;
5554.398;3483.857;2561.873;5941.251;-1.999794;-3.334571;4872.989;1391.45;0.05692043;-0.4520405;0;
-25234.66;-17014.45;1698.544;-24685.98;-2.801091;-1.187767;-22713.28;-11880.82;0.3167326;-0.3866189;0;
-23537.85;-14272.4;144.992;-23618.22;1.28756;-2.928129;-20546.19;-10142.91;-0.0733897;-0.06139376;0;
-20696.16;-11857.42;-2130.916;-20653.78;2.156922;-3.193119;-17908.84;-7487.283;-0.3981527;-0.06133207;0;
-24981.33;-16278.51;-3855.095;-24912.79;6.709106;-0.5775762;-22034.78;-10254.27;-0.2678179;0.1336316;0;
3243.381;2533.914;-3925.824;2731.761;12.86528;0.628575;3586.819;587.9312;0.05728789;0.1984647;0;
23564.8;15161.89;-3170.351;23419.96;6.220923;2.3695;20988.19;10641.57;0.1221977;0.2632326;0;
20780.29;12648.81;-1744.708;20911.41;6.147324;3.237897;18029.15;9068.332;0.1870422;0.5878048;0;
20651.51;12889.44;664.6781;20693.81;-0.7577291;5.311114;18097.51;9166.198;0.1218869;0.3923121;0;
23048.25;14577.51;2406.666;23106.5;-9.665576;9.123683;20281.4;10422.66;-0.008170208;0.1970159;0;
5603.109;3514.49;2504.822;5982.796;-2.823361;3.01919;4940.647;1360.195;-0.07312934;0.196818;0;
-24870.72;-16647.6;1661.072;-24334.24;-3.69118;-0.265885;-22346.42;-11646.53;-0.1380232;0.06668551;0;
-23484.74;-14119.83;70.76349;-23571.1;-1.075503;0.1362798;-20497.51;-9972.081;-0.2028519;-0.1282835;0;
-20881.63;-12020.99;-2218.782;-20836.78;3.279835;-3.413953;-18120.7;-7541.09;-0.3325827;-0.388024;0;
-25187.3;-16345.56;-3935.704;-25146.4;-2.952751;1.814025;-22225.27;-10382.57;-0.2023139;-0.3226668;0;
2777.463;2421.83;-4030.731;2226.245;-2.748714;4.759451;3251.099;394.6428;-0.07217588;0.06746151;0;
23317.58;15022.76;-3275.136;23165.01;-9.645803;2.879146;20805.18;10514.6;-0.202038;0.1323611;0;
20799.97;12619.62;-1831.538;20930.55;-16.86978;3.144185;18019.63;9038.815;-0.3967371;-0.1926087;0;
20739.95;12995.53;603.1728;20772.75;-12.56592;3.00706;18192.35;9265.364;-0.1364691;-0.3873172;0;
23481.08;15002.73;2382.891;23536.13;-14.49568;3.539902;20705.77;10852.63;0.3834068;-0.06209125;0;
5743.873;3632.085;2457.302;6126.001;-10.6637;1.191942;5049.244;1562.667;0.1881195;0.06790584;0;
-25394.55;-17203.3;1576.961;-24857.54;-5.963932;-0.01482606;-22884.51;-12055.54;-0.2018735;0.002870244;0;
-23929;-14526.22;2.323488;-24002.87;-11.31657;-1.622401;-20959.44;-10295.28;-0.3316054;-0.06209998;0;
-21359.47;-12422.75;-2290.183;-21294.74;-10.63562;-3.563276;-18593.76;-7867.506;0.05853187;-0.3868743;0;
-25795.35;-16970.36;-4006.689;-25742.41;-14.1749;-2.153054;-22874.82;-10836.79;0.4482771;-0.4514529;0;
2732.93;2291.367;-4055.528;2202.424;-16.63891;-1.481062;3069.21;403.4524;-0.07191206;-0.06119523;0;
23469.09;15123.63;-3279.778;23331.14;-13.7418;-0.6087954;20895.15;10612.07;-0.1368071;0.1987356;0;
20742.8;12573.91;-1837.393;20873.34;-13.92906;-0.00533727;17983.84;8983.675;0.05823235;0.5233727;0;
20583.31;12840.38;587.5787;20616.83;-9.024948;3.27671;18025.12;9125.822;-0.006793503;0.4578794;0;
23006.18;14525.88;2338.046;23058.23;-8.547365;5.483732;20233.99;10359.96;0.3830174;-0.3221888;0;
5433.277;3368.104;2436.552;5829.057;1.039417;8.559437;4769.441;1273.383;0.5125672;-0.4517997;0;
-25068.92;-16832.24;1599.773;-24513.68;9.94698;13.57443;-22549.53;-11762.2;0.2521828;0.1333604;0;
-23773.22;-14361.57;14.05555;-23853.47;4.913144;9.07306;-20810.75;-10082.68;0.05702738;0.06825901;0;
-21678.35;-12738.08;-2295.11;-21637.39;7.722222;5.915746;-18917.76;-7988.562;0.1869048;0.06819042;0;
-25798.95;-17014.07;-4009.27;-25796.05;-3.136528;10.12973;-22871.82;-10928.04;0.1217496;0.5228933;0;
2876.29;2384.279;-4068.069;2303.231;-15.52559;11.19115;3240.454;347.1869;-0.3331441;0.5223679;0;
23322.34;14985.17;-3293.572;23173.13;-7.003519;9.974337;20763.47;10487.07;-0.267842;0.4568757;0;
20660.51;12493.74;-1819.173;20779.74;-4.383537;8.892588;17892.27;8902.745;0.2521659;0.3264819;0;
20691.73;12944.25;654.9429;20715.63;-13.28774;9.084601;18136.86;9214.638;0.4468145;0.1962192;0;
23410.46;14929.7;2443.354;23458.52;-15.95371;9.47737;20631.38;10775.09;-0.1383405;0.3259567;0;
5715.325;3604.434;2515.799;6117.732;-20.15723;6.185684;5019.67;1535.839;-0.4630382;0.3256292;0;
-25585.5;-17384.29;1636.399;-25025.06;-26.36627;4.237086;-23077.47;-12184.95;-0.2027036;0.0004652639;0;
-23987.94;-14595.69;70.97873;-24095.61;-17.69959;2.89317;-21027.9;-10388.32;-0.07256526;-0.1944372;0;
-21106.07;-12188.76;-2216.568;-21077.96;-12.99276;0.9477575;-18353.18;-7717.595;-0.07249235;-0.1942419;0;
-25832.16;-16971.47;-3936.694;-25792.65;-12.91333;1.7506;-22912.76;-10773.83;-0.2673215;-0.259014;0;
2494.941;2088.709;-3984.54;1945.398;-9.416752;2.485654;2830.752;306.3991;-0.461955;-0.06385174;0;
23400.52;15051.11;-3206.582;23250.48;-8.470262;0.9425486;20827.13;10534.14;0.1881826;0.06614712;0;
20708.94;12540.62;-1749.45;20839.29;-4.375913;-1.402679;17950.04;8941.66;0.7077322;-0.3237234;0;
20549.01;12803.44;701.7643;20583.33;-6.782414;3.89026;17990.76;9094.423;-0.1375543;-0.1284961;0;
23061.33;14583.86;2456.427;23111.16;-7.847326;7.10141;20290.44;10409.51;-0.4622528;0.5213065;0;
5375.721;3305.586;2538.198;5765.506;-3.351462;4.883959;4711.087;1239.498;0.05795043;0.2609133;0;
-25370.43;-17140.29;1697.193;-24820.34;-1.674132;5.213845;-22843.27;-12016.49;-0.07204248;-0.06418563;0;
-24003.77;-14534.48;105.9434;-24074.98;2.614458;2.462428;-21031.98;-10226.47;-0.2019048;0.1957482;0;
-21854.61;-12876.6;-2214.434;-21787.68;4.353144;1.254261;-19092.03;-8107.345;0.1231348;0.3904536;0;
-26016.17;-17239.73;-3922.443;-25995.3;11.04755;-2.363956;-23083.5;-11129.57;0.1879784;0.4550286;0;
2876.912;2398.276;-3970.835;2301.846;16.8636;-5.442735;3245.674;367.4996;-0.007112486;0.06476732;0;
23404.67;15068.01;-3185.863;23256.81;14.16734;-6.107095;20845.72;10564.1;0.057862;-0.1951671;0;
20632.44;12465.56;-1703.483;20760.81;12.41179;-8.4453;17864.2;8879.231;0.1877385;0.1298657;0;
20653.38;12903.58;766.113;20681.06;14.81022;-5.221694;18097.09;9170.253;0.05761522;0.06476786;0;
23357.63;14876.16;2538.764;23409.21;19.35066;-3.876789;20577.37;10721.16;-0.07237735;-0.06523191;0;
5742.111;3608.29;2603.867;6149.772;4.528112;-0.5907912;5041.354;1529.05;0.3824668;-0.0001990269;0;
-25516.2;-17327.17;1720.225;-24936.11;-6.461151;3.629605;-23009.01;-12177.39;0.5120171;-0.1301335;0;
-24372.19;-14833.13;110.773;-24454.49;-3.440548;3.960873;-21402.45;-10488.75;0.05673127;-6.806813E-05;0;
-21827.32;-12795.14;-2221.791;-21786.04;-7.992419;7.305917;-19076.18;-8022.884;-0.4630645;0.06489936;0;
-26355.35;-17444.14;-3932.744;-26275.12;-3.22799;5.55702;-23410.87;-11086.45;-0.3976318;-0.1950352;0;
2206.583;1944.667;-3929.667;1699.499;0.9948125;3.810002;2601.887;212.4527;0.0575391;-0.2598066;0;
23343.54;15036.71;-3109.676;23194.27;-1.953924;7.423131;20785.77;10521.4;-0.2673554;-0.1296109;0;
20687.98;12496.25;-1659.154;20817.11;-0.9466068;6.276962;17918.18;8893.704;-0.4619888;0.1303888;0;
20426.05;12688.38;771.199;20458.48;-1.615241;11.76313;17867.63;8977.8;0.1881488;0.5200618;0;
22896.84;14412.18;2516.265;22949.55;-5.298289;17.77966;20113.44;10233.05;0.3178945;0.3246372;0;
5122.174;3069.223;2600.381;5539.415;3.414572;8.98727;4445.315;1100.712;0.05770566;-0.1304604;0;
-25663.44;-17431.07;1753.161;-25084.54;12.3871;4.691454;-23138.77;-12211.86;-0.1372543;-0.06536198;0;
-24502.32;-14973.6;123.1245;-24560.81;-0.7535157;3.882945;-21537.99;-10495.77;-0.007181752;-0.0652963;0;
-22265.84;-13200.72;-2222.008;-22212.05;-5.509157;-0.8096401;-19507.57;-8208.669;0.3826295;-0.1951654;0;
-25935.81;-17158;-3908.427;-25918.04;-8.115589;1.937352;-23002.88;-11060.26;0.3172777;-0.06503459;0;
2980.959;2507.813;-3916.681;2427.329;-15.81059;4.34679;3338.927;424.4257;0.05708954;-1.899389E-06;0;
23414.24;15084.56;-3119.05;23268.74;-7.957827;-2.62368;20844.57;10595.25;0.1869669;-0.3898059;0;
20690.02;12516.16;-1647.561;20816.77;-6.07382;-6.104095;17923.74;8921.311;-0.07309037;-0.4543816;0;
20676.87;12928.9;816.0135;20705.85;-4.661198;-4.758303;18118.32;9201.514;-0.5927557;0.1957484;0;
23341.45;14863.1;2571.405;23389.12;-1.575055;-5.088437;20562.35;10697.07;-0.202356;0.260519;0;
5419.381;3357.757;2614.142;5833.606;-0.9038873;-4.011597;4748.768;1360.513;0.122684;-0.06457946;0;
-25836.08;-17608.71;1720.525;-25260.72;6.665482;-4.275498;-23311.2;-12350.93;0.05759341;0.06542014;0;
-24320.25;-14868.26;94.33195;-24409.26;-6.871523;0.3504376;-21363.54;-10476.58;-0.007431804;0.0003870418;0;
-21924.6;-12944.71;-2260.892;-21886.48;-18.71999;4.503027;-19175.69;-8096.121;-0.2023264;-0.129548;0;
-26456.18;-17569.55;-3975.897;-26393.25;-5.639384;3.359793;-23533.46;-11236.7;-0.07218838;0.1304515;0;
2428.247;2087.72;-3981.069;1918.945;-4.361896;5.164834;2774.724;296.8458;0.3176882;0.4551572;0;
23501.21;15158.33;-3174.676;23355.01;1.604334;3.083295;20924.16;10655.89;0.3823363;0.1298631;0;
20721.39;12550.03;-1713.391;20839.65;11.51571;1.874505;17957.75;8938.632;0.2520175;-0.3900061;0;
20489.77;12729.99;729.6664;20518.99;-0.2175106;1.336758;17926.12;9017.263;0.1218296;-0.1297449;0;
22946.15;14488.02;2467.06;22990.54;-5.106436;-1.812661;20173.14;10296.65;0.5764785;0.1952222;0;
4996.828;3066.224;2515.586;5370.236;-3.0252;2.34198;4355.063;1121.377;0.7058339;-0.194778;0;
-25902.93;-17600.83;1641.465;-25385.97;-5.434034;4.951961;-23379.45;-12293.57;0.05545133;-0.06464762;0;
-24589.74;-15043.06;32.2179;-24687.88;-4.691639;1.39689;-21640.1;-10547.99;-0.1395064;0.2602541;0;
-22376.94;-13345.2;-2283.588;-22343.22;-6.227167;0.2567763;-19631.56;-8367.205;0.1205031;0.1950252;0;
-26448.55;-17540.42;-3976.816;-26460.28;-3.742663;0.3235012;-23510.96;-11402.42;0.120382;0.519666;0;
2362.24;2212.297;-4020.874;1778.248;0.7490758;0.7920567;2787.369;168.9255;-0.2045756;0.4541765;0;
23145.04;14890.47;-3238.382;22993.03;-7.289629;-1.419054;20609.78;10396.47;-0.2693374;0.1288834;0;
20591.5;12375.98;-1758.167;20716.25;-13.1768;-2.757287;17815.64;8776.071;-0.1391321;0.06378654;0;
20659.56;12917.55;699.178;20681.11;-7.00162;-1.347875;18101.04;9196.131;-0.3988616;0.06372245;0;
23210.76;14744.16;2447.94;23257.21;-6.257651;-1.882384;20442.4;10564.43;-0.2685262;0.3235278;0;
4829.319;2956.541;2502.014;5243.184;-3.906838;2.942157;4219.813;1106.301;0.6412864;0.193268;0;
-26309.2;-17974.79;1639.089;-25747.78;1.188278;7.292969;-23741.44;-12508.97;0.7056093;0.1281065;0;
-24086.65;-14735.03;83.56673;-24199.89;-6.918217;5.678051;-21142.14;-10481.4;-0.07470772;0.2579124;0;
-21092.48;-12137.32;-2199.495;-21068.24;-12.06883;4.399792;-18338.83;-7612.847;-0.2045673;0.06275126;0;
-25341.43;-16606.18;-3899.695;-25319.21;-8.037238;9.485951;-22438.75;-10543.74;-0.009459756;0.3875249;0;
3154.993;2519.537;-3923.887;2594.966;-7.493299;13.22734;3439.86;541.9628;-0.1393849;0.4521029;0;
23608.53;15208.83;-3141.367;23459.95;-8.222704;9.329164;21015.46;10709.51;-0.3991143;-0.1330575;0;
20764.69;12602.08;-1704.853;20883.58;-7.076342;9.252807;18005.42;9002.321;-0.2687785;-0.1978911;0;
20553.73;12799.21;723.7654;20578.14;-9.346407;4.42086;17985.39;9075.516;-0.2685085;-0.132725;0;
23032.42;14550.05;2481.061;23080.61;-11.68154;0.1964932;20261.9;10374.41;-0.333206;-0.1325916;0;
5332.972;3300.908;2566.961;5704.262;-5.775305;0.0623299;4673.337;1218.63;-0.1379692;0.06244368;0;
-25406.97;-17194.2;1710.405;-24901.65;-0.8130088;-4.29144;-22899.6;-12074.16;-0.2677652;0.3222503;0;
-23671.88;-14449.75;129.917;-23798.14;-3.557882;2.477965;-20735.33;-10258.5;-0.2674962;0.4518612;0;
-20875.39;-12032.86;-2161.562;-20867.97;-5.095525;8.503817;-18122.11;-7528.216;-0.07232536;-0.00336425;0;
-24640.61;-16025.99;-3861.737;-24673.36;1.072513;3.404691;-21763.24;-10217.59;0.05768199;-0.3281976;0;
3774.46;2894.064;-3912.595;3187.378;5.157272;2.93239;4009.078;700.7847;0.252526;-0.1329658;0;
23588.96;15138.11;-3133.569;23449.58;3.610873;4.00117;20975.16;10637.57;-0.07256439;0.06206987;0;
20752.11;12626.86;-1660.862;20874.57;4.009386;1.987662;17999.74;9044.114;0.05744321;0.1919422;0;
20684.64;12910.68;774.9582;20709.53;4.206429;8.616853;18121.65;9169.396;0.1223528;0.516586;0;
23206.54;14723.18;2529.266;23255.57;4.670716;14.83749;20426.61;10571.07;-0.2675742;0.1912303;0;
5677.446;3485.243;2623.395;6065.407;2.054055;7.454576;4976.142;1429.02;0.05753141;-0.3287007;0;
-25306.8;-17192.4;1760.16;-24762.16;-1.296912;2.892368;-22811.91;-11996.89;0.3823103;-0.1334683;0;
-23856.94;-14463.08;177.6236;-23954.89;0.9815671;6.506418;-20900.51;-10182.49;0.05708945;0.06156781;0;
-21508.44;-12572.88;-2118.12;-21465.22;0.9805808;6.633847;-18763.84;-7974.268;-0.007935256;-0.003461414;0;
-26050.61;-17258.64;-3836.673;-26006.69;0.7121518;4.349883;-23133.27;-11090.26;0.2519421;0.2564114;0;
2770.514;2256.124;-3893.382;2225.704;2.519121;3.005854;3105.597;408.981;-0.07314777;0.3211212;0;
23593.09;15220.98;-3125.885;23439.23;-1.501898;0.8593796;21011.68;10702.6;-0.1380416;0.1258965;0;
20714.18;12558.8;-1676.143;20832.44;-2.705837;-0.2800717;17951.08;8957.232;0.3818358;0.320672;0;
20530.06;12760.24;763.7847;20554.87;-3.172609;-3.361005;17962.59;9040.998;0.1215828;0.1254477;0;
22993.9;14536.04;2516.354;23040.44;-6.249904;-5.969902;20220.83;10348.69;-0.3333108;-0.199515;0;
5050.878;3077.933;2586.477;5422.636;0.52153;-5.361056;4391.304;1096.483;-0.2680085;0.1255222;0;
-25808.75;-17543.9;1719.406;-25293.88;4.204701;-5.556618;-23305.53;-12322.8;-0.2027719;0.1903634;0;
-24430.47;-14915;129.4772;-24530.64;4.334198;-4.814223;-21495.59;-10484.89;0.1222686;0.06023742;0;
-22268.87;-13199.74;-2177.993;-22241.21;6.071155;-4.67542;-19530.13;-8248.774;0.2520804;0.4499809;0;
-26002.81;-17283.62;-3873.748;-26012.94;5.931333;0.1518664;-23102.77;-11138.37;-0.008042261;0.6444308;0;
3086.447;2486.647;-3917.222;2507.249;7.801383;6.381004;3406.595;445.049;-0.1379689;0.2539792;0;
23373.74;15000.59;-3162.758;23217.76;2.301188;2.422722;20789.59;10500.25;-0.007895549;-0.07111268;0;
20615.13;12456.07;-1701.531;20730.76;-1.385795;0.0758848;17848.18;8856.161;0.1220471;-0.1360086;0;
20724.22;12958.89;756.6625;20737.98;-3.259437;7.376826;18160.46;9227.181;0.2518591;-0.005937218;0;
23276.29;14803.93;2508.303;23317.63;-9.083311;10.24956;20495;10629.61;0.5114754;0.2539381;0;
5240.883;3186.361;2569.219;5624.737;-4.318762;12.98556;4552.204;1244.622;0.3810268;0.1887156;0;
-26186.93;-17960.48;1678.459;-25659.69;-2.037247;17.72818;-23694.11;-12626.33;0.05580723;-0.1363107;0;
-24753.06;-15221.74;81.35567;-24869.65;-5.451451;12.68677;-21814.78;-10798.98;0.3805879;-0.5259778;0;
-22177.41;-13152.38;-2212.354;-22157.44;-3.838383;9.659908;-19436.92;-8265.347;0.3802055;-0.2006126;0;
-26615.48;-17734.98;-3924.723;-26569.46;-8.858368;11.1237;-23690.4;-11341.33;0.05498671;0.2543604;0;
2261.733;1966.758;-3971.238;1742.38;-11.59516;9.170145;2610.444;208.6676;-0.07500322;0.1241701;0;
23378.06;15046.72;-3196.229;23227.08;-9.573774;10.09857;20796.8;10530.55;-0.1398952;0.05907802;0;
20577.86;12391.76;-1774.605;20697.11;-11.23909;11.42808;17814.05;8779.673;-0.5295587;0.05901866;0;
20272.58;12517.83;633.1558;20300.38;-5.065859;6.058085;17706.95;8808.753;-0.5939939;-0.07097534;0;
22819.87;14358.96;2391.573;22861.95;-3.051037;2.502025;20048.44;10157.49;0.2511784;-0.1358714;0;
4613.658;2734.151;2490.869;5018.682;2.378012;3.772187;3989.746;906.3305;0.445828;-0.0707675;0;
-26533.95;-18215.16;1651.505;-25974.46;10.14515;4.572192;-23994.86;-12788.65;0.05557599;0.05923831;0;
-24590.88;-15117.38;77.51113;-24689.19;2.230731;1.553365;-21648.1;-10727.17;-0.07441454;0.1891135;0;
-22138.23;-13109.28;-2225.159;-22102.02;0.1523844;-1.395322;-19390.97;-8234.205;0.1855296;0.1239561;0;
-26308.43;-17528.44;-3921.788;-26268.58;-2.459737;3.294763;-23376.04;-11310.49;0.2503105;-0.5258419;0;
2801.843;2346.267;-3947.958;2266.065;-7.012593;4.765077;3171.588;378.2708;-0.2047124;-0.2004768;0;
23408.98;15061.63;-3171.441;23262;-4.928466;7.506467;20840.02;10554.03;-0.269474;0.4493981;0;
20555.1;12391.92;-1723.668;20670.38;-4.723419;12.25459;17791.19;8793.41;-0.009333897;-0.07079224;0;
20392.52;12615.35;700.3148;20414.2;-6.258914;7.620577;17825.09;8885.18;-0.2042265;-0.3955578;0;
22682.68;14240.12;2431.209;22731.34;-8.32873;6.005329;19916.7;10058.47;-0.2689887;-0.07032365;0;
4428.176;2600.902;2513.88;4813.466;-2.15842;6.200244;3827.057;768.903;0.186053;-0.005285644;0;
-26568.13;-18229.29;1667.247;-26025.43;2.264379;4.921338;-24031.44;-12746.22;0.2508334;0.05968702;0;
-24644.59;-15167.28;79.6815;-24718.77;3.60225;4.648583;-21710.51;-10681.71;-0.20419;0.1895617;0;
-22859.17;-13870.94;-2225.896;-22797.18;9.15736;2.835373;-20115.91;-8862.945;-0.07405019;0.2543386;0;
-28074.47;-19091.67;-3935.237;-28011.69;4.862227;5.109822;-25124.45;-12408.74;-0.2688778;-0.2656557;0;
1481.191;1467.771;-3976.713;954.3;1.574812;6.712278;1919.384;-85.70664;-0.7883464;-0.1354541;0;
23311.53;15080.22;-3177.945;23148.37;6.999213;4.629185;20770.96;10562.93;-0.07291348;0.3844208;0;
20554.66;12316.28;-1697.119;20668.88;5.853104;4.155653;17774.1;8679.386;0.3819312;0.2540998;0;
20335.67;12603.56;746.0466;20362.85;11.33958;3.615613;17774;8898.675;-0.07322398;0.1888772;0;
22881.37;14399.5;2490.264;22921.81;16.68682;2.808185;20103.84;10202.5;-0.008183061;0.05875268;0;
4917.148;2997.744;2565.785;5296.687;8.43103;2.738381;4282.672;1049.293;0.1867272;-0.2011757;0;
-25922.51;-17634.04;1704.607;-25399.02;6.279105;2.199766;-23394.89;-12361.08;-0.008362463;-0.006071568;0;
-24092.45;-14702.32;106.9463;-24200.86;-0.8935241;1.996607;-21167.57;-10434.28;-0.2032561;0.2538039;0;
-21411.5;-12431.79;-2197.784;-21381.37;-8.997927;2.128566;-18691.83;-7812.125;-0.3979539;0.1885815;0;
-25605.44;-16843.01;-3889.349;-25591.08;-7.112876;0.3848713;-22712.37;-10792.77;-0.202652;0.05845738;0;
2889.552;2381.385;-3925.656;2333.468;-8.312154;-0.7541032;3237.862;405.557;-0.07251368;-0.006568717;0;
23338.46;14974.33;-3132.498;23182.53;-10.17884;-0.4184309;20765.36;10461.06;-0.2673428;-0.07152946;0;
20567.3;12406.82;-1643.191;20678.66;-10.10126;-0.4180104;17796.45;8807.222;-0.07217219;-0.2013923;0;
20423.38;12644.56;805.7919;20445.55;-9.823666;-1.489317;17852.57;8906.084;-0.007132327;-0.2661572;0;
22834.56;14382.11;2533.613;22881.37;-8.809417;-3.497309;20061.17;10196.78;0.1228095;-0.3308572;0;
4746.478;2859.991;2596.254;5132.439;-5.852828;-0.4125798;4123.624;940.8209;0.3175882;-0.2655574;0;
-26127.04;-17815.29;1731.016;-25610.28;-5.713225;1.932115;-23598.06;-12499.32;-0.007567674;-0.3952252;0;
-24446.74;-14948.76;112.9016;-24577.93;3.000053;-1.753765;-21505.17;-10516.64;0.05740727;-0.3948281;0;
-23010.81;-14018.52;-2231.002;-22980.17;10.83392;-3.493559;-20268.71;-8993.431;-0.1375524;-0.2644967;0;
-28175.74;-19189.52;-3932.857;-28120.75;6.133984;-3.423066;-25219.43;-12555.24;-0.5921856;-0.1342962;0;
1494.626;1507.384;-3907.557;959.1888;5.525584;-3.352644;1948.691;-77.93652;-0.07185185;-0.264096;0;
23360.46;15145.03;-3065.099;23191.86;4.783098;-7.100197;20822.4;10626.23;0.2530571;-0.4587326;0;
20678.76;12431.68;-1577.625;20786.66;4.309777;-10.97801;17890.88;8788.908;-0.1370013;-0.133435;0;
20561.73;12832.94;896.2491;20580.68;-2.124915;-8.421691;17997.95;9129.308;-0.201831;0.06160112;0;
23084.16;14603.77;2648.842;23125.3;-9.423797;-8.279263;20309.62;10388.23;0.1232086;0.1265066;0;
4719.196;2867.817;2694.563;5108.801;-5.596911;-7.869046;4081.605;1028.478;0.1880521;0.2563141;0;
-25961.74;-17655.23;1834.099;-25452.61;-4.988075;-5.047917;-23451.56;-12272.78;0.05792846;-0.06878013;0;
-23545.95;-14375.92;267.8859;-23691.04;-7.059167;-10.80326;-20639.43;-10229.78;-0.07206443;-0.1336784;0;
-20907.01;-12055;-2016.235;-20906.46;-5.17704;-15.816;-18170.13;-7593.897;-0.266894;0.5161294;0;
-24874.93;-16240.28;-3691.866;-24898.42;-9.257675;-8.96803;-22011.13;-10385.67;-0.07172384;0.5156108;0;
3798.647;2970.794;-3712.441;3215.132;-14.27221;-4.203291;4028.076;819.6831;0.3831196;-0.1345807;0;
23700;15254.12;-2926.588;23551.54;-2.669949;-8.017034;21080.02;10755.27;0.3177673;-0.004510828;0;
20788.62;12660.7;-1435.833;20897.2;5.772827;-7.339149;18031.42;9055.938;0.1875133;0.1903957;0;
20793.86;13006.25;1035.962;20809.48;1.68119;-7.398757;18220.01;9262.512;0.3172596;0.2551718;0;
23034.59;14576.29;2767.3;23085.46;2.080666;-8.931931;20261.04;10400.33;0.4468755;0.3198827;0;
5174.242;3215.58;2817.055;5517.477;4.624171;-2.023836;4511.654;1156.772;0.5763612;0.254594;0;
-25248.65;-16974.05;1948.066;-24784.73;5.356459;0.3894612;-22756.43;-11823.63;0.2509453;0.1244035;0;
-23498.98;-14130.51;338.3234;-23639.44;6.355454;6.350429;-20566.04;-9960.526;0.1207585;-0.3954603;0;
-21270.68;-12361.69;-1988.722;-21249.71;6.75121;13.04222;-18533.39;-7779.109;0.2505718;-0.784867;0;
-25749.84;-16950.71;-3684.308;-25707.69;5.204185;8.675345;-22834.12;-10812.25;-0.2694187;-0.4592416;0;
2829.573;2385.331;-3681.074;2298.889;4.462022;7.259987;3185.55;452.8181;-0.46405;0.1259259;0;
23632.27;15294.79;-2847.012;23477.15;0.9075648;6.917778;21058.19;10773.25;-0.138747;0.3207014;0;
20948.49;12761.42;-1350.371;21063.23;-3.581326;5.504185;18174.38;9150.988;-0.1386076;-0.2643269;0;
20771.38;13017.34;1102.254;20792.41;-1.032132;1.881698;18204.75;9287.002;0.05643372;-0.5239307;0;
23217.09;14738.73;2839.491;23258.46;2.116737;-1.201286;20442.99;10552.47;0.4461811;-0.1985676;0;
5285.908;3298.693;2895.858;5656.5;-5.186407;-4.281232;4632.139;1220.939;0.5107001;-0.2633354;0;
-25221.7;-16978.35;2028.415;-24713.56;-8.73117;-7.692999;-22716.18;-11909.56;0.3802522;-0.3930055;0;
-23297.57;-14063.73;440.0487;-23408.48;-3.765903;-8.020184;-20378.34;-9951.387;0.1849681;-0.06777385;0;
-20984.14;-12116.67;-1861.331;-20955.23;-0.4795896;-10.55742;-18235.96;-7595.708;-0.2699891;0.257131;0;
-25031.76;-16360.37;-3540.85;-25028.71;1.194856;-6.193039;-22166.8;-10430.08;-0.2697178;0.1919053;0;
3706.409;2896.398;-3540.446;3144.198;-0.1455156;-2.770748;3914.44;803.5203;0.0553899;0.1267451;0;
23826.41;15375.67;-2737.697;23677.87;15.46104;-3.504776;21199.72;10864.78;-0.3344698;0.0616504;0;
20886.84;12749.73;-1267.356;20996.17;26.89971;-1.156852;18132.37;9147.174;-0.5290357;-0.3282156;0;
20897.08;13123.37;1183.749;20913.51;25.59989;-3.835006;18323.21;9382.47;-0.008765445;-0.2629185;0;
23457.94;14974.87;2922.654;23503.76;30.86545;-6.711297;20681.37;10797.39;0.3160801;0.4519865;0;
5709.104;3584.385;2982.061;6069.252;24.60514;-2.216819;5022.242;1456.448;0.3157625;0.6464344;0;
-24678.97;-16511.85;2117.31;-24192.42;20.29351;1.938228;-22207.03;-11535.17;0.1855105;0.06107873;0;
-23185.27;-13911.7;504.9293;-23321.61;17.19264;-4.092;-20266.37;-9681.056;-0.009577917;-0.3287867;0;
-22086.06;-13316.75;-1827.875;-22074.75;9.605926;-5.829445;-19368.96;-8442.165;0.1853337;-0.1985217;0;
-26778.34;-17951.98;-3517.703;-26772.3;10.668;-5.488673;-23870.39;-11670.35;0.3150822;-0.1333548;0;
2670.322;2290.326;-3524.601;2102.502;10.58993;-7.760516;3031.533;389.9117;-0.07503846;0.2565832;0;
23593.4;15253.34;-2720.399;23427.5;1.939104;-1.523428;21022.55;10740.82;-0.009995715;0.2563254;0;
20945.97;12765.31;-1236.082;21052.86;-2.684545;0.01858831;18168.85;9144.04;0.2498837;-0.1987036;0;
21033.22;13270.09;1215.178;21048.02;-4.757953;7.185621;18463.13;9536.869;-0.2701061;-0.003601876;0;
23512.51;15029.91;2954.239;23554.51;-10.24553;14.74735;20730.44;10846.15;-0.2048674;-0.0685656;0;
5537.154;3457.741;3011.49;5881.527;-3.135287;12.38813;4839.198;1356.333;0.3800445;-0.3933334;0;
-25304.94;-17141.26;2125.377;-24832.63;0.2831392;16.39454;-22846.23;-12130.78;0.1197933;0.06183322;0;
-23883.22;-14525.26;514.5184;-24001.01;0.8860672;10.08179;-20961.93;-10227.92;-0.2701311;0.06177109;0;
-22356.37;-13463.43;-1807.269;-22326.27;6.712326;5.048061;-19624.83;-8483.56;0.05497703;-0.133193;0;
-27011;-18135.98;-3506.13;-26988.04;-1.063951;8.05722;-24098.41;-11732.6;0.3797585;-0.06809185;0;
2405.068;2127.645;-3508.432;1864.365;-3.875921;4.097254;2767.23;322.1501;-0.01042713;0.06191127;0;
23528.02;15208.81;-2695.813;23369.01;-5.479617;11.26007;20949.95;10694.02;-0.270286;0.3217184;0;
20743.4;12545.37;-1208.648;20852.36;-12.30661;14.79885;17967.04;8914.975;-0.1400798;-0.0684089;0;
20651.1;12893.97;1248.957;20670.27;-3.184569;14.58303;18077.27;9174.008;-0.01000432;-0.4581442;0;
23062.38;14590.07;2977.801;23101.44;1.908845;21.26642;20287.16;10380.04;0.1199404;0.3219242;0;
4831.057;2931.024;3027.47;5209.489;-1.977839;7.848836;4184.497;981.7643;0.2497546;0.7114048;0;
-25808.71;-17546.25;2161.549;-25311.55;1.038259;-2.340212;-23322.85;-12303.29;0.3794383;0.3858533;0;
-23758.79;-14473.69;578.2035;-23909.45;-5.593241;5.900796;-20858.14;-10231.39;0.184155;0.06062888;0;
-21466.47;-12557.24;-1709.041;-21473.95;-10.87988;7.502457;-18759.7;-7841.461;0.2489373;-0.004399396;0;
-25429.82;-16729.91;-3383.778;-25464.48;-5.77776;6.15526;-22559.38;-10741.25;-0.07614952;-0.06936232;0;
3336.35;2727.562;-3412.892;2749.221;-7.647964;7.153819;3656.604;606.9421;-0.8556811;0.1905768;0;
23409.72;15036.9;-2637.648;23257.99;1.603121;6.744733;20824.8;10532.91;-0.6599193;0.3852873;0;
20621.54;12461.7;-1156.335;20730.94;12.51985;5.867178;17847.59;8852.677;-0.2044848;-0.1348386;0;
20580.52;12800.77;1299.312;20596.56;-0.2861036;10.34902;18006.82;9057.252;-0.139312;-0.06973577;0;
22910.01;14455.19;3026.107;22954.69;-8.792282;13.35285;20138.16;10270.69;0.1206974;0.060269;0;
4784.422;2874.701;3092.656;5163.052;2.804477;13.40642;4148.97;904.3571;0.1855434;-0.2646283;0;
-26039.44;-17763.72;2236.915;-25527.18;9.365743;16.608;-23536.3;-12549.62;0.0554223;-0.199395;0;
-24241.48;-14851.12;650.682;-24362.88;1.117309;10.83091;-21326.66;-10538.56;0.2502686;-0.1342273;0;
-21978.93;-12998.63;-1633.168;-21955.91;-1.696853;5.997374;-19253.38;-8152.539;0.3149845;0.1257769;0;
-25932.66;-17191.92;-3310.308;-25932.17;-2.633153;9.139545;-23071.47;-11060.44;-0.0101687;0.3855199;0;
3135.623;2574.116;-3326.394;2571.024;-6.716344;7.857687;3413.898;564.6289;-0.3349952;-0.00467154;0;
23554.47;15171.95;-2536.431;23404.72;-1.753102;9.18945;20955.62;10668.53;-0.1397566;-0.1346015;0;
20634.93;12473.69;-1096.605;20749.79;1.330118;11.25657;17868.63;8855.81;0.1202532;0.06043576;0;
20527.93;12748.36;1322.063;20546.11;-0.882021;6.087691;17949.14;9014.03;0.1850998;0.1903097;0;
22929.76;14480.33;3069.449;22972.88;0.1242193;3.536344;20158.1;10279.96;0.1849138;0.1901185;0;
4695.559;2839.198;3164.534;5072.949;-0.9476324;2.662013;4073.778;924.4653;0.2496953;-0.06994192;0;
-26035.17;-17734.75;2326.493;-25525.18;-2.3532;0.3149355;-23528.97;-12455.11;0.1195097;-0.329741;0;
-24114.83;-14711.05;746.3547;-24223.29;0.9307184;1.654278;-21209.47;-10389.9;-0.2054471;-0.004572977;0;
-21958.86;-12973.98;-1546.962;-21919.71;1.800439;3.394172;-19237.73;-8060.153;-0.3351753;0.255301;0;
-26033.91;-17265.33;-3236.448;-26018.4;2.937706;0.5774781;-23148.27;-11031;-0.3998059;0.1900771;0;
2964.076;2490.803;-3276.159;2409.19;4.207552;-0.1599145;3286.947;518.6331;-0.5943062;0.2548535;0;
23488.47;15136.16;-2487.855;23332.31;2.930526;1.715768;20904.94;10628.08;-0.1389376;0.1246627;0;
20731.02;12551.56;-988.5139;20836.24;3.864611;1.580078;17957.86;8929.668;0.251006;0.1245375;0;
20649.44;12875.87;1472.868;20662.74;-1.430558;6.334157;18074.13;9145.286;-0.009115546;0.1244123;0;
22974.04;14517.18;3195.896;23012.49;-6.385613;9.074093;20200.03;10306.66;-0.2040084;-0.005647385;0;
4725.479;2866.299;3248.938;5078.866;-4.102022;10.80641;4086.725;943.9624;-0.008901398;0.1892603;0;
-25849.75;-17534.16;2382.263;-25380.34;-4.566414;12.939;-23361.7;-12261.27;0.1210422;0.1890702;0;
-23924.59;-14559.43;789.6688;-24058.8;-5.901973;12.32316;-21031.12;-10291.83;-0.009014077;-0.2658912;0;
-21777.11;-12824.73;-1505.69;-21760.08;-6.431906;14.11931;-19061.43;-8035.332;-0.07397236;-0.3955587;0;
-25634.72;-16894.95;-3190.142;-25668.14;-7.296099;7.674887;-22802.28;-10841.62;-0.07389803;0.1245775;0;
3275.863;2686.712;-3213.689;2686.017;-8.024726;4.050219;3507.123;612.908;-0.008856439;0.254387;0;
23497.98;15087.09;-2417.655;23341.87;-7.749219;0.2281223;20884.58;10584.33;-0.07381488;0.1241967;0;
20640.73;12484.67;-940.0298;20745.82;-7.808782;-7.742832;17876.83;8866.814;0.1211613;-0.00586281;0;
20532.72;12749.64;1510.839;20541.02;-7.465167;-0.3001903;17952.04;9007.346;0.6407783;-0.395661;0;
22942.5;14490.03;3249.01;22974.41;-6.185844;2.781326;20165.96;10286.68;0.5101998;-0.3302961;0;
4669.649;2824.464;3310.743;5041.626;-8.389455;-0.1687175;4038.417;925.1371;-0.07501896;0.1248072;0;
-26134.59;-17802.07;2447.661;-25638.63;-8.984238;1.238094;-23639.25;-12533.95;-0.2698456;0.2546165;0;
-24357.65;-14872.91;828.2335;-24512.97;-8.104554;-2.112175;-21475.9;-10518.53;0.05526224;0.1893933;0;
-22435.72;-13377.38;-1501.022;-22448.25;-7.024684;-3.516694;-19731.23;-8395.448;-0.009760628;0.1242357;0;
-26174.12;-17491.66;-3170.471;-26206.75;-6.213342;-5.053707;-23325.31;-11335;-0.5944569;-0.0707912;0;
3239.505;2584.752;-3172.72;2653.574;-6.609241;-8.665647;3489.32;531.1495;-0.7887616;-0.07072007;0;
23509.15;15104.75;-2366.514;23351.49;-0.3733088;-5.776734;20896.2;10603.27;-0.1382956;-0.1356163;0;
20632.73;12477.5;-866.4823;20734.01;2.440105;-5.034117;17862.05;8847.682;0.18668;0.05942196;0;
20660.76;12874.14;1597.307;20673.09;6.188698;-6.301735;18078.27;9135.799;-0.1383443;0.4491663;0;
23078.39;14622.59;3326.832;23119.73;9.196589;-3.817095;20294.07;10408.71;-0.1382052;-0.07102377;0;
4868.16;2948.521;3368.029;5201.531;9.856934;-10.57835;4198.353;974.0342;0.1867703;-0.2008871;0;
-26217.2;-17915.28;2475.748;-25768.3;15.33939;-14.78753;-23752.69;-12629.17;-0.008319363;0.3190535;0;
-24849.69;-15221.16;838.4879;-25006.47;2.530599;-11.75856;-21963.53;-10704.44;-0.203213;0.2537656;0;
-22918.51;-13769.24;-1490.903;-22933.23;-5.643618;-12.68444;-20218.29;-8666.563;0.1867952;-0.07132612;0;
-26734.71;-17980.44;-3156.832;-26758.81;-4.833663;-8.116981;-23866.21;-11642.34;0.05667283;-0.3960912;0;
2765.078;2274.673;-3137.262;2192.205;-10.32116;-5.764482;3065.448;412.2741;-0.3331882;-0.3307258;0;
23489.74;15118.66;-2317.942;23319.91;-6.426026;-2.476588;20884.69;10606.81;0.05695068;-0.2004588;0;
20596.19;12419.18;-842.2286;20698.38;-8.563024;2.013635;17820.88;8778.413;0.05689345;-0.005355383;0;
20474.48;12698.93;1606.2;20482.32;0.2204669;-0.2658079;17895.33;8968.398;-0.008131054;0.189552;0;
22849.89;14394.55;3344.618;22882.77;11.4724;0.5382544;20071.87;10176.51;0.6415505;0.05942689;0;
4356.905;2543.58;3406.349;4743.855;-1.398872;-2.208465;3741.806;780.5804;0.3810365;-0.07056752;0;
-26387.21;-18052.28;2555.259;-25889.14;-6.153865;-4.282716;-23876.48;-12609.49;-0.07411773;-0.2004313;0;
-24306.59;-14828.32;951.1838;-24460.43;-3.534737;-5.81896;-21414.9;-10455.71;-0.2689453;-0.2651972;0;
-22246.06;-13180.99;-1381.475;-22244.46;-3.665884;-8.961249;-19540.35;-8254.241;-0.5935118;-0.2649308;0;
-26077.82;-17381.2;-3050.138;-26107.96;-6.475239;-7.076723;-23219.41;-11244.63;-0.3980134;-0.06976254;0;
3172.679;2591.45;-3030.066;2585.647;-10.55457;-7.47151;3472.995;550.6232;-0.1377441;0.1252096;0;
23450.77;15076.38;-2211.057;23300.56;-4.984259;-5.923456;20864.89;10581;-0.007670978;-0.004850915;0;
20633.95;12469.83;-695.5019;20740.69;-2.501004;-4.309914;17859.91;8842.046;0.2522061;-0.06981339;0;
20640.75;12850.84;1780.828;20648.77;-1.359415;-3.836764;18061.66;9109.054;0.122018;-0.1347106;0;
22900.52;14460.91;3497.518;22940.6;2.861509;-0.8186765;20130.51;10257.21;0.05692805;0.1252942;0;
4509.617;2704.092;3536.826;4879.908;-1.026132;-5.372633;3883.519;816.7375;-0.008096494;0.255103;0;
-26290.25;-17954.09;2654.995;-25792.36;-3.168555;-9.453071;-23793.71;-12618.8;-0.0730557;-0.1349574;0;
-24288.62;-14814.21;1028.081;-24423.9;-0.8208464;-4.018138;-21400.68;-10474.38;0.1868871;0.0600802;0;
-22326.44;-13293.5;-1297.783;-22308.69;-2.494961;-1.334783;-19621.71;-8348.042;0.2516666;0.3848566;0;
-26866.12;-18021.23;-2967.374;-26837.66;1.325939;-3.878793;-23974.61;-11592.33;0.1864464;-0.07030157;0;
2402.584;2089.715;-2935.75;1854.929;5.343095;-4.67863;2739.592;289.0687;0.3811611;-0.2001656;0;
23477.45;15157.66;-2096.08;23309.86;-2.298084;-4.00416;20892.28;10639.81;0.0559414;0.1898396;0;
20767.91;12557.97;-595.2589;20867.09;-6.315239;-4.201086;17985.86;8919.291;-0.3339189;0.1246815;0;
20787.37;13031.97;1879.189;20796.19;-7.514342;-4.464736;18213.74;9302.834;-0.008746634;-0.1353132;0;
23479.7;14993.51;3624.08;23513.66;-11.32421;-5.331028;20693.78;10786.38;-0.008737845;-0.07020987;0;
5323.593;3351.334;3650.361;5649.653;-10.04003;-4.722824;4622.24;1291.509;-0.0736964;0.1247627;0;
-25508.51;-17277.93;2740.898;-25076.99;-9.092916;-3.177532;-23066.52;-12240.02;0.1212797;0.05967001;0;
-23838.16;-14478.86;1118.239;-23991.23;-12.49905;-7.595091;-20955.21;-10245.2;0.05619046;0.05961005;0;
-22767.08;-13844.12;-1212.713;-22757.28;-12.82226;-9.931801;-20064.66;-8845.448;0.4459381;0.1894848;0;
-27463.84;-18614.95;-2899.459;-27480.79;-13.74641;-10.85958;-24588.11;-12151.86;0.3155553;0.1243271;0;
2499.377;2166.773;-2899.887;1919.698;-15.87605;-15.13546;2796.531;359.0648;-0.4643699;-0.4605039;0;
23594.98;15254.44;-2088.442;23428.83;-8.760151;-8.891019;20993.28;10726.01;-0.2040339;-0.3301065;0;
20734.82;12532.21;-576.5092;20843.39;-3.727507;-4.126419;17964.72;8890.383;0.3808772;0.1249966;0;
20860.68;13102.93;1894.703;20872.84;-3.388969;-9.480724;18282.12;9376.575;0.1206251;-0.1349984;0;
23296.59;14817.74;3608.187;23331.86;-1.777973;-10.54292;20521.63;10595.86;-0.1393655;-0.0698954;0;
4891.361;3000.017;3632.142;5266.154;0.7684326;-11.53708;4244.974;1038.032;-0.2691601;-0.1997599;0;
-25476.4;-17213.36;2746.404;-24983.32;1.839387;-13.13301;-23002.21;-12058.33;-0.2039223;-0.2645265;0;
-23228.09;-14010.3;1125.395;-23359.18;2.842893;-12.44999;-20345.53;-9931.75;0.251054;0.3854128;0;
-21341.06;-12463.02;-1208.563;-21318.46;5.653076;-12.57144;-18633.2;-7862.024;0.315769;-0.004778575;0;
-25130.52;-16503.09;-2881.726;-25158.44;-0.9840368;-11.88898;-22296.91;-10648.66;-0.1393196;-0.3945778;0;
3875.62;3078.018;-2892.292;3287.818;-1.921053;-10.33649;4103.674;857.514;0.05572239;-0.06934464;0;
23573.48;15133.32;-2115.025;23423.33;-9.554934;-10.92895;20953.47;10634.11;0.2505684;0.1256271;0;
20555.59;12414.36;-628.8958;20665.92;-19.92683;-11.98963;17787.64;8795.112;-0.1394874;-0.004433853;0;
20511.15;12719.27;1834.467;20528.32;-6.24278;-6.485169;17923.34;8969.198;-0.0743799;-0.004429397;0;
22864.29;14411.92;3568.813;22905.24;-0.07456545;-3.263533;20092.89;10210.59;0.5104009;0.3204118;0;
4674.182;2863.468;3634.38;5033.757;1.466727;-1.920595;4048.287;919.463;0.314986;0.1901551;0;
-25530.66;-17220;2781.156;-25067.27;6.019605;1.631308;-23046.12;-12035.17;-0.4649386;-0.1348726;0;
-22894.28;-13767.88;1191.221;-23063.03;8.559152;-1.250475;-20019.58;-9808.142;-0.1396347;-0.3946065;0;
-20661.9;-11860.72;-1113.568;-20674.49;11.96583;-2.588877;-17969.53;-7444.829;0.1853423;-0.3292426;0;
-24751.91;-16090.49;-2791.042;-24811.22;12.28957;-1.447566;-21924.88;-10259.21;-0.2696153;-0.004075119;0;
3792.606;3020.856;-2806.776;3185.005;14.08491;-1.379129;4032.532;850.5026;-0.3992791;-0.198973;0;
23479.37;15041.21;-2006.653;23328.18;9.516404;-2.114555;20866.17;10536.44;-0.1390085;-0.06883844;0;
20485.22;12346.51;-503.7037;20597.57;7.29604;-3.385106;17718.18;8731.406;0.0560332;0.3860021;0;
20459.2;12662.07;1961.813;20472.95;1.729979;-1.305234;17872.79;8918.098;0.1859116;0.2556796;0;
22775.83;14331.42;3698.593;22813.59;-6.711853;-1.035991;20006.94;10116.33;0.1207574;0.1904553;0;
4362.423;2592.396;3780.865;4725.931;-0.2073979;0.7064847;3760.416;735.8089;0.1856034;0.2552313;0;
-25774.05;-17422.68;2946.233;-25297.49;2.472128;2.112416;-23270.73;-12128.01;0.1204496;0.06007284;0;
-23152.16;-13962.33;1357.351;-23301.13;-1.348749;1.440464;-20272.25;-9870.688;-0.1395408;-0.1348896;0;
-21151.87;-12303.09;-939.7023;-21134.04;-1.950607;2.041863;-18442.98;-7685.348;-0.2043679;-0.06978668;0;
-24995.44;-16346.66;-2606.67;-25013.5;-1.613854;-0.7733493;-22153.84;-10486.82;-0.2691299;0.2551202;0;
3817.437;3043.323;-2638.096;3239.973;-1.343813;-2.447146;4065.163;810.8063;-0.1389248;0.2548638;0;
23410.47;14976.59;-1860.772;23266.04;-2.61526;-5.05696;20799.85;10486.46;0.1210841;0.2546077;0;
20386.58;12250.03;-373.8675;20500.04;-5.827813;-7.999067;17618.76;8633.251;0.1209625;0.4492539;0;
20386.19;12584.49;2072.81;20403.21;-0.1949028;-8.325944;17801.67;8834.3;0.1858083;0.05899846;0;
22764.05;14331.33;3799.139;22805.62;6.63682;-9.52321;20001.33;10126.33;0.05568689;-0.07099552;0;
4350.234;2609.848;3868.848;4710.134;-5.292567;-9.446658;3753.669;751.1605;-0.07430375;0.05901051;0;
-26054.21;-17697.13;3008.016;-25591.57;-10.91333;-8.83438;-23553.71;-12398.77;0.1206729;0.1239186;0;
-23550.19;-14301.69;1397.864;-23710.07;-9.36212;-9.026452;-20675.43;-10152.62;0.5753231;0.4486308;0;
-21366.05;-12456.55;-925.5298;-21364.38;-12.50054;-8.950399;-18668.24;-7768.86;0.6397123;0.1883106;0;
-25119.65;-16463.56;-2608.472;-25159.69;-7.464142;-6.329133;-22294.69;-10548.81;0.05436347;-0.3316174;0;
3737.379;2997.741;-2622.124;3149.533;-5.849051;-5.184063;3975.553;816.1306;-0.2055605;0.1884546;0;
23439.33;15018.39;-1846.472;23294.15;-2.762691;-2.030718;20827.55;10524.71;-0.1403866;0.5131019;0;
20436.91;12286.96;-389.5042;20546.77;-0.8175325;1.990177;17669.02;8662.239;-0.2052129;0.05781499;0;
20405.93;12616.49;2034.325;20419.8;1.929955;-1.427831;17820.4;8874.643;-0.07507203;-0.07217781;0;
22676.73;14231.56;3745.201;22721.62;7.08558;-3.167952;19907.43;10016.46;0.3148074;0.1227968;0;
4058.508;2328.56;3819.992;4412.351;-0.8921427;-3.030803;3444.398;556.676;0.5743605;0.3175754;0;
-25978.46;-17630.72;2986.134;-25533.88;-2.164044;-6.108912;-23493.93;-12241.26;-0.01092269;0.1223543;0;
-22880.91;-13783.5;1411.861;-23053.92;-11.2042;-4.026302;-20025.41;-9792.656;-0.2707811;-0.07267071;0;
-21080.99;-12293.55;-875.6276;-21081.89;-22.5798;-2.01283;-18402.57;-7829.705;-0.01063963;0.1872717;0;
-25189.53;-16620.66;-2550.125;-25225.71;-13.91692;-9.043832;-22372.68;-10782.62;-0.1405636;0.3819855;0;
3897.566;3039.745;-2587.042;3317.568;-12.56279;-11.44613;4122.774;823.0789;-0.2703571;0.2516671;0;
23502.43;15070.8;-1818.921;23360.17;-12.48379;-16.32426;20879.71;10567.43;-0.3350528;0.3163815;0;
20416.03;12284.7;-349.0815;20526.21;-10.26045;-22.67105;17648.37;8667.138;-0.1398141;0.3810309;0;
20409.59;12603.07;2079.393;20422.69;-9.915344;-17.55769;17820.73;8858.032;0.1851631;0.05581138;0;
22767.24;14334.04;3805.153;22804.19;-6.623827;-16.9372;19999.81;10123.73;-0.009924952;-0.1391467;0;
4250.288;2536.002;3894.158;4632.761;-8.157413;-14.30791;3666.807;726.5214;-0.07488232;-0.2689416;0;
-26223.59;-17863.39;3051.76;-25721.75;-5.872041;-10.54261;-23715.49;-12501.54;-0.1397744;-0.3336387;0;
-23217.04;-14097.79;1471.612;-23371.02;-10.21942;-11.67067;-20358.6;-10098.01;-0.139634;-0.008466769;0;
-20916.74;-12106.31;-815.3117;-20913.86;-18.31445;-9.850465;-18215.17;-7635.349;0.1203757;0.1214764;0;
-25234.64;-16529.9;-2485.934;-25248.29;-3.760389;-11.51508;-22409.32;-10598.37;0.0552874;-0.138515;0;
3556.979;2856.382;-2493.15;2988.144;3.209615;-11.83842;3761.159;748.5331;-0.07470284;-0.1383758;0;
23435.08;14998.91;-1701.166;23291.44;1.062936;-12.89826;20806.2;10492.7;0.05530691;0.1216326;0;
20343.72;12209.22;-239.4096;20455.34;5.214077;-14.89472;17580.58;8590.259;0.380088;0.1864777;0;
20295.28;12488.5;2187.174;20305.64;-2.426972;-12.40145;17704.86;8742.922;0.5746081;0.316225;0;
22632.9;14213.63;3910.078;22671.6;-5.907157;-11.25034;19866.77;9988.226;0.5090634;0.445842;0;
3970.528;2314.68;3995.135;4339.573;-9.183752;-10.90412;3385.533;551.2399;0.7034539;0.1855246;0;
-26397.17;-17994.36;3159.071;-25913.39;-14.53316;-10.7592;-23892.8;-12602.56;0.2479757;0.1203709;0;
-23726.96;-14412.3;1562.416;-23863.2;-13.78162;-6.997403;-20858.85;-10179.52;-0.0121428;0.4450866;0;
-22146.27;-13209.06;-743.2145;-22137.14;-17.2504;-3.373415;-19458.27;-8253.626;0.3127061;0.5096067;0;
-26409.96;-17658.05;-2409.349;-26443.24;-12.94616;-4.039794;-23564.16;-11443.88;0.1824572;0.184258;0;
3054.935;2570.85;-2424.263;2471.326;-10.99077;-2.495188;3354.448;517.3454;0.1822739;0.1840728;0;
23350.02;14994.1;-1642.187;23189.82;-10.04269;-3.028545;20756.25;10488.94;0.1171234;0.1189205;0;
20338.59;12164.54;-162.7489;20441.36;-5.276204;-4.83398;17561.82;8533.002;-0.07789632;0.1837684;0;
20336.04;12545.65;2273.19;20349.74;-11.96968;-0.1403784;17748.93;8806.021;-0.2727201;0.3135184;0;
22655.54;14228.69;3978.985;22693.25;-14.83707;2.940856;19888.49;10001.29;-0.5323154;0.05333402;0;
3886.243;2261.405;4042.984;4253.468;-12.94713;1.732208;3328.824;558.259;-0.1419765;-0.206589;0;
-26575.88;-18124.87;3196.189;-26097.58;-9.987355;3.739955;-24043.97;-12624.22;-0.01189914;-0.141414;0;
-23772.48;-14455.09;1607.868;-23936.32;-15.40233;-0.3496396;-20914.29;-10258.02;0.05308016;-0.01133725;0;
-21705.59;-12749.87;-686.1266;-21713.21;-21.214;-6.310647;-19018.33;-7972.089;0.2479288;0.0536415;0;
-25757.04;-17036.96;-2342.667;-25769.61;-8.46666;2.470214;-22907.92;-10919.5;0.0527777;0.1835223;0;
3326.948;2721.223;-2335.784;2760.648;-3.970174;6.285637;3604.747;680.5226;0.117692;0.1183705;0;
23373.12;14971.27;-1541.522;23214.4;3.066414;3.399177;20769.45;10474.45;0.05260641;-0.1416178;0;
20336.54;12174.92;-64.62122;20443.9;9.292624;4.065591;17562.74;8538.671;-0.07738113;-0.07650814;0;
20261.99;12472.11;2383.994;20278.88;11.76153;-0.1582971;17676.37;8742.094;0.182566;-0.07643127;0;
22637.15;14203.48;4099.329;22677.27;20.32353;-1.698745;19871.47;9977.153;0.3123172;0.05358023;0;
3921.798;2292.018;4148.215;4287.078;5.701073;-7.72538;3331.977;531.465;0.3120034;0.1834611;0;
-26293.74;-17878.88;3289.039;-25828.72;-1.538324;-14.75064;-23795.39;-12506.31;0.1817552;-0.14156;0;
-23308.29;-14128.59;1684.695;-23459.96;-5.823686;-11.11887;-20445.87;-10047.93;0.2465399;-0.07645041;0;
-21387.42;-12502.17;-630.3663;-21376.56;-15.79817;-10.16993;-18681.13;-7814.185;0.3762269;0.1834958;0;
-25108.58;-16531.97;-2283.433;-25154.19;-9.955146;-12.705;-22280.76;-10637.63;0.05101215;-0.01159063;0;
4038.327;3161.002;-2273.299;3447.44;-11.08324;-12.75922;4254.585;910.9326;0.0509609;-0.1415137;0;
23482.9;15040.02;-1470.948;23339.95;-5.512401;-12.61243;20863.69;10548.16;-0.07902499;0.1184979;0;
20415.47;12282.21;41.36448;20529.16;1.057221;-13.93936;17648.79;8664.031;-0.1439129;0.1183788;0;
20655.05;12855.2;2512.862;20664.92;-1.288366;-6.825344;18073.33;9102.413;-0.07880098;-0.1416095;0;
23128.74;14684.08;4226.474;23166.44;-0.4164149;0.4154266;20350.02;10476.37;-0.3385912;-0.01153251;0;
4338.734;2528.63;4255.492;4717.202;2.195972;-4.541545;3664.619;786.7073;-0.07838158;-0.01152092;0;
-26112.45;-17820.31;3365.568;-25638.25;4.203497;-5.675691;-23673.34;-12434.52;0.1165992;-0.01150935;0;
-23177.08;-13946.67;1746.966;-23348.71;3.66341;-2.521852;-20316.23;-9934.881;0.116482;0.1834043;0;
-21286.55;-12387.17;-572.4989;-21280.43;9.018364;-2.519318;-18595.56;-7771.309;0.311267;-0.01168207;0;
-25481.31;-16790.72;-2227.373;-25478.99;-3.985143;1.301119;-22650.01;-10696.28;-0.01388245;0.3131664;0;
3591.627;2910.867;-2194.494;3035.185;-14.69841;4.983873;3824.949;881.7349;-0.1438032;0.8325905;0;
23520.92;15099.97;-1380.728;23367.88;-2.358779;1.495753;20895.51;10595.15;0.1162107;0.3769825;0;
20451.38;12308.77;113.1591;20556.87;0.2555593;-1.318912;17683.66;8672.938;0.2460286;-0.2081024;0;
20424.54;12617.07;2583.335;20439.18;6.484593;2.768251;17833.07;8876.943;0.3757161;-0.337828;0;
22766.7;14346.83;4293.753;22804.88;9.625909;5.109872;19996.94;10123.66;0.4403059;-0.1425865;0;
4150.953;2514.166;4312.24;4509.058;20.13243;1.018778;3545.663;665.8445;0.3748961;-0.01250856;0;
-26014.63;-17592.16;3418.916;-25558.31;32.70549;-1.728423;-23550.05;-12339.58;0.04968272;-0.07746334;0;
-23339.33;-14027.13;1770.214;-23517.85;21.75428;-0.3870281;-20515.9;-9943.993;0.2445348;0.0525492;0;
-22124.15;-13190.62;-581.2585;-22145.99;19.58897;1.01988;-19470.55;-8396.243;0.3092565;-0.2723403;0;
-26647.6;-17873.69;-2238.654;-26688.04;13.54107;-4.473562;-23824.39;-11677.87;-0.6005971;-0.2070993;0;
2964.367;2510.922;-2189.771;2377.401;5.355788;-8.822835;3238.109;510.008;-0.5350263;0.1179455;0;
23466.99;15115.05;-1348.836;23306.38;5.149335;-5.063048;20858.72;10598.49;0.3100868;-0.4019118;0;
20500.78;12320.15;166.6328;20602.03;1.192046;-3.316465;17714.34;8674.924;0.3747426;-0.4664753;0;
20574.35;12789.43;2638.473;20581.72;-0.6841857;-3.179167;17975.45;9048.671;0.3093987;0.1186995;0;
22870.9;14439.39;4336.842;22903.05;-3.764957;-0.6306213;20089.88;10186.02;0.2441204;0.05361292;0;
4062.879;2422.098;4346.258;4388.909;-1.282928;-1.634732;3446.86;589.6957;-0.08096156;0.1185264;0;
-26248.13;-17810.9;3459.491;-25844.63;-0.8794969;-3.709499;-23808.28;-12494.37;-0.01591287;0.1833746;0;
-23571.63;-14257.81;1830.145;-23792.64;1.398562;3.26027;-20798.53;-10156.89;0.1140378;-0.01171166;0;
-21634.42;-12660.7;-504.9278;-21704.89;4.009126;4.663636;-19030.37;-7960.281;0.3088253;-0.1416346;0;
-25329.41;-16678.29;-2149.094;-25435.43;2.197412;10.35238;-22622.34;-10739.65;0.3085149;-0.01155758;0;
3819.527;3058.577;-2095.96;3193.592;4.873545;20.32219;3933.305;880.8867;0.1133029;0.1183887;0;
23568.07;15115.38;-1271.517;23392.9;-3.570469;4.092265;20906.51;10597.99;0.04822173;-0.1415996;0;
20459.3;12324.49;223.4158;20537.16;-7.987511;-4.418497;17674.68;8668.854;-0.1467288;-0.2064247;0;
20391.6;12582.05;2685.048;20375.13;-10.59243;-4.414057;17768.58;8808.71;-0.3414834;0.1186195;0;
22720.47;14305.43;4391.116;22734.01;-17.34596;-12.17946;19929.3;10048.53;-0.01630351;-0.2063364;0;
3830.736;2260.163;4416.407;4136.921;-9.827422;-5.268162;3183.357;509.5331;0.763321;-0.4010311;0;
-26513.04;-18070.97;3537.628;-26178.06;-7.740467;-1.243953;-24157.4;-12716.5;0.4377173;0.1191106;0;
-23384.22;-14145.9;1922.477;-23721.43;-4.383787;-6.333284;-20703.21;-10141.15;-0.3423306;0.05402355;0;
-21890.49;-12973.89;-399.7257;-22050.85;1.380418;-7.130716;-19368.44;-8297.823;-0.0821173;-0.07596543;0;
-26340.09;-17630.82;-2061.707;-26518.57;-1.434008;-6.18579;-23681.99;-11575.72;0.1128672;0.2489476;0;
3305.048;2680.49;-2044.799;2619.689;0.3087451;-5.37584;3421.477;580.2872;-0.2770502;0.1187628;0;
23519.24;15113.53;-1219.127;23325.13;-1.566599;-5.303455;20855.37;10562.87;-0.4067065;-0.1412259;0;
20368.52;12211.17;301.7712;20432.79;-1.832469;-5.432093;17560.9;8531.697;-0.3413305;-0.2060514;0;
20427.75;12632.12;2748.457;20390.18;-4.175152;-3.216259;17789.54;8844.369;-0.01615085;-0.07590964;0;
22645.35;14224.28;4431.066;22641.03;-10.4676;-0.3997437;19838.98;9942.754;0.3087021;-0.01086602;0;
3649.864;2103.211;4456.849;3907.064;0.3265634;-3.145642;2969.816;338.555;0.04852254;-0.2707245;0;
-26397.75;-17957.29;3586.337;-26139.43;6.823946;-4.482079;-24111.78;-12688.71;-0.0814609;-0.2054851;0;
-23165.37;-14025.77;1992.658;-23557.29;1.793247;-2.200217;-20564.13;-10130.06;-0.01641171;0.05459075;0;
-21146.17;-12238.73;-309.8441;-21372.23;0.6533454;-2.599904;-18694.45;-7778.484;-0.2762646;0.2494379;0;
-24737.97;-16169.28;-1952.925;-25010.15;3.532101;0.8856993;-22188.83;-10537.67;-0.3409543;0.1842199;0;
4309.629;3354.695;-1926.881;3579.64;10.02626;3.095246;4319.025;1004.889;-0.1457097;0.2490022;0;
23606.64;15120.97;-1138.216;23413.73;-4.719569;4.029897;20912.45;10591.45;0.04933872;0.1837846;0;
20434.13;12329.02;336.9058;20492.92;-18.84835;8.714531;17622.75;8640.425;0.1142565;-0.01130207;0;
20462.89;12634.75;2776.591;20415.86;-2.887227;1.002859;17808.07;8818.227;0.04917433;-0.07625805;0;
22710.25;14316.17;4472.01;22699.08;2.942823;-5.227378;19898.68;10047.24;0.1790596;0.05375327;0;
3863.61;2345.921;4505.466;4115.414;0.2605491;1.676934;3165.835;481.1239;0.1139123;-0.0112681;0;
-26380.34;-17897.23;3618.913;-26130.5;3.341746;3.349822;-24137.39;-12754.33;-0.1460715;-0.1411915;0;
-23663.67;-14312.95;1992.686;-24071.19;-0.9485193;4.82008;-21095.17;-10268.04;0.04897732;-0.2709843;0;
-21867.42;-12836.71;-315.8752;-22125.38;-3.694232;8.566159;-19463.67;-8143.927;0.1788628;-0.1407773;0;
-25311.74;-16702.54;-1958.263;-25629.15;-2.08293;4.739647;-22783.87;-11004.15;0.1137157;-0.2056032;0;
3854.392;3104.477;-1951.61;3092.532;-1.477625;0.9838403;3925.668;782.3051;0.2435361;-0.1404293;0;
23311.75;14918.65;-1159.578;23105.85;-5.428255;7.61404;20649.91;10376.99;0.3082588;0.1195812;0;
20332.36;12179.23;348.08;20387.78;-8.570633;10.01777;17504.34;8480.904;0.307949;-0.07544097;0;
20576.98;12773.46;2812.929;20529.29;-8.830441;8.935982;17925.55;8966.899;0.372607;-0.4002019;0;
22996.5;14575.93;4516.182;22982.5;-12.03675;11.67318;20176.46;10281.58;0.2422979;0.1849063;0;
3818.214;2163.093;4546.533;4069.98;-8.608402;2.485034;3095.306;465.3849;-0.01781495;0.3146552;0;
-26744.45;-18341.85;3662.75;-26502.76;-5.25085;-4.818419;-24514.37;-13002.69;-0.1477317;-0.1404323;0;
-23634.5;-14310.52;2059.968;-24067.82;-11.47486;-2.067338;-21079.71;-10362.35;-0.01764861;0.0546108;0;
-21834.87;-12841.04;-239.229;-22092.62;-14.47744;-1.328449;-19424.99;-8186.354;0.04733646;0.5093273;0;
-25722.37;-17055.65;-1891.002;-25992.12;-14.12811;-7.757353;-23169.02;-11158.4;0.1122562;0.1839788;0;
3678.808;2961.648;-1874.172;2953.098;-14.64977;-13.77784;3731.125;776.9626;0.1771108;-0.2060101;0;
23445.74;15008.04;-1076.345;23244.93;-16.71116;-7.065886;20761.13;10465.91;0.1119655;0.2489683;0;
20265.67;12129.47;411.5516;20326.84;-19.5074;-4.647461;17449.68;8426.986;0.111853;0.1837508;0;
20257.04;12442.16;2849.256;20216.01;-16.00518;-3.43716;17603.96;8643.453;0.1117406;-0.3361726;0;
22565.01;14172.64;4531.796;22550.21;-12.77392;-0.01757628;19760.41;9875.52;0.1765957;-0.1409328;0;
3275.303;1824.361;4559.383;3513.083;-16.84692;-1.558166;2609.804;177.6847;0.3063529;-0.01085646;0;
-27156.68;-18651.07;3687.831;-26935.52;-19.91145;0.5867314;-24891.46;-13252.04;-0.01879164;-0.1407802;0;
-23783.26;-14507;2086.428;-24215.6;-15.06867;-3.700583;-21223.54;-10506.1;-0.1487074;0.1841979;0;
-21908.2;-12902.16;-216.9175;-22153.81;-12.37421;-6.845001;-19479.04;-8188.639;0.1762787;0.6387842;0;
-25474.71;-16910.33;-1864.184;-25750.65;-14.7063;-4.22585;-22921.2;-11085.59;-0.01880046;0.1184037;0;
4032.912;3131.113;-1865.934;3303.472;-14.95897;-4.154621;4053.112;839.325;-0.1487163;-0.4664214;0;
23394.24;14932.55;-1100.88;23199.34;-16.08302;-2.341968;20702.79;10397.58;0.2412372;-0.07614869;0;
20187.52;12063.17;368.7066;20245.22;-16.469;-1.937717;17383.63;8372.07;0.1760275;0.4436666;0;
20449.95;12631.41;2798.552;20405.55;-18.52855;3.020845;17805.98;8834;-0.6037575;0.5081881;0;
22797.13;14395.01;4489.795;22792.31;-20.11753;7.438561;19993.63;10108.68;-0.4732161;0.1828408;0;
3558.088;2026.118;4537.944;3826.442;-19.76252;7.297121;2882.79;368.8208;0.1769328;-0.01224498;0;
-26782.21;-18313.8;3671.818;-26512.12;-21.68505;9.634192;-24495.3;-12915.01;-0.01814704;-0.2071347;0;
-23583.8;-14309.47;2061.467;-23973.45;-15.90248;7.882955;-20975.74;-10314.68;-0.1480635;-0.07699189;0;
-21702.99;-12720.15;-242.5096;-21914.17;-10.1267;6.066494;-19227.02;-8022.198;-0.08294737;0.05302018;0;
-25242.5;-16608.59;-1887.876;-25463.6;-14.46981;8.136869;-22615.03;-10767.61;-0.1478314;-0.2718698;0;
3971.319;3181.281;-1883.231;3289.514;-17.00086;9.669301;4066.121;925.7564;-0.2126502;-0.141662;0;
23420.52;14978.86;-1110.476;23238.32;-10.15128;5.171851;20754.05;10463.58;-0.08250181;0.2482844;0;
20274.57;12133.24;347.0016;20349.68;-5.787795;1.41561;17479.12;8446.104;-0.2123536;0.1181003;0;
20247.11;12444.39;2759.253;20221.91;-8.461297;2.820829;17618.69;8660.459;-0.4070423;-0.2068551;0;
22558.78;14149.08;4443.257;22560.92;-8.519168;0.1387995;19772.99;9872.425;-0.01682921;-0.5964513;0;
3271.609;1817.449;4481.021;3569.268;-11.391;4.693377;2646.095;227.0356;0.04815505;-0.4659173;0;
-26765.97;-18287.6;3620.324;-26456.48;-17.60884;10.24812;-24413.42;-12841.84;-0.5365994;-0.1406124;0;
-22749.66;-13778.39;2042.728;-23104.02;-9.419474;0.7933541;-20092.7;-10022.83;-0.6010275;-0.4003405;0;
-20596.26;-11791.05;-256.139;-20763.95;-0.4340519;-3.963048;-18064.15;-7472.165;0.1791844;-0.2700036;0;
-24112.98;-15680.9;-1914.079;-24318.84;-16.97803;-3.222315;-21490.64;-10136.94;0.3089391;0.05510445;0;
4849.189;3641.56;-1906.94;4174.1;-26.138;-6.233187;4865.405;1208.768;-0.0811754;-0.2048203;0;
23602.37;15084.08;-1122.105;23446.5;-21.8912;-3.212814;20916.6;10585.48;-0.4059305;-0.3345492;0;
20405.75;12312.7;367.7742;20495.14;-26.49091;0.6753023;17630.52;8650.937;-0.6004247;0.1205584;0;
20533.55;12708.6;2804.586;20525.01;-17.28824;-5.286674;17915.63;8933.878;-0.5348541;0.2503719;0;
22942.26;14520.83;4496.229;22959.62;-10.70678;-8.764353;20154.89;10264.87;-0.1445126;-0.2696184;0;
4080.831;2428.842;4532.19;4387.468;-14.246;-3.397094;3420.185;640.0433;0.05053467;-0.1394128;0;
-26099.09;-17689.31;3636.303;-25762.97;-12.62409;-1.585142;-23730.84;-12432;-0.01448345;0.2505313;0;
-22742.02;-13607.32;2013.932;-23059.03;-13.81686;0.5597826;-20020.61;-9757.063;-0.3393056;0.1853123;0;
-21004.98;-12145.84;-289.8723;-21121.71;-12.06166;1.429998;-18446.93;-7624.295;-0.403932;0.3150608;0;
-24699.53;-16174.78;-1929.85;-24858.04;-18.68097;6.251211;-22011.83;-10460.33;-0.2086241;0.4446789;0;
4492.444;3479.681;-1918.322;3828.019;-25.6948;13.01008;4626.782;1125.034;-0.4033165;0.3142973;0;
23580.22;15102.17;-1125.511;23421.17;-19.03853;4.557405;20938.85;10604.97;-0.01310721;0.1840469;0;
20408.54;12299.19;383.8306;20499.62;-17.6119;0.8017818;17633.86;8648.772;0.5066447;0.2488293;0;
20539.01;12716.04;2829.59;20530.68;-17.99635;1.068908;17933.1;8948.942;-0.2085051;0.3135466;0;
22720.05;14315.61;4503.998;22744.45;-18.11199;-2.750071;19951.57;10064.76;-0.3382303;-0.01160518;0;
3722.15;2188.485;4520.836;4044.637;-13.87423;1.070597;3132.877;439.2773;0.05191359;-0.01159352;0;
-26199.41;-17747.09;3628.022;-25817.98;-5.822335;3.012027;-23762.07;-12451.25;0.05186143;0.1833202;0;
-22893.28;-13773.57;2002.723;-23145.23;-15.39565;2.272188;-20145.04;-9886.145;-0.07812537;-0.2066681;0;
-21041.01;-12113.98;-309.8471;-21119.23;-18.86281;4.614307;-18427.62;-7588.126;-0.2729489;-0.2064604;0;
-24186.74;-15767.82;-1944.027;-24302.83;-14.35588;3.872859;-21497.15;-10132.23;-0.01280527;-0.1412856;0;
4992.591;3727.838;-1922.396;4378.118;-16.61863;4.538796;5028.489;1318.773;-0.07775974;-0.206111;0;
23687.69;15147.38;-1126.644;23548.06;-4.81391;7.280414;21008.87;10667.09;-0.01271426;0.1189328;0;
20468.46;12387.46;377.5135;20568.25;0.2147692;7.07215;17717.94;8748.552;0.3121352;-0.1410561;0;
20618.37;12783.67;2819.844;20622.45;8.185156;14.2321;18019.36;9017.122;-0.2728845;0.2488897;0;
22776.95;14368.12;4496.666;22813.12;19.36271;17.70078;20009.62;10139.99;-0.5324796;1.028248;0;
4065.943;2418.35;4526.755;4375.42;10.56935;20.89806;3441.303;571.8268;-0.07717323;0.1826391;0;
-25619.38;-17199.28;3641.65;-25255.72;10.15659;27.37428;-23195.13;-12065.44;-0.142063;-0.4672178;0;
-22808.01;-13582.5;1989.788;-23040.31;4.92147;18.7732;-20018.34;-9582.718;-0.2068876;-0.401781;0;
-22492.66;-13615.69;-363.5923;-22526.73;0.2284515;16.34296;-19858.03;-8628.251;-0.1417124;-0.2714427;0;
-26777.83;-18076.91;-2007.244;-26841.28;-2.584817;11.50389;-23999.04;-11774.4;-0.4664067;-0.01130053;0;
3539.181;2879.056;-1951.348;2942.393;-11.89297;3.856516;3732.183;877.5443;-0.4659381;-0.1412239;0;
23758.96;15342.68;-1121.304;23604.61;-1.030028;9.412103;21128.5;10849.38;0.05426884;0.2487221;0;
20589.31;12429.25;404.4628;20689.77;0.7123188;8.330918;17824.25;8760.246;-0.01075303;0.5733089;0;
20687.72;12896.49;2874.721;20695.34;6.137587;13.81503;18095.51;9164.923;-0.07570957;0.05299411;0;
22982.73;14553.55;4557.266;23017.96;16.78134;20.70014;20223.46;10305.92;0.05430119;-0.07699384;0;
3950.009;2439.508;4554.967;4269.028;3.367891;15.92368;3373.882;597.14;-0.01072072;0.1179856;0;
-25812.69;-17361.82;3655.247;-25455.56;2.493851;16.44354;-23347.36;-12172.45;-0.205612;-0.2069697;0;
-22078.01;-13173.33;2042.851;-22338.11;-8.694438;15.89115;-19296.11;-9502.131;-0.140438;-0.07682706;0;
-20124.87;-11364.81;-276.9427;-20193.69;-23.55616;13.32996;-17485.37;-7221.178;0.3794418;0.2480869;0;
-23708.18;-15309.48;-1927.272;-23840.54;-9.801108;18.40714;-21004.21;-9857.203;0.5739626;0.1828702;0;
5165.762;3850.75;-1892.415;4528.921;-7.781528;21.33578;5202.37;1436.108;0.2485491;0.3775885;0;
23814.48;15256.71;-1086.98;23679.24;-4.625878;18.97006;21139.04;10773.6;0.3782341;0.3122418;0;
20485.96;12411.49;427.0708;20593.55;1.67541;19.35289;17741.66;8783.812;0.2479194;-0.2727781;0;
20677.03;12841.87;2894.995;20684.08;-1.675176;16.45318;18080.86;9088.25;-0.07716646;-0.1425693;0;
22819.09;14411.55;4559.498;22857.54;1.139546;11.68098;20058.13;10174.27;0.3127151;0.3123454;0;
3823.294;2299.179;4556.072;4159.757;-2.679992;16.29095;3236.246;533.873;0.4423356;-0.07777254;0;
-25579.72;-17109.67;3661.629;-25189.92;-4.083818;16.94441;-23110.44;-11891.11;-0.07784761;-0.01272706;0;
-22117.75;-13126.62;2006.186;-22351.37;-5.151442;15.85565;-19320.31;-9383.553;-0.4675734;0.4420571;0;
-20684.9;-11881.09;-332.9987;-20728.28;-9.969037;19.32283;-18038.1;-7462.288;-0.1422669;-0.07812579;0;
-23836.01;-15448.25;-1957.941;-23943.38;-1.586276;8.117512;-21109.09;-9914.335;-0.01218927;-0.207982;0;
5278.271;3965.589;-1917.555;4658.496;1.898919;1.478167;5346.974;1473.408;-0.4669484;0.1170637;0;
23745.87;15208.51;-1098.852;23613.36;4.241535;2.012546;21083.81;10746.97;-0.5314466;-0.4027926;0;
20539.06;12461.78;423.9875;20644.45;10.1308;-2.075314;17792.6;8834.97;-0.4009779;-0.4673553;0;
20885.55;13047.81;2878.983;20891.44;5.297845;3.218302;18290.48;9295.824;-0.2706403;0.05285309;0;
23131.74;14735.52;4547.282;23174.24;3.685907;6.095212;20377.6;10510.51;0.1194357;0.247702;0;
3970.663;2453.865;4541.307;4311.663;5.288818;8.43349;3396.311;677.8699;-0.1405537;0.05255109;0;
-25872.97;-17402.87;3632.48;-25486.18;4.882338;13.24767;-23397.62;-12168.5;-0.2703471;-0.01246907;0;
-22468.5;-13481.83;1981.221;-22685.88;4.27422;12.29659;-19663.88;-9633.411;-0.3350428;0.3773475;0;
-20645.14;-11839.34;-357.0645;-20661.61;1.925401;12.15027;-17967.25;-7309.926;-0.2047715;0.05213166;0;
-23635.87;-15242.44;-1983.794;-23730.99;4.937576;16.82675;-20916.73;-9698.579;0.315173;-0.2727574;0;
5379.749;4018.542;-1927.797;4772.591;6.339134;20.35981;5382.935;1522.78;0.249889;0.05235334;0;
23805.59;15220.53;-1110.02;23685.52;4.792523;17.25826;21116.72;10770.96;0.1846705;-0.2075686;0;
20474.54;12413.07;403.273;20588.25;6.327949;16.37014;17744.5;8782.725;0.184485;-0.3372948;0;
20660.74;12819.09;2863.506;20676.57;0.9639322;14.47829;18061.71;9075.171;-0.1405371;0.2477502;0;
22798.91;14413.81;4535.162;22845.3;-3.0565;12.45426;20061.98;10186.39;0.3793429;0.572338;0;
3652.035;2248.796;4531.199;4002.184;-1.512212;10.29829;3153.812;470.4288;0.9636677;0.2469262;0;
-25729.59;-17193.47;3628.691;-25321.97;-2.918188;4.795463;-23201.28;-11948.58;0.313026;-0.4029953;0;
-22018.35;-13080.04;1993.24;-22231.76;-2.513114;11.22088;-19215.82;-9314.598;-0.3369619;-0.5325251;0;
-20610.05;-11825.13;-321.0695;-20638.09;-4.31925;16.03226;-17940.27;-7414.689;0.1181481;-0.2071533;0;
-23762.92;-15402.71;-1934.561;-23861.45;-0.362795;8.648271;-21037.35;-9873.562;0.1180293;0.05292424;0;
5420.209;4013.564;-1899.633;4813.56;5.733139;6.630093;5447.238;1529.289;-0.206926;0.1828057;0;
23761.82;15194.46;-1097.877;23638.45;-4.85617;4.881875;21084.85;10735.14;-0.2716854;-0.07724732;0;
20455.33;12394.28;436.8306;20562.98;-10.74579;2.666654;17717.15;8771.366;-0.1414777;-0.2071044;0;
20674.38;12835.98;2901.371;20686.18;-7.25139;2.797941;18079.12;9089.295;0.05356648;0.1179404;0;
22880.65;14481.21;4568.772;22923.43;-6.97666;1.388488;20130.01;10256.35;-0.01145469;-0.01211277;0;
3859.822;2313.374;4570.397;4200.814;-7.571887;4.334342;3300.483;563.5537;0.1184915;-0.1420353;0;
-25776.8;-17314.93;3655.669;-25382.3;-7.96642;6.339352;-23284.3;-12051.67;0.1183724;0.3778462;0;
-22300.42;-13258.45;2020.847;-22535.2;-5.88231;7.136778;-19486.5;-9448.786;0.1182535;0.5074012;0;
-21007.71;-12178.29;-284.3073;-21052.12;-7.282919;8.536248;-18347;-7664.153;0.3130367;0.1170873;0;
-24357.7;-15912.69;-1909.298;-24450.39;1.566634;9.130517;-21622.63;-10239.86;-0.5968206;0.05200233;0;
5019.72;3794.311;-1875.052;4419.413;10.40632;8.853412;5095.442;1408.379;-0.8560903;0.05195007;0;
23681.78;15140.71;-1079.942;23553.73;3.027496;11.05483;21018.08;10679.79;0.3141821;-0.1430042;0;
20347.69;12277.73;426.1053;20458.38;3.828737;14.99559;17609.18;8651.102;0.3138664;-0.3377625;0;
20504.41;12661.68;2880.881;20518.07;-1.266301;5.737125;17907.56;8915.507;-0.2061877;-0.07755375;0;
22624.26;14248.85;4545.21;22668.42;-6.891107;-1.167638;19880.99;10028.41;0.05388881;-0.07747582;0;
3335.961;1941.873;4552.231;3716.006;-2.396204;1.445748;2831.012;286.7524;0.2487367;-0.4022347;0;
-26291.36;-17782.48;3671.316;-25856.05;-5.810048;-1.100934;-23769.78;-12382.39;0.1185521;-0.0769938;0;
-22406.88;-13409.81;2057.812;-22639.24;4.443568;0.7755719;-19601.16;-9563.559;-0.5312405;0.3128876;0;
-21455.33;-12656.99;-255.9379;-21480.52;12.14226;3.521093;-18791.76;-8071.788;-0.4657393;0.2476059;0;
-25646.1;-17059.34;-1895.856;-25701.71;7.976876;-2.443804;-22855.73;-11094.72;-0.01049997;0.1174224;0;
4170.762;3263.629;-1862.967;3577.01;10.64818;-6.259315;4344.859;1072.868;-0.2053914;-0.01263027;0;
23662.88;15204.6;-1058.373;23528.34;3.738603;-3.171871;21031.1;10717.58;-0.5300218;-0.1425523;0;
20376.59;12259.78;442.6235;20484.64;-2.159652;-1.829026;17624.13;8635.479;-0.5944566;-0.2073764;0;
20590.54;12767.54;2872.895;20599.89;0.05332124;-3.434778;18001.67;9033.302;-0.2690225;0.1176687;0;
22649.62;14265.89;4529.424;22695.36;1.258716;-3.096412;19905.27;10030.77;-0.07385018;0.4423872;0;
3384.674;1994.074;4562.322;3752.491;-8.253392;-2.825369;2862.377;297.2774;-0.268678;0.3769754;0;
-26047.78;-17511.56;3680.741;-25622.75;-19.36451;-0.8130424;-23538.71;-12222.98;-0.3983427;0.2466619;0;
-22532.63;-13418.7;2032.245;-22725.82;-7.623406;-3.290594;-19723.52;-9586.438;-0.008138413;0.3113814;0;
-21132.97;-12193.63;-277.1999;-21127.31;-3.060418;-7.105193;-18461.87;-7597.769;0.3816738;0.4410032;0;
-24348.75;-15891.09;-1894.702;-24420.31;-6.607316;1.609484;-21602.56;-10146.47;-0.1384484;-0.07917869;0;
4894.449;3718.453;-1873.12;4295.481;-3.787638;4.755942;4988.168;1363.737;-0.5281134;-0.5338705;0;
23633.92;15116.86;-1085.165;23506.8;-11.01848;7.899362;20978.96;10658.04;-0.202746;-0.0785627;0;
20301.03;12211.62;415.0471;20416.15;-12.34658;13.65183;17558.18;8584.241;0.1222944;-0.07848376;0;
20440.84;12612.83;2860.494;20460.74;-19.23305;7.207878;17848.12;8872.201;-0.00776314;-0.3382743;0;
22609.19;14233.45;4525.844;22655.44;-27.18432;6.463823;19872.58;10003.85;-0.13769;-0.01309766;0;
3183.926;1849.598;4528.637;3560.781;-20.39283;0.02708827;2683.493;228.9286;-0.07258433;0.05188286;0;
-26270.63;-17723.22;3639.999;-25846.92;-20.23764;-7.809698;-23754.8;-12305.92;-0.3973481;-0.273006;0;
-22231.92;-13342.46;2035.115;-22466.64;-13.78695;-3.113168;-19445.79;-9498.697;-0.3319815;-0.4676337;0;
-20728.88;-11966.57;-260.6515;-20768.27;-6.472075;-3.043056;-18067.88;-7466.31;0.05815612;-0.3372291;0;
-23849.01;-15514.24;-1889.258;-23949.82;-7.604648;-3.374913;-21133.75;-9951.523;-0.1368043;-0.01205358;0;
5441.041;4027.548;-1865.059;4833.899;-4.716619;-1.830915;5460.786;1534.582;-0.2666016;0.1828606;0;
23705.19;15133.09;-1081.359;23587.97;-3.908572;-3.436666;21026.46;10673.65;-0.136399;0.2476442;0;
20329.43;12277.42;417.9433;20439.47;-5.042745;-5.844537;17594.9;8655.901;-0.006327258;0.3123627;0;
20820.34;12971.18;2873.351;20830.54;-0.08118456;1.060395;18225.54;9230.536;-0.1362556;0.3770162;0;
22977.85;14609.38;4535.19;23025.68;3.803663;6.618791;20232.33;10372.6;-0.00618399;-0.01316673;0;
3436.81;2098.67;4540.222;3793.728;-2.162006;2.191388;2893.177;427.5815;0.3836263;-0.1430882;0;
-25910.3;-17339.23;3661.037;-25506.33;-4.704453;3.461862;-23420.66;-12038.41;0.1883388;0.1818923;0;
-22031.29;-13087.67;2039.609;-22251.65;-6.709458;-2.302027;-19229.88;-9344.787;-0.00675249;0.05177486;0;
-20861.03;-12068.98;-267.7191;-20876.64;-9.649477;-9.13185;-18202.69;-7519.123;-0.1366804;-0.2081465;0;
-24082.24;-15642.43;-1888.698;-24152.51;-9.908201;-1.821657;-21351.21;-10003.41;-0.2664777;-0.2729047;0;
5147.436;3891.449;-1859.282;4559.606;-12.57756;0.9933345;5224.112;1430.916;-0.26621;-0.01276115;0;
23614.17;15075.43;-1062.251;23489.15;-9.216022;-0.07939053;20955.94;10635.46;-0.3958772;0.7018924;0;
20335.89;12262.38;431.9716;20444.74;-8.067686;2.198109;17592.5;8636.086;-0.7203161;0.5712525;0;
20458.19;12620.37;2857.412;20470.17;-5.648682;1.124173;17861.85;8879.266;-0.3947556;-0.273897;0;
22564.55;14192.94;4517.673;22605.99;-0.01595156;0.922095;19826.67;9965.824;-0.1344896;-0.2736217;0;
3097.466;1768.494;4532.343;3467.006;-6.982161;4.471264;2588.809;177.0699;-0.1343545;0.05148991;0;
-26368.65;-17836.84;3653.323;-25952.64;-10.59247;5.538376;-23858.7;-12424.31;-0.1991868;0.1813729;0;
-22134.93;-13264.98;2040.835;-22374.18;-8.103578;10.08753;-19348.72;-9558.49;-0.3938887;0.246158;0;
-20480.02;-11676.57;-269.8986;-20522.07;-10.57368;14.83306;-17818.97;-7316.398;-0.1336235;0.1809433;0;
-23481.64;-15184.1;-1890;-23576.33;-4.936002;12.47387;-20777.46;-9719.835;-0.06852192;-0.01414058;0;
5694.909;4152.507;-1853.962;5094.728;0.9624792;11.85849;5686.638;1622.844;-0.1983878;0.1158083;0;
23731.21;15135.08;-1070.648;23607.97;-6.606949;13.3202;21038.67;10690.28;0.1916156;0.1806593;0;
20335.2;12296.13;432.5473;20440.99;-10.21763;13.44078;17603.36;8680.216;0.2563904;0.1155104;0;
20673.85;12818.57;2874.979;20684.1;-6.255251;13.29331;18077.86;9076.524;0.1261981;0.3102964;0;
22830.5;14458.19;4525.79;22875.17;-4.172861;14.21772;20084.01;10229.46;-0.003863357;-0.07981946;0;
3392.087;1972.586;4535.235;3768.371;-5.374117;11.45713;2853.165;365.838;-0.2637288;-0.2746413;0;
-26162.14;-17637.23;3634.722;-25739.71;-5.90458;9.704062;-23661.98;-12262.73;-0.3284312;-0.1444306;0;
-22416.52;-13365.77;1976.495;-22655.7;-2.817189;11.16794;-19608.47;-9510.128;-0.4580359;-0.2742202;0;
-21385.45;-12519.82;-357.0061;-21426.57;-2.747009;10.28594;-18714.8;-7787.199;-0.2626736;-0.2089773;0;
-24527.02;-16142.35;-1970.93;-24610.32;2.680759;14.42854;-21785.64;-10362.64;0.1923617;-0.2087673;0;
5153.065;3838.834;-1912.946;4564.975;7.634558;17.02626;5212.842;1444.125;-0.002733583;-0.2735249;0;
23664.47;15113.87;-1109.021;23543.69;4.411706;19.01864;20994.64;10667.41;-0.3275675;0.311456;0;
20232.56;12169.95;398.0552;20343.64;5.076859;24.02312;17499.9;8547.988;-0.1973037;0.3761104;0;
20471.18;12621.66;2845.987;20484.94;2.326067;18.64047;17875.22;8889.099;-0.2620728;0.05089579;0;
22556.37;14203.52;4495.016;22599.33;1.586796;14.8707;19825.04;9970.962;0.06302723;0.115812;0;
2857.793;1602.218;4485.939;3244.944;-2.902777;19.4106;2390.639;113.1431;0.4527679;-0.01423908;0;
-26636.02;-18054.87;3595.752;-26195.22;-10.40195;19.32411;-24096.65;-12544.36;0.3873457;-0.3390615;0;
-22409.18;-13467.54;1966.924;-22620.26;-0.9470255;20.71121;-19616.1;-9644.518;0.4519238;-0.2087861;0;
-20937.59;-12096.55;-354.5736;-20951.25;2.671248;22.09704;-18258.3;-7514.471;0.5814044;-0.143609;0;
-23892.81;-15558.15;-1962.628;-23983.73;3.003357;18.45788;-21169.39;-9963.326;-0.06885323;-0.3383667;0;
5496.421;4058.224;-1919.551;4896.038;7.956832;15.55907;5501.145;1564.458;-0.4585881;-0.2730594;0;
23637.34;15056.13;-1126.02;23523.99;-0.4902803;16.01232;20951.29;10622.91;-0.1332906;-0.2078176;0;
20345.92;12297.83;417.3359;20450.3;-8.125598;18.8765;17616.2;8676.413;-0.198124;-0.3375435;0;
20687.96;12831.25;2880.397;20694.4;1.058618;8.07352;18091.01;9092.216;-0.3928269;-0.07733499;0;
22604.22;14245;4501.03;22650.46;10.43468;0.6304238;19868.07;10018.08;-0.4573996;0.2475794;0;
3163.08;1825.266;4480.641;3522.679;-7.057255;4.380713;2652.723;166.3186;-0.06713593;0.05242865;0;
-26035.86;-17476.91;3580.058;-25625.95;-17.90116;1.161252;-23528.52;-12180.13;0.1278335;-0.3374281;0;
-22479.91;-13433.13;1924.697;-22687.8;-8.97456;10.26952;-19689.09;-9454.205;-0.00222958;-0.4020564;0;
-22411.64;-13557.62;-414.2185;-22401.42;-10.57313;17.35927;-19742.04;-8482.783;0.1277073;-0.07681569;0;
-25966.39;-17434.11;-2023.681;-26016.02;0.5559264;15.80122;-23209.26;-11301.95;0.06261168;-0.4665425;0;
4541.1;3494.51;-1953.338;3954.791;11.8085;18.93354;4599.657;1266.206;-0.2622879;-0.5960084;0;
23783.41;15278.71;-1136.535;23655.68;6.370652;16.90503;21104.13;10820.69;-0.3919591;0.1192312;0;
20389.75;12289.4;394.4634;20498.22;6.699043;14.87855;17654.08;8648.329;-0.001761183;0.5089154;0;
20605.04;12780.66;2855.299;20615.8;11.64978;16.53818;18006.81;9057.335;0.06320793;0.5084041;0;
22667.93;14296.39;4484.921;22708.78;15.25442;18.12915;19924.15;10055.96;-0.196725;0.5728605;0;
3086.871;1801.256;4447.432;3430.838;12.42605;10.0731;2566.958;213.6752;0.3232115;0.2474483;0;
-26302.69;-17727.08;3523.488;-25936.65;10.27011;3.699848;-23819.64;-12333.36;0.387854;0.1172649;0;
-22070.89;-13150.12;1859.813;-22334.1;11.26417;4.767735;-19307.35;-9507.146;-0.1972418;0.05217976;0;
-20498.25;-11682.42;-482.7856;-20562.2;9.712614;2.552629;-17858.84;-7383.592;-0.06710889;-0.2077421;0;
-23616.53;-15288.32;-2096.52;-23777.88;10.77458;3.35386;-20936.64;-9825.552;-0.002074116;-0.07759863;0;
5615.414;4151.997;-2016.953;4962.628;12.77349;4.422095;5596.743;1649.73;-0.3918761;-0.01255332;0;
23788.18;15190.37;-1188.217;23659.1;7.870532;4.015876;21095.56;10740.58;-0.001678273;-0.07750805;0;
20312.79;12276.48;341.3966;20412.63;5.585448;5.083446;17581.29;8652.035;0.1932254;0.2474066;0;
20647.72;12786.03;2803.566;20648.4;5.713558;5.681184;18038.79;9043.688;0.0630966;0.3121253;0;
22545.65;14212.75;4426.557;22585.84;1.62198;5.54151;19817.17;9969.661;0.3229026;0.05194231;0;
2668.32;1512.067;4383.909;3022.767;10.52896;9.688762;2199.651;-7.517906;0.1926434;-0.2079793;0;
-26399.77;-17759.09;3473.584;-26014.08;17.28353;13.43007;-23891.18;-12294.37;-0.3272889;0.0520991;0;
-21850.39;-12982.49;1823.422;-22105.46;11.03688;11.40709;-19091.4;-9321.172;-0.5868294;0.3768834;0;
-20476.43;-11692.94;-498.5253;-20528.11;8.011676;11.52959;-17831.39;-7261.978;-0.001533653;-0.143234;0;
-23640.41;-15289.54;-2107.372;-23773.46;10.75029;11.18309;-20939.56;-9711.086;0.6481413;-0.07812272;0;
5541.129;4124.155;-2055.404;4906.146;13.15039;9.966163;5555.175;1616.842;0.452588;0.1168578;0;
23748.45;15181.01;-1236.218;23614.11;4.295915;11.36279;21070.1;10741.29;-0.06760547;-0.2730637;0;
20396.36;12343.9;298.8777;20494.76;-1.535551;12.0212;17661.96;8722.003;-0.002570199;-0.1428546;0;
20676.68;12828.48;2762.651;20683.42;-1.400286;10.80343;18077.45;9090.065;0.1273671;-0.1427111;0;
22717.91;14365.51;4406.329;22761.07;-2.203163;9.519899;19983.38;10139.71;-0.1975976;-0.07760033;0;
2996.411;1763.233;4370.854;3359.426;-6.085715;11.9887;2504.829;171.7472;0.1274376;0.5721511;0;
-26265.64;-17677.88;3449.58;-25866.99;-10.90237;14.58887;-23760.41;-12282.34;0.7120156;0.3117068;0;
-21808.91;-12993.02;1818.12;-22047.79;-2.786115;11.49312;-19053.67;-9356.851;0.1915615;-0.3382798;0;
-20095.59;-11316.83;-480.6776;-20144.61;0.9677283;9.204148;-17454.57;-7095.065;-0.3283697;0.05186414;0;
-22913.06;-14643.46;-2079.766;-23064.48;4.114588;12.94594;-20237.98;-9365.9;-0.2630724;0.4416161;0;
6035.985;4413.592;-2030.793;5402.036;9.871229;14.20549;5983.434;1804.072;-0.002938733;0.376205;0;
23777.09;15156.32;-1242.929;23662.43;7.583159;14.59311;21074.15;10735.16;-0.00293578;0.375827;0;
20368.37;12348.13;271.903;20468.35;9.384201;15.85113;17644.43;8728.392;-0.2628022;-0.1442894;0;
20659.23;12791.09;2731.206;20665.01;5.356284;14.29459;18053.63;9056.405;-0.06763611;-0.2740791;0;
22568.27;14233.01;4369.449;22617.33;0.3270595;13.94544;19838.57;10001.26;-0.002600805;-0.143869;0;
2960.719;1754.595;4359.499;3293.913;4.211497;11.38607;2484.394;104.0279;-0.1975002;-0.2086918;0;
-26020.64;-17390.61;3462.911;-25671.06;4.609407;8.226555;-23505.45;-12118.56;-0.002399742;0.05138728;0;
-21946.28;-13014.79;1812.353;-22192.98;2.393972;9.490843;-19179.08;-9269.869;0.1275374;-0.01363171;0;
-20920.72;-12089.05;-504.7105;-20956.01;2.458916;9.347341;-18268.88;-7487.884;-0.1324602;-0.3384547;0;
-23388.12;-15166.9;-2102.681;-23531.65;-1.629392;7.998411;-20702.11;-9731.01;-0.3921964;-0.403082;0;
6066.307;4436.498;-2065.992;5437.397;-6.383176;9.396894;6029.969;1785.359;-0.001998303;-0.2077749;0;
23654.26;15048.05;-1277.249;23539.77;0.1199717;4.430837;20958.34;10634.88;0.2578731;-0.07763148;0;
20253.23;12232.96;248.7992;20360.61;6.683935;-0.1953155;17528.99;8620.922;0.1276793;-0.2724555;0;
20717.69;12849.68;2706.189;20725.66;-1.829248;7.440813;18119.44;9107.12;0.06258364;0.247557;0;
22988.97;14648.12;4364.135;23038.07;-6.783903;12.72487;20255.22;10431.56;0.2574228;0.2473083;0;
3220.45;1899.758;4345.164;3586.029;1.863102;11.77432;2705.714;298.3895;0.1921968;-0.07777695;0;
-26689.41;-18142.73;3418.011;-26292.98;5.947067;13.9728;-24193.16;-12750.8;-0.3927024;0.3121053;0;
-22696.69;-13681.8;1792.267;-22928.32;8.486687;17.57584;-19916.53;-9745.402;-0.3273405;-0.01304507;0;
-22326.27;-13506.51;-516.2804;-22331.19;12.564;19.90246;-19684.52;-8527.124;0.1277598;-0.5327707;0;
-26199.86;-17649.58;-2133.605;-26237.89;14.02524;24.57115;-23447.38;-11456.56;-0.06727058;-0.3373334;0;
4344.424;3362.694;-2067.743;3785.68;16.1546;26.55595;4443.966;1241.946;-0.1971377;-0.1420924;0;
23714.15;15232.02;-1241.798;23585.5;17.54489;31.61984;21048.39;10770.47;0.06292979;-0.2069169;0;
20409.44;12307.58;292.3667;20508.95;17.39354;36.81262;17665.24;8670.495;-0.002100789;-0.07677433;0;
20832.41;13009.95;2743.435;20841.66;20.45654;33.02471;18240.14;9297.775;0.06286866;-0.01172985;0;
23020.26;14647.91;4380.197;23061.14;23.98596;34.79994;20276.21;10403.93;0.3876422;-0.3365548;0;
3152.431;1802.31;4364.083;3496.711;16.92926;26.32537;2624.741;238.1169;0.257318;-0.07634723;0;
-26371.15;-17842.92;3452.373;-26000.04;11.82204;17.79233;-23893.54;-12514.9;0.3869942;0.05366418;0;
-22528.19;-13481.46;1808.166;-22760.67;13.21668;23.46788;-19762.23;-9566.8;0.4515726;-0.3361938;0;
-22096.56;-13214.03;-498.4919;-22124.44;11.39474;21.36782;-19461.31;-8215.83;-0.3284892;-0.01101929;0;
-25158.12;-16704.36;-2090.753;-25278.33;10.78008;25.90107;-22448.62;-10862.3;-0.4580938;0.3138285;0;
5077.412;3928.357;-2037.334;4461.213;10.83659;29.8939;5140.296;1476.259;-0.1327968;0.0536438;0;
23593.33;15078.82;-1242.654;23470.02;8.614901;26.6488;20932.61;10655.04;-0.1976307;-0.1413121;0;
20232.88;12151.68;272.3023;20338.17;8.271452;28.36358;17492.72;8521.756;-0.1324648;-0.0762028;0;
20628.17;12793.84;2710.147;20637.06;6.521828;22.50769;18030.14;9066.321;0.06257032;0.05380846;0;
22619.02;14270.74;4339.697;22663.29;3.501165;18.13131;19887.38;10038.36;0.5822462;-0.2710823;0;
2737.135;1550.66;4332.807;3092.97;8.521489;19.18469;2256.939;34.9204;0.5166938;-0.2058426;0;
-26590.17;-17983.85;3442.211;-26206.44;10.25424;19.29938;-24080.39;-12514.6;0.1263706;-0.07570109;0;
-21859.22;-13033.85;1832.622;-22106.78;11.51673;15.99795;-19098.76;-9458.059;-0.06865843;-0.4004617;0;
-20295.82;-11539.09;-449.3858;-20337.79;15.591;13.43652;-17653.21;-7269.65;-0.1985241;-0.2051573;0;
-23658.05;-15264.3;-2055.876;-23777.4;8.274314;15.49949;-20970.88;-9739.663;-0.3282593;-0.07501649;0;
5481.43;4119.376;-2012.051;4867.154;4.112814;12.00093;5471.323;1665.598;-0.3279295;-0.2698431;0;
23626.25;15049.97;-1214.585;23512.39;2.903233;22.83986;20937.91;10611.63;-0.002763286;-0.07466997;0;
20125.18;12080.96;289.5675;20237.71;-2.056177;31.92634;17396.39;8460.169;-0.06772785;0.2502418;0;
20431.09;12576.91;2725.49;20441.81;1.16107;23.65549;17826.75;8851.545;-0.2625618;0.379925;0;
22476.54;14147.32;4367.362;22521.17;4.508806;23.43077;19752.31;9908.521;-0.06739598;-0.0102608;0;
2595.656;1469.254;4369.814;2941.227;-3.466328;16.97711;2143.632;-64.42674;0.06260643;-0.2701198;0;
-26440.4;-17794.63;3476.682;-26075.19;-7.347611;11.40059;-23921.09;-12403.47;-0.06739116;0.1199556;0;
-21922.61;-13042.82;1841.915;-22177.14;-6.536921;9.446627;-19167.44;-9360.97;-0.1322908;0.1848024;0;
-20900.88;-12082.11;-467.6196;-20939.19;-11.35312;4.748452;-18249.02;-7562.9;-0.002223179;0.1196494;0;
-23579.1;-15335.43;-2065.971;-23691.03;-0.8928665;5.88239;-20887.03;-9907.213;-0.1321556;-0.01040552;0;
6010.495;4424.121;-2013.296;5413.294;8.285058;5.072684;5985.691;1782.543;-0.4568596;-0.07536241;0;
