Fp1;Fp2;O1;O2;POLY3;POLY4;A1;A2;Video;Audio;event;
-18412.01;-10877.43;594.0229;-20164.97;33.10232;-19.85851;-18235.3;-7612.987;0.08627663;-0.2390798;0;13:08:08 Глаза закрыты;
-24636.58;-16843.54;-1147.527;-26424.68;26.57232;-20.24045;-24404.3;-11493.4;-0.04374474;0.4108338;0;
451.3283;480.0272;-1179.17;-517.2953;22.12499;-25.44466;478.801;-526.2479;-0.4335048;0.8002251;0;
21378.59;14456.1;-334.1593;22728.37;22.83969;-17.04641;21290.95;10631.16;-0.1082325;0.5395516;0;
18978.93;12067.66;941.3323;20924.49;22.4146;-13.2783;18892.8;9105.361;0.1517456;0.1492054;0;
18488.99;12048.83;3182.619;20141.75;19.37797;-9.246099;18385.59;8945.835;0.08662576;-0.2407485;0;
21445.44;14232.51;4978.517;23290.2;15.47373;-3.74433;21345.23;10853.38;0.2164734;-0.1755393;0;
7618.71;5144.162;5053.63;8439.878;21.01692;-2.668841;7439.498;2948.195;0.02135386;0.2794085;0;
-21385.9;-14756.85;4122.955;-22427.09;22.60339;0.08001863;-21403.17;-10942.61;0.08629975;0.2141604;0;
-21450.21;-13482.8;2635.683;-23474.08;25.79586;0.2139041;-21306.58;-10046.6;0.2161477;-0.04592417;0;
-17971.41;-10565.15;450.0847;-19718.23;32.2003;0.8165355;-17789.55;-7406.4;0.02102851;0.2139914;0;
-24570.19;-16837.23;-1308.984;-26344.83;24.06362;-1.528566;-24336.11;-11427.76;0.02100738;0.343711;0;
570.8931;407.1055;-1359.33;-435.0367;20.95798;-2.196859;602.7097;-486.3979;0.150921;0.01852894;0;
21591.08;14602.53;-521.2439;22915.4;20.33371;-8.022044;21505.99;10769.5;0.02083462;-0.3063264;0;
19072.46;12187.44;782.1406;21020.72;15.89265;-14.17629;18986.84;9216.169;-0.304023;-0.2410512;0;
18716.97;12268;3052.042;20370.79;19.62773;-11.48285;18614.17;9179.047;-0.3686849;0.08402769;0;
21586.81;14375.38;4833.671;23433.55;19.87642;-13.27973;21486.17;10984.21;0.281359;0.08394326;0;
7752.296;5203.365;4885.505;8562.875;20.45869;-9.716414;7569.971;2973.927;0.5409456;-0.04607579;0;
-20621.75;-14046.88;3953.812;-21668.63;23.9881;-6.223661;-20643.86;-10319.83;0.08563071;0.08390521;0;
-20615.63;-12731.1;2462.087;-22628.87;17.46727;-8.092807;-20485.75;-9391.082;-0.3042594;0.2787229;0;
-17511.11;-10218.24;267.3553;-19262.57;14.16718;-6.812;-17349.13;-7133.213;-0.368921;0.3434102;0;
-23939.66;-16182.41;-1483.58;-25749.29;16.36375;-7.341019;-23710.6;-10979.42;0.02125374;0.2131305;0;
933.8701;805.2435;-1534.141;-110.5904;17.68648;-6.462864;967.0558;-302.079;0.3460691;0.08298162;0;
21517.49;14521.7;-711.6064;22836.96;16.39591;-7.996978;21428.55;10696.23;0.1508193;0.2778003;0;
19146.97;12265.2;586.1442;21105.55;14.37068;-9.99843;19059.59;9313.029;0.4755045;0.4074558;0;
18765.98;12316.31;2859.303;20415.06;22.19312;-6.70622;18660.78;9199.458;0.4750267;0.2771117;0;
21612.71;14398.15;4651.122;23465.21;26.39038;-5.895809;21510.37;11044.19;-0.04518933;0.3418006;0;
7998.266;5421.438;4701.952;8833.049;28.70839;-3.746431;7814.46;3136.389;0.2796928;-0.0483469;0;
-20702.55;-14162.79;3748.266;-21728.44;30.4882;-1.130454;-20733.14;-10472;0.5392811;-0.3081677;0;
-20865.69;-13011.06;2254.687;-22872.55;30.05543;-1.531093;-20736.48;-9653.558;0.08396785;-0.1779234;0;
-17151.64;-9880.081;74.82803;-18918.23;26.14046;0.2118792;-16980.3;-6965.75;0.01891614;-0.2427119;0;
-23708.96;-15920.8;-1686.83;-25491.02;27.38699;-1.462785;-23481.59;-10759.67;0.2137992;-0.1125334;0;
724.6075;658.1376;-1747.698;-239.7411;31.91383;-3.738735;751.5993;-314.1027;-0.1762197;-0.04745294;0;
21482.05;14511.7;-921.731;22837.01;10.17978;0.2838758;21391.27;10681.41;-0.6957814;0.2774315;0;
19090.41;12203.04;366.4543;21042.64;4.677191;1.154369;19000.78;9240.345;-0.2403109;0.147218;0;
18683.94;12240.02;2626.2;20339.03;-20.37839;2.291919;18580.01;9143.713;0.0847673;-0.1777666;0;
21579.53;14369.64;4418.44;23428.12;-53.71517;4.231998;21477.83;10996.07;-0.3051219;-0.1126207;0;
7934.037;5371.078;4496.584;8727.489;-18.16049;0.4098412;7754.009;3080.826;-0.1748807;-0.5023115;0;
-20561.43;-13979.3;3574.059;-21628.53;-4.210768;-1.934851;-20581.32;-10318.94;0.2150991;-0.6967089;0;
-20701.33;-12825.4;2083.637;-22718.55;-4.27291;-2.736702;-20575.31;-9497.56;0.2798503;-0.3062047;0;
-17271.65;-9980.549;-96.45597;-19028.7;9.730206;-4.006628;-17108.77;-7015.134;0.2795691;0.278809;0;
-23663.73;-15936.18;-1852.711;-25445.66;4.294446;-6.347005;-23424.07;-10826.88;-0.1105158;0.6033656;0;
1051.249;818.7645;-1924.859;60.99019;9.515043;-6.742403;1095.278;-299.2761;-0.2403395;0.2129553;0;
21600.33;14583.77;-1108.006;22940.1;5.486995;-10.21874;21517.46;10748.13;-0.1101633;0.2127413;0;
19092;12222.77;187.5972;21051.29;-1.552092;-13.9594;19007.6;9280.545;0.08484943;0.3424622;0;
18699.33;12257.32;2463.031;20353;9.769949;-7.98401;18598.01;9141.754;0.4745682;0.08224873;0;
21623.5;14407.28;4280.36;23475.69;11.76889;-5.631707;21524.63;11059.35;0.214222;0.01719873;0;
8088.834;5434.241;4369.324;8921.079;14.03424;-1.808021;7913.096;3128.437;0.01910473;-0.3726226;0;
-20414.16;-13929.72;3455.141;-21444.36;19.44612;2.480582;-20426.96;-10309.49;0.08405288;-0.5671502;0;
-20366.86;-12664.65;1992.091;-22385.88;9.446245;3.281884;-20235.3;-9398.095;0.1489358;-0.1118089;0;
-16757.73;-9634.412;-178.1335;-18530.81;3.207463;5.555884;-16600.05;-6817.444;0.3436881;-0.04672926;0;
-23520.94;-15753.87;-1946.815;-25313.24;4.142245;4.679524;-23289.41;-10640.98;-0.04646125;-0.2415843;0;
895.7456;743.4728;-2029.051;-101.0266;1.592488;5.076719;933.5505;-244.3685;-0.4362186;-0.1763742;0;
21615.85;14622.37;-1218.247;22947.15;-1.08843;1.990525;21526.95;10799.09;-0.2408783;-0.3710991;0;
19209;12332.79;72.51626;21163.05;-3.900375;0.04602018;19121.06;9378.215;0.2141352;-0.4356935;0;
18829.01;12392.01;2344.052;20477.65;-5.302976;-2.767187;18723.4;9283.46;0.2788873;-0.1753864;0;
21720.95;14501;4158.533;23576.38;-7.373752;-6.98421;21619.68;11154.36;-0.111197;0.0196919;0;
8398.517;5680.235;4256.022;9245.026;-6.228243;-4.097048;8218.904;3297.219;-0.1110852;0.3445088;0;
-19597.6;-13150.98;3349.418;-20644.09;-3.073177;-3.691033;-19626.19;-9658.536;0.08392843;0.08429331;0;
-19784.68;-12110.53;1878.665;-21827.51;-9.099285;-2.079734;-19667.83;-8879.687;-0.2409926;-0.2406281;0;
-16531.07;-9431.344;-294.9279;-18305.64;-14.24771;0.3336191;-16378.1;-6670.23;0.0191189;0.08445039;0;
-22965.31;-15298.46;-2067.319;-24782.81;-6.32916;1.271045;-22736.92;-10341.07;0.4738711;-0.04556916;0;
1348.681;1018.874;-2168.689;316.047;-2.103241;4.886724;1386.073;-97.60384;-0.0463438;-0.3703601;0;
21632.49;14618.86;-1371.675;22955.33;-4.445653;3.006414;21546.92;10794.33;-0.1112646;-0.1101186;0;
19254.83;12392.06;-80.3518;21205.96;-4.775979;1.663734;19168.94;9448.407;0.408586;0.01992675;0;
18838.95;12400.47;2183.638;20487.32;-3.632104;6.68566;18735.93;9289.285;0.148306;0.01990673;0;
21776.5;14554.83;4003.434;23628.19;-3.025242;8.554465;21678.29;11230.11;0.01822234;-0.04508061;0;
8737.612;5953.304;4117.602;9555.964;-4.563419;11.35903;8559.653;3450.998;0.4729754;0.01993203;0;
-19384.11;-12966.51;3205.015;-20438.92;-3.487107;14.69664;-19396.91;-9624.337;0.4075328;0.019912;0;
-19183.98;-11798.91;1746.885;-21219.17;-9.177031;13.61027;-19055.18;-8774.854;-0.1126154;0.01989199;0;
-15388.63;-8603.92;-414.7999;-17189.16;-12.65043;14.46725;-15249.37;-6212.383;0.01743245;0.1498067;0;
-22420.88;-14701.25;-2212.62;-24220.79;-12.77242;13.18016;-22193.47;-9937;0.3422516;0.08468883;0;
1476.543;1120.106;-2323.293;521.9077;-17.31394;10.82251;1523.93;-22.68113;0.08203838;0.01963638;0;
21844.21;14753.99;-1535.291;23202.15;-7.985791;13.29001;21757.93;10918.47;0.1469233;-0.110318;0;
19389.84;12545.05;-263.746;21346.4;-2.485411;13.41062;19305.38;9621.658;0.3416777;-0.04523984;0;
19034.11;12601.62;2006.862;20684.7;-2.21547;12.7943;18928.04;9482.712;-0.04846969;0.409577;0;
21907.5;14677.35;3835.02;23771.77;2.743249;13.31731;21804.29;11373.32;-0.04842098;0.01936141;0;
8957.826;6122.738;3965.13;9827.743;-1.009575;9.753829;8782.238;3543.824;0.3414317;-0.1755601;0;
-18598.98;-12219.49;3076.091;-19649.55;-1.611773;7.131815;-18611.77;-9061.341;-0.1786501;0.2144204;0;
-18468.45;-11257.33;1598.975;-20540.54;-1.743876;7.59353;-18338.94;-8256.761;-0.3733726;-0.1755991;0;
-14941.54;-8323.522;-590.1882;-16758.53;-2.947572;8.72461;-14798.9;-6006.263;0.1467413;-0.3053574;0;
-21408.57;-13867.74;-2389.113;-23242.81;-3.011959;4.495919;-21188.46;-9431.347;0.1465939;0.01978618;0;
2394.724;1704.105;-2511.509;1425.501;-6.425184;1.477291;2431.833;352.9195;-0.04845547;-0.1101684;0;
21984.89;14824.23;-1740.121;23353.9;0.145355;4.690866;21895.23;11007.41;0.0815279;-0.175025;0;
19438.54;12643.91;-469.1672;21382.64;4.900631;3.547564;19350.45;9725.85;0.2113807;-0.04491448;0;
19176.88;12719.01;1801.913;20819.86;2.016295;11.58171;19070.51;9595.919;-0.3085705;0.215;0;
22020.59;14806.73;3621.765;23874.41;4.759959;20.21062;21918.89;11509.11;-0.4381951;0.4746534;0;
9211.456;6318.037;3741.376;10038.29;-0.8045291;13.69322;9028.682;3702.727;-0.04795074;0.08437238;0;
-18205.09;-11866.21;2848.501;-19289.27;-5.559143;12.13885;-18232.21;-8774.192;0.1469995;-0.2405491;0;
-18079.61;-10926.76;1362.978;-20167.36;-0.4623661;13.93507;-17975.3;-8051.079;0.1468517;-0.1103727;0;
-14578.03;-8035.295;-847.0938;-16435.25;-0.8640431;11.57679;-14468.86;-5812.376;0.2116715;0.1496076;0;
-21254.14;-13630.59;-2670.06;-23115.72;4.093318;16.11987;-21054.33;-9165.863;0.01655683;0.1494572;0;
2334.402;1731.03;-2792.643;1374.539;8.778255;19.92158;2366.565;395.4985;-0.6981006;-0.1755297;0;
22088.13;14936.51;-1992.05;23461.45;6.156489;13.40446;21996.88;11110.11;-0.3075951;-0.4352227;0;
19621.52;12813.3;-709.2703;21568.09;7.356728;11.11357;19534.91;9905.589;0.3423874;-0.369818;0;
19231.4;12796.94;1560.505;20873.63;4.401599;8.691021;19126.12;9670.593;-0.30763;-0.1745444;0;
22060.98;14834.74;3380.865;23924.4;1.048274;4.529469;21957.56;11559.51;-0.1773862;-0.04443432;0;
9489.531;6462.782;3483.196;10361.37;3.056952;7.271218;9314.343;3792.876;0.2125961;-0.04438968;0;
-17587.7;-11361.93;2571.715;-18648.86;2.718112;6.259168;-17606.97;-8390.75;-0.3723236;0.02062227;0;
-17415.43;-10456.58;1067.589;-19506.05;1.778352;9.735868;-17317.67;-7672.926;-0.5018842;-0.1093331;0;
-13883.49;-7537.024;-1158.319;-15731.17;3.585226;14.14684;-13778.26;-5568.504;0.1482935;-0.3041253;0;
-20354.27;-12897;-2971.196;-22230.48;-1.911709;9.510922;-20151.22;-8763.144;0.6678832;-0.4987217;0;
2920.902;2047.263;-3090.93;1936.752;-5.995625;8.697571;2957.566;594.056;0.2774081;-0.4982206;0;
22106.51;14892.54;-2304.703;23477.73;-0.4298949;7.885158;22020.96;11081.39;-0.5024788;-0.3677853;0;
19616.1;12862.41;-1004.945;21565.76;2.383576;5.666798;19532.58;9964.39;-0.1771372;-0.04257907;0;
19333.29;12876.7;1293.644;20978.92;2.715974;7.804558;19230.56;9755.853;0.4077469;0.2823004;0;
22120.84;14914.89;3116.131;23985.6;1.106631;8.466545;22020.29;11644.36;0.2124352;0.2170494;0;
9552.748;6522.645;3213.668;10433.75;12.02288;7.386311;9381.9;3872.483;-0.2425497;0.151864;0;
-17497.88;-11278.98;2299.022;-18540.61;22.79542;7.110958;-17512.01;-8283.565;-0.1773386;-0.30306;0;
-17381.43;-10380.41;791.2964;-19448.16;13.86391;6.969847;-17271.31;-7584.401;-0.3070951;-0.8224942;0;
-14112.16;-7702.956;-1443.766;-15930.97;12.50983;7.699656;-13988.41;-5710.141;-0.3067865;-0.2369617;0;
-20754.45;-13216.61;-3269.397;-22586.86;10.15274;6.35226;-20549.44;-9042.897;-0.0466089;0.2180478;0;
2772.7;1946.131;-3366.889;1849.068;3.37738;6.747775;2799.53;535.0826;-0.1764968;0.2178287;0;
22229.59;15012.4;-2555.163;23626.75;11.27822;5.26737;22141.38;11212.91;-0.1763194;0.4774792;0;
19660.5;12909.26;-1271.208;21604.61;15.42007;1.645121;19575.05;10006.9;-0.2411096;0.2820974;0;
19287.69;12834.99;1022.557;20939.17;9.978592;9.346262;19184.1;9727.248;-0.370802;-0.3028921;0;
22130.21;14934.52;2852.766;23994.01;9.365353;13.48981;22032.43;11654.7;-0.04559271;0.02224893;0;
9529.953;6497.743;2929.672;10394.97;7.61463;12.33755;9351.907;3889.171;-0.1754816;0.3470633;0;
-17702.85;-11501.12;1986.138;-18741.96;5.06236;13.3299;-17717.75;-8415.866;-0.3702073;0.1518125;0;
-17739.11;-10676.73;456.3792;-19797.66;8.539897;12.98159;-17622.25;-7823.469;-0.1099659;0.08669265;0;
-14365.72;-7911.251;-1790.591;-16209.39;9.535694;16.25058;-14250.85;-5760.688;0.2149813;-0.04332915;0;
-20726.56;-13256.88;-3608.049;-22573.91;10.99998;6.521974;-20521.26;-8922.447;0.1497979;0.02168173;0;
2871.488;1996.706;-3707.419;1963.511;12.59652;-0.9195626;2907.667;571.8126;0.08468006;0.1515946;0;
22146.9;14944.69;-2902.565;23552.84;11.98065;2.430508;22055.98;11136.07;0.2145297;-0.3033291;0;
19606.41;12854.2;-1597.053;21550.06;11.90224;-1.456944;19520.94;9972.942;0.08437941;-0.627861;0;
19329.31;12886.58;709.2213;20982.63;10.81855;4.907776;19226.37;9766.598;0.2791966;-0.4323281;0;
22097.17;14898.45;2544.367;23960.4;10.1381;8.854716;21997.82;11652.29;0.6687202;0.08784504;0;
9741.167;6610.079;2649.319;10593.94;6.778031;6.702487;9568.296;3915.756;0.6030809;0.6074955;0;
-17307.65;-11188.01;1731.258;-18363.72;4.695115;8.772101;-17323.13;-8260.622;0.2126709;0.217081;0;
-17558.25;-10496.64;222.4944;-19617.41;1.006702;3.471757;-17435.94;-7682.983;-0.1773469;-0.1729411;0;
-14141.71;-7659.61;-1989.446;-15965.15;-3.213868;0.8560563;-14006.12;-5654.232;0.08270068;-0.04283269;0;
-20550.8;-13004.82;-3786.495;-22402.58;-1.402954;-2.225897;-20345.36;-8836.667;0.01765025;0.1521124;0;
2757.515;1946.586;-3896.79;1807.789;-1.066751;-5.237892;2783.971;531.3826;-0.7619756;0.4118289;0;
22121.65;14911.22;-3087.263;23505.61;-2.070057;-7.911824;22035.63;11112.01;-0.3714059;0.2165131;0;
19594.46;12851.53;-1759.749;21535.46;-3.876638;-12.19066;19510.47;9965.92;-0.046196;-0.04357385;0;
19204.7;12763.48;560.8693;20850.34;1.419519;-7.422745;19101.23;9662.194;-0.3709863;0.151372;0;
22061.64;14867.49;2403.785;23926.61;5.43658;-4.334193;21965.86;11605.39;-0.04577682;0.02128517;0;
9423.548;6470.401;2504.693;10294.66;3.890876;-3.726992;9251.354;3854.311;0.2141386;-0.04370356;0;
-17732.65;-11451.95;1604.424;-18761.26;7.16852;-1.378966;-17738.08;-8365.484;0.148956;0.08627506;0;
-17522.46;-10496.59;124.899;-19568.75;-0.4744931;2.239497;-17392.19;-7653.979;0.4736431;0.08618837;0;
-14212.59;-7789.386;-2087.896;-16043.35;-8.310898;5.519289;-14084.32;-5728.814;0.4081998;0.1510691;0;
-20900.86;-13377.43;-3881.832;-22738.2;0.07019791;8.393888;-20679.35;-9042.515;-0.1769164;0.280852;0;
2635.4;1823.874;-3981.521;1729.919;4.558106;11.46667;2686.962;480.8673;-0.5015754;0.2156025;0;
22065.31;14865.05;-3173.986;23472.06;-1.00618;11.72308;21979.98;11062.1;-0.3061694;0.02048377;0;
19497.45;12761.93;-1843.901;21440.99;-1.40731;12.51509;19415.15;9889.253;-0.175927;-0.2394062;0;
19132.44;12685.53;486.4372;20792.57;-2.812416;12.30157;19035.08;9596.255;-0.04581558;-0.304133;0;
21930.18;14748.45;2347.419;23794.35;-6.359563;12.82507;21837.01;11481.91;0.4090019;-0.1089253;0;
9193.874;6232.455;2479.961;10050.91;1.818501;9.061141;9029.259;3681.522;0.3436235;0.2160208;0;
-18292.51;-12013.87;1601.269;-19314.53;6.372001;4.229388;-18284.68;-8835.293;0.01844156;0.2807711;0;
-18376.01;-11100.36;126.3695;-20409.13;6.700391;7.373336;-18224.85;-8160.157;0.3432598;0.08558697;0;
-14951.74;-8258.446;-2083.209;-16754.27;9.038183;6.093251;-14795.58;-5997.696;0.2779475;0.2154357;0;
-21368.8;-13746.67;-3881.165;-23202.56;9.497616;7.158855;-21130;-9303.63;0.2776682;0.3451539;0;
2403.453;1707.292;-3982.649;1434.868;11.96632;9.763875;2457.274;339.7037;0.2773892;0.2148724;0;
21990.39;14822.33;-3174.848;23363.59;8.00218;1.515407;21907.59;11030.19;0.1471758;0.3445911;0;
19446.72;12689.39;-1859.568;21396;6.252828;-2.504969;19366.87;9820.805;0.1470279;0.4741796;0;
19034.19;12610.27;460.3543;20684.58;4.304162;-5.918582;18936.01;9515.147;-0.2429239;0.08389908;0;
21886.7;14696.96;2331.529;23752.73;-1.728383;-10.86925;21791.55;11444.63;-0.04777775;-0.04611992;0;
9223.313;6245.575;2468.054;10081;6.512376;-10.1885;9053.051;3681.79;0.277107;0.01889376;0;
-18376.49;-12111.57;1578.989;-19415.21;10.52432;-10.78111;-18379.75;-8924.793;-0.3728449;0.2137768;0;
-18410.14;-11161.11;109.5929;-20463.96;7.499636;-12.10981;-18270.57;-8232.606;-0.1775682;0.3434967;0;
-14674.78;-7991.167;-2079.823;-16497.54;8.83127;-12.96842;-14525.38;-5887.353;0.2773816;0.01831483;0;
-21073.96;-13505.14;-3880.39;-22919.53;3.463762;-10.41016;-20843.14;-9180.466;0.1471682;0.08326378;0;
2455.379;1656.422;-4011.063;1473.771;-1.428862;-8.323231;2500.379;299.9819;0.01708562;-0.04675458;0;
21938.91;14749.49;-3218.758;23297.26;1.452962;-7.310123;21854.2;10956.28;-0.2428009;-0.4365117;0;
19397.96;12659.12;-1906.837;21345.93;5.671061;-4.958498;19316.61;9787.429;-0.2425569;0.08366571;0;
18963.46;12534.98;398.7488;20619.99;-5.988936;-4.551618;18861.69;9445.823;0.08252349;0.4084183;0;
21750.12;14567.35;2272.469;23618.66;-14.82515;-2.738505;21652.61;11315.17;-0.3073635;0.1481386;0;
9123.323;6186.289;2449.782;9986.547;-5.8343;-3.137651;8945.46;3604.888;-0.4369893;0.01805505;0;
-18413.9;-12105.69;1592.204;-19447.54;-4.489267;-3.804327;-18427.74;-8944.397;0.4729925;-0.3717671;0;
-18405.45;-11250.84;118.5158;-20476.58;1.142298;-1.924983;-18286.32;-8305.055;0.4075499;-0.4363609;0;
-14469.76;-7939.568;-2073.111;-16330.21;6.566158;-3.530639;-14359.38;-5792.141;0.1472711;-0.2410205;0;
-20919.98;-13324.77;-3874.434;-22775.44;7.832358;2.166336;-20716.42;-8964.441;0.3420251;0.08405845;0;
2359.831;1686.986;-4017.483;1411.143;12.17874;7.388706;2397.882;344.6566;-0.1780573;-0.04596071;0;
21854.86;14700.66;-3250.939;23233.02;9.151422;2.357684;21764.21;10906.99;-0.5027151;-0.4357186;0;
19278.09;12535.92;-1975.249;21216.16;9.142225;4.096749;19192.76;9665.848;-0.1773732;-0.04547672;0;
18793.35;12373.43;316.2098;20440.57;4.444966;-3.275246;18687.19;9287.742;-0.177195;0.01953632;0;
21726.46;14552.44;2191.762;23586.45;-1.252927;-10.90789;21627.31;11296.36;-0.04708229;-0.110418;0;
9043.888;6143.975;2355.429;9880.224;1.293927;-3.528926;8850.993;3603.718;-0.04703498;-0.1752744;0;
-18590.17;-12253.36;1487.779;-19650.19;1.693793;-4.731073;-18644.02;-9028.289;-0.1119551;-0.499935;0;
-18321.2;-11140.48;17.06898;-20387.4;-2.393746;3.043579;-18224.21;-8262.27;0.1480268;-0.04466125;0;
-14432;-7852.93;-2187.652;-16276.12;-6.007687;10.94426;-14325.94;-5809.619;-0.1119913;0.02035097;0;
-21206.46;-13570.8;-4003.228;-23080.75;-1.045158;5.239838;-21021.06;-9196.653;-0.1768461;-0.2395388;0;
2209.76;1565.468;-4149.099;1206.842;2.036375;6.641215;2232.74;246.3764;-0.1766684;-0.1743308;0;
21857.12;14709.94;-3385.905;23208.54;1.699536;1.07508;21763.52;10911.3;-0.3713929;-0.1741557;0;
19283.36;12535.78;-2092.089;21227.64;3.841283;-4.217529;19194.28;9675.107;0.0187843;0.02092137;0;
18892.25;12481.56;219.2428;20536.82;3.50263;-2.002855;18782.89;9397.536;0.2136675;0.2158024;0;
21709.59;14529.91;2087.115;23572.46;2.963247;-3.54145;21606.37;11280.78;0.1484854;0.08565087;0;
9054.358;6151.497;2246.561;9906.6;4.970002;-3.671857;8864.164;3571.224;0.3432382;0.08556481;0;
-18254.27;-11918.29;1379.879;-19309.53;4.630215;-4.471963;-18292.81;-8784.937;0.08302398;-0.1743906;0;
-18212.47;-11080.76;-100.7638;-20282.37;4.893006;-3.79764;-18115.69;-8142.6;-0.3718308;-0.30415;0;
-14573.1;-8030.36;-2314.519;-16423.46;4.687019;-3.45891;-14480.75;-5829.592;-0.04662051;0.02099231;0;
-20951.88;-13399.09;-4131.919;-22815.01;1.534478;-3.120519;-20767.07;-9011.305;0.08336102;-0.04399612;0;
2497.692;1711.521;-4270.695;1540.516;0.9970725;-1.509916;2522.103;356.9207;-0.3065268;-0.3038213;0;
21917.42;14750.79;-3494.401;23295.67;-6.036527;-4.656474;21821.85;10967.67;-0.2412515;-0.1735813;0;
19419.44;12697.56;-2202.475;21359.74;-9.245643;-6.12542;19331.46;9835.318;-0.04610701;-0.1084396;0;
18970.91;12548.56;97.91069;20615.17;-16.40365;-7.860699;18860.72;9464.602;-0.1759954;-0.04336326;0;
21751.94;14592.49;1973.885;23613.72;-28.64468;-11.4029;21650.09;11352.68;-0.1108512;0.1515823;0;
9163.101;6211.081;2142.597;10010.67;-13.88014;-8.779104;8969.869;3620.33;0.01919488;-0.3683087;0;
-18432.02;-12141.16;1273.349;-19487.84;-6.833592;-7.09571;-18484.88;-9021.611;0.4089797;-0.627808;0;
-18470.97;-11221.24;-201.9086;-20543.67;-9.639765;-10.57169;-18383.52;-8388.345;0.3436013;-0.1074384;0;
-14549.34;-7916.731;-2404.989;-16422.91;-2.329061;-10.62805;-14458.23;-5885.138;-0.04654794;0.08757155;0;
-21093.27;-13487.66;-4220.752;-22964.08;-15.18647;-12.15786;-20907.73;-9119.971;0.01846617;-0.1074185;0;
2240.908;1551.418;-4356.3;1310.082;-24.34824;-12.94944;2268.26;250.5654;-0.2414218;-0.2372452;0;
21844.63;14683.74;-3569.879;23229.89;-16.82168;-12.13263;21749.5;10887.08;-0.1112445;-0.1070722;0;
19288.17;12563.8;-2261.151;21224.82;-17.40799;-15.60355;19199.71;9705.851;0.213704;0.08793747;0;
18856.05;12442.29;66.32751;20507.03;-13.84053;-4.736883;18747.92;9373.104;-0.2412821;0.08784911;0;
21705.52;14545.61;1953.906;23562.71;-7.864773;2.970792;21602.37;11287;-0.1760723;0.3476302;0;
8875.005;5996.491;2131.883;9740.532;-15.7611;-0.9841864;8685.96;3507.298;0.4088106;0.4122483;0;
-18859.3;-12496.91;1283.448;-19867.63;-20.70176;0.8253418;-18898.58;-9215.583;0.5383345;0.216932;0;
-18864.06;-11471.79;-196.4892;-20910.83;-13.78208;-2.792444;-18769.54;-8535.848;0.08302225;0.2816814;0;
-14985.58;-8202.694;-2410.085;-16845.46;-11.89222;-3.928348;-14892.02;-5992.966;-0.1119632;0.1514636;0;
-21294.36;-13725.56;-4209.117;-23168.12;-9.736818;-7.474374;-21107.66;-9240.824;0.08305133;0.1513115;0;
2301.19;1551.791;-4316.176;1336.373;-5.038961;-10.74903;2327.077;236.3424;-0.0469668;0.4110288;0;
21866.87;14703.78;-3510.648;23240.63;-10.32518;-9.733482;21772.31;10921.09;-0.1768543;0.08577907;0;
19292.84;12579.33;-2200.777;21238.77;-12.25719;-12.20195;19206.01;9730.385;-0.04674191;0.1506602;0;
18820.05;12400.66;126.6405;20473.32;-9.699281;-4.553878;18713.09;9326.493;-0.3065643;0.2154762;0;
21616.37;14466.36;2020.577;23478.23;-8.081944;-1.200278;21513.85;11225.21;-0.1763216;-0.1745444;0;
8842.216;6050.204;2197.347;9682.247;-8.007451;6.235912;8655.404;3541.225;0.3435943;-0.1094017;0;
-19028.37;-12589.54;1338.757;-20077.89;-9.137505;16.41081;-19067.75;-9311.094;0.2782817;0.1505776;0;
-19276.63;-11789.68;-159.5854;-21323.44;-2.966381;10.76787;-19177.4;-8731.868;0.08310009;0.02049163;0;
-15533.3;-8689.913;-2398.237;-17357.62;-3.431915;10.958;-15425.4;-6299.109;-0.0469181;-0.2393983;0;
-22189.7;-14457.67;-4209.931;-24028.35;8.159458;10.67906;-21999.26;-9738.829;-0.1118383;0.08567895;0;
1467.153;1044.714;-4313.647;501.839;22.01636;7.788186;1489.627;-71.67924;-0.04675858;0.6702989;0;
21606.9;14525.51;-3505.17;22965.09;6.119406;10.92844;21511.46;10741.93;0.2131578;0.214854;0;
19138.15;12391.4;-2182.061;21076.92;2.02742;10.71651;19046.69;9527.753;0.4078456;0.0197361;0;
18641.08;12233.6;164.4844;20290.96;-3.936464;11.10764;18531.9;9185.206;-0.04733558;0.2146183;0;
21469.94;14326.5;2051.23;23321.49;-16.79226;12.1682;21365.95;11051.33;-0.3071574;-0.04546672;0;
8438.513;5671.343;2218.599;9245.616;-3.446145;9.07476;8243.07;3284.984;-0.3068488;0.2144483;0;
-19794.44;-13341.08;1363.924;-20865.59;2.719259;6.92231;-19842.32;-9867.145;-0.2415731;-0.04563652;0;
-20240.59;-12488.47;-143.799;-22302.33;-4.450769;7.652167;-20144.5;-9277.975;-0.176363;-0.3704274;0;
-16332.4;-9235.837;-2384.622;-18167.64;-7.460407;8.046375;-16224.39;-6558.733;-0.1112185;0.08471624;0;
-22658.17;-14888.9;-4188.302;-24507.58;-4.170381;5.091042;-22467.24;-10027.72;0.08379532;-0.1752383;0;
1235.19;934.3199;-4300.66;223.8429;-3.161812;3.009577;1258.234;-245.8096;-0.04622357;-0.4998989;0;
21516.36;14475.45;-3487.121;22854.59;-4.029292;4.078158;21422.96;10698.58;-0.3710138;-0.2395272;0;
19098.35;12329.68;-2148.772;21051.05;-0.4079204;4.877855;19008.13;9472.984;-0.1107717;-0.1093519;0;
18505.87;12112.06;186.9014;20162.46;-11.72799;3.801227;18396.51;9055.749;0.2141763;-0.1742093;0;
21349.46;14203.07;2071.407;23202.35;-19.01625;3.39551;21244.89;10943.84;0.01905912;-0.303969;0;
8324.19;5630.274;2229.729;9116.961;-16.71997;5.602535;8129.236;3247.938;-0.1108947;-0.2386962;0;
-20283.8;-13781.74;1341.184;-21357.87;-19.18141;6.534667;-20333.41;-10248.92;-0.1107833;-0.3034237;0;
-20689.83;-12918.99;-158.6913;-22739.92;-14.60779;9.274279;-20591.68;-9621.384;-0.110672;-0.1731841;0;
-16532.13;-9420.4;-2385.647;-18348.36;-12.04751;11.60936;-16411.85;-6709.284;0.2142759;-0.1080428;0;
-23232.35;-15411.79;-4214.485;-25046.6;-8.351713;11.99959;-23036.89;-10425.3;0.1490933;-0.5627056;0;
716.8594;553.7379;-4341.341;-276.4944;-5.596655;13.3272;735.8934;-449.2054;-0.4357626;-0.2373035;0;
21475.8;14472.45;-3544.143;22809.99;-0.5681658;12.1751;21382.48;10694.46;-0.5002921;0.152739;0;
19036.67;12256.7;-2226.945;20989.97;4.255176;11.49303;18947.93;9386.895;-0.1749527;-0.3671532;0;
18528.18;12138.05;115.1475;20176.33;5.523698;9.940877;18418.55;9104.85;-0.0448422;-0.6916209;0;
21390.36;14246.65;1993.853;23243.97;15.90062;8.122471;21285.67;10946.72;-0.1747318;-0.496024;0;
8017.548;5353.669;2140.259;8864.911;-5.952032;5.568958;7824.271;3136.816;-0.3694583;-0.3655909;0;
-20469.57;-13951.93;1268.327;-21497.85;-26.44161;0.3388155;-20521.58;-10227.7;0.02071701;-0.4301909;0;
-21036.36;-13066.6;-236.8162;-23061.84;-6.053205;4.089397;-20934.93;-9703.413;0.08566353;-0.03995461;0;
-17444.72;-10134.58;-2477.015;-19209.17;-4.640603;7.09952;-17305.55;-7164.372;0.02061011;0.7396936;0;
-23837.77;-15970.47;-4291.097;-25650.98;2.330285;-1.950065;-23625.2;-10826.14;0.1505241;0.5440484;0;
486.6736;462.4954;-4433.461;-559.4155;16.46146;-6.168031;511.6875;-597.1965;-0.5642679;0.413567;0;
21196.54;14237.64;-3663.079;22516.19;-2.846161;-8.974994;21102.37;10466.5;-0.6286682;0.6730208;0;
18852.94;12064.07;-2338.078;20807.41;-9.340035;-12.91785;18762.96;9196.6;0.1515715;-0.1072635;0;
18265.31;11871.21;10.90394;19917.25;-11.27303;-12.43599;18157.68;8829.819;0.02148453;-0.3670251;0;
21081.22;13949.69;1901.271;22935.04;-19.63445;-13.02634;20974.48;10661.79;-0.3683411;0.2180498;0;
7645.409;5128.004;2065.714;8453.92;-11.71147;-13.81704;7454.86;2941.528;-0.04313429;-0.1070061;0;
-21613.95;-14966.52;1190.515;-22632.55;-10.82904;-16.48242;-21637.14;-11079.68;-0.1080583;-0.3018005;0;
-22452.4;-14171.17;-306.195;-24444.65;-6.531256;-8.829984;-22325.87;-10551.38;-0.1729171;0.0233394;0;
-18586.93;-11025.71;-2531.128;-20357.54;0.374183;-1.319267;-18450.32;-7872.513;-0.107776;-0.1066187;0;
-25536.46;-17484.44;-4355.87;-27334.11;-5.31962;-7.480127;-25315.59;-12053.68;-0.4325044;-0.1714789;0;
-957.3884;-521.5132;-4485.785;-2031.942;-7.323031;-6.401006;-913.7021;-1266.286;-0.5620045;0.1535301;0;
20881.91;14060.9;-3676.744;22151.8;-4.23519;-10.81533;20792.45;10290.33;0.08823364;0.2183432;0;
18623.29;11772.95;-2346.701;20587.26;-3.292929;-17.56955;18536.18;8888.46;0.4129817;-0.04174562;0;
17885.53;11511.93;-14.65452;19545.37;-5.700518;-8.107487;17781.44;8491.771;0.02276267;-0.2366057;0;
20802;13668.58;1869.46;22648.24;-6.565446;-4.482384;20696.75;10344.79;0.0227398;-0.3013353;0;
6870.75;4437.717;2036.95;7697.249;-10.44459;-4.209949;6684.146;2491.147;0.217619;0.02380419;0;
-23019.4;-16346.55;1162.638;-23994.98;-14.51993;-0.5217791;-23038.76;-12123.67;0.2174003;0.2186823;0;
-23933.41;-15338.89;-344.9447;-25879.33;-14.63907;-3.20045;-23788.05;-11421.32;0.2821492;-0.3012762;0;
-20012.25;-12108.75;-2571.104;-21718.56;-18.17433;-3.197234;-19842.38;-8559.445;0.151931;-0.3659408;0;
-26838.58;-18741.44;-4389.121;-28612.81;-14.94089;-3.327987;-26604.85;-12985.21;-0.2380257;-0.1706711;0;
-1806.666;-1115.507;-4540.211;-2924.85;-11.71069;-4.597319;-1761.996;-1667.313;-0.4326885;-0.4953363;0;
20509.84;13829.04;-3756.353;21761.06;-18.66515;-2.449246;20425;10072.7;-0.1723844;-0.1050345;0;
18320.1;11419.54;-2436.537;20293.87;-21.72786;-3.116614;18232.6;8511.823;0.08765817;0.2848751;0;
17445.14;11079.37;-114.8951;19106.66;-21.70602;2.178047;17342.65;8081.561;0.3474395;0.1546542;0;
20503.8;13377.59;1785.906;22342.06;-20.81258;8.94089;20397.73;10020.12;0.4120577;0.02456407;0;
6305.324;3997.06;1989.086;7138.507;-25.21327;1.965926;6122.743;2276.984;0.281709;-0.1703626;0;
-24274.3;-17522.3;1144.277;-25227.62;-29.67494;-1.653128;-24282.69;-12893.43;0.3463933;-0.1701915;0;
-25037.54;-16360.42;-316.4518;-26994.88;-21.60815;3.57308;-24892.94;-12219.37;0.1511432;0.2197836;0;
-20660.81;-12664.25;-2508.985;-22394.03;-17.29953;3.703455;-20488.41;-9002.624;-0.04391073;0.2845301;0;
-27503.89;-19357.89;-4328.392;-29281.91;-15.942;7.383795;-27262.02;-13511.68;-0.04386661;0.1543095;0;
-2236.29;-1409.08;-4479.496;-3356.132;-14.51946;11.39523;-2191.636;-1879.118;-0.3036919;-0.1706822;0;
20406.25;13746.42;-3700.165;21651.28;-7.605997;8.034756;20321.58;10003.46;-0.1084847;-0.1705107;0;
18207.71;11286.28;-2376.923;20174.82;1.511325;8.428457;18120.58;8359.115;0.216461;-0.04040472;0;
17384.5;11023.53;-29.72893;19041.47;-7.26508;5.271913;17279.63;8027.941;-0.04362587;-0.3652008;0;
20370.35;13242.44;1877.42;22209.76;-10.7404;1.113796;20264.78;9874.192;-0.1085494;-0.4298012;0;
5941.121;3742.015;2076.011;6749.113;-8.9883;5.734377;5766.739;2052.9;-0.1084403;-0.1695;0;
-24588.85;-17775.29;1240.828;-25563.82;-13.06511;8.006035;-24584.21;-13081.32;0.02160333;0.02557236;0;
-25440.79;-16678.14;-233.584;-27376.33;-6.890036;6.3904;-25288.86;-12392.53;-0.1083531;0.4153507;0;
-21462.45;-13364.42;-2455.982;-23178.46;-4.739659;6.517945;-21286.84;-9531.56;-0.3681135;0.5448681;0;
-28330.13;-20143.06;-4283.938;-30099.88;-6.476209;7.717088;-28073.9;-14186.5;-0.1078743;0.2194839;0;
-2748.273;-1759.831;-4451.75;-3863.93;-7.072914;7.8433;-2685.752;-2135.23;0.08713612;0.154296;0;
20144.28;13574.68;-3687.44;21382.02;-8.203907;10.71556;20061.12;9826.231;0.08704856;0.2191083;0;
18036.9;11083.05;-2356.917;20009.43;-5.918488;13.25015;17948.06;8154.413;0.2818631;-0.1059486;0;
17150.84;10793.42;-1.966221;18817.55;-18.2374;13.10287;17048.96;7793.021;0.4115146;-0.1708095;0;
20240.53;13112.6;1927.628;22077.75;-27.5962;15.367;20133.06;9729.339;0.3461337;0.2191662;0;
5594.011;3337.726;2155.092;6387.625;-26.96526;12.47141;5423.5;1848.847;0.3457859;-0.04092338;0;
-25819.42;-19048.81;1344.177;-26792.98;-33.36852;10.24845;-25807.91;-14094.5;0.08556914;-0.1058496;0;
-26775.15;-17934.52;-89.32917;-28680.27;-27.23943;12.18065;-26624.34;-13320.84;-0.2393536;-0.1707106;0;
-22217.96;-14091.36;-2280.076;-23913.44;-20.64797;10.09194;-22039.52;-9908.479;0.2156584;-0.4304084;0;
-29151.78;-20904.47;-4102.664;-30920.38;-30.0717;15.84221;-28887.78;-14724.74;0.4103437;-0.1051392;0;
-3376.822;-2208.387;-4244.953;-4501.306;-32.85452;21.31877;-3311.997;-2375.594;-0.1747747;0.08986845;0;
20158.52;13616.29;-3459.767;21384.32;-31.08019;14.9341;20072.64;9896.031;-0.3695011;0.02481079;0;
18062.25;11083;-2159.599;20038.5;-33.72828;12.77576;17971.22;8111.621;-0.3041625;-0.1701162;0;
17078.1;10729.92;172.6654;18745.35;-25.79114;11.95913;16975.03;7747.993;-0.2388895;-0.3648472;0;
20227.27;13089.25;2104.974;22060.21;-20.80775;8.397014;20117.62;9681.794;0.08618721;0.02532339;0;
5436.762;3237.851;2345.034;6248.12;-20.11726;10.33108;5268.141;1798.617;0.2160353;0.1552327;0;
-25963.86;-19138.75;1557.947;-26910.26;-13.33189;10.18674;-25951.06;-14122.31;-0.04405115;0.02514197;0;
-26916.23;-18074.29;121.0248;-28792.01;-21.4238;8.233994;-26783.28;-13424.03;-0.2389089;0.09008407;0;
-22688.05;-14591.47;-2078.507;-24355.9;-25.28704;9.096498;-22533.79;-10351.99;0.02120051;-0.2348432;0;
-29742.89;-21467.92;-3885.899;-31518.91;-21.44324;2.322327;-29482.71;-15266.45;0.1511139;-0.2995746;0;
-3700.537;-2403.095;-4027.203;-4865.967;-24.4358;-2.904554;-3632.452;-2560.084;0.02102737;0.2854325;0;
20025.68;13534.04;-3248.53;21226.46;-14.36454;-1.093218;19936.91;9814.94;0.1509409;0.1552111;0;
18012.73;11008.68;-1931.161;19981.97;-8.254536;-2.096741;17920.1;8025.114;-0.1090801;-0.2347489;0;
17094.07;10749.35;414.0546;18755.98;-7.308236;-1.893808;16988.93;7761.522;-0.1089705;-0.1695457;0;
20203.38;13059.62;2328.317;22028.76;-1.808537;-1.423024;20089.45;9642.259;0.280943;-0.03944069;0;
5403.449;3189.386;2541.041;6186.659;-4.553386;-1.488577;5235.096;1767.617;0.2156934;-0.1693357;0;
-25968.2;-19175;1744.387;-26947.03;-2.070564;-0.6163036;-25949.16;-14081.4;-0.04439269;-0.1041982;0;
-26783.46;-17964.55;318.3188;-28698.33;-8.163076;-0.8166332;-26646.09;-13319.61;-0.1742828;0.02584113;0;
-22329.62;-14223.75;-1885.69;-24029.1;-16.72869;-0.9497785;-22174.62;-10089.64;-0.239075;-0.1690869;0;
-29511.63;-21263.97;-3708.659;-31268.2;-4.856511;-0.2789948;-29247.68;-15023.33;-0.5636715;-0.363819;0;
-3701.992;-2443.804;-3830.073;-4840.08;-1.234309;0.05620018;-3630.828;-2501.018;-0.6280724;-0.1685514;0;
20062.41;13572.21;-3039.417;21266.37;0.1734509;0.3240754;19971.43;9847.227;-0.2376373;-0.03844735;0;
18084.59;11078.38;-1741.733;20055.03;4.928699;2.333238;17991.35;8085.369;-0.1724312;-0.2333107;0;
17106.51;10754.16;598.1392;18761.87;-0.2338173;-2.35779;17001.83;7764.714;0.02264411;0.09176041;0;
20204.15;13054.5;2507.203;22033.02;-1.773824;-6.374397;20092.75;9636.937;0.2175234;0.4165049;0;
5617.015;3362.674;2704.427;6433.083;-3.849123;-1.813274;5448.068;1883.083;0.2173048;-0.1686197;0;
-25735.89;-18955.71;1884.917;-26688.94;-5.720289;-0.8067083;-25721.35;-13941.68;0.08715178;-0.2983849;0;
-27063.38;-18211.42;418.3065;-28953.75;-9.264515;-0.2030514;-26912.08;-13423.23;-0.04287047;0.09171896;0;
-22826.27;-14729.79;-1799.124;-24495.93;-13.34104;-0.4037962;-22651.82;-10416.29;0.08710729;0.02665944;0;
-29737.79;-21451.06;-3597.833;-31496.86;-11.65367;2.34291;-29465.31;-15270.41;0.02205242;0.02663265;0;
-3779.907;-2416.096;-3707.505;-4934.021;-12.31155;6.426393;-3699.738;-2570.473;-0.3028064;-0.03836145;0;
20041.86;13566.69;-2893.828;21245.95;-8.815578;-0.5461677;19955.62;9828.021;-0.1725675;-0.1032902;0;
18089.44;11069.93;-1549.657;20068.01;-3.582784;-3.827661;17997.94;8083.923;-0.1074268;0.2866176;0;
17156.77;10803.12;815.4625;18819.14;-8.535677;-5.364422;17055.52;7804.187;-0.1073188;0.6111663;0;
20262.6;13111.92;2731.648;22095.45;-14.22053;-9.109954;20152.13;9690.377;0.2825931;0.2207482;0;
5317.259;3128.471;2923.181;6143.815;-1.881379;-6.957469;5154.658;1757.685;0.5421785;-0.1692777;0;
-26168.84;-19350.73;2092.753;-27100.79;5.6226;-6.0797;-26141.18;-14191.33;0.411699;-0.1041403;0;
-27040.29;-18199.94;632.0087;-28932.95;0.5257595;-8.14994;-26888.89;-13389.9;0.2813506;-0.2989376;0;
-22728.47;-14646.19;-1583.56;-24413.67;4.142553;-10.88805;-22563.14;-10345.27;0.4110026;-0.428572;0;
-30147.51;-21861.39;-3395.948;-31886.25;-7.181114;-4.781785;-29866.96;-15498.14;0.4105897;-0.03833729;0;
-4242.211;-2807.208;-3501.137;-5377.749;-15.61399;-0.2892461;-4148.734;-2721.544;-0.174529;0.3515053;0;
19970.32;13538.8;-2672.268;21167.89;-12.91899;-2.901168;19883.25;9813.329;-0.434223;0.2861848;0;
18079.72;11045.28;-1330.256;20053.88;-18.66678;-0.687938;17984.92;8023.238;-0.3688193;-0.1039069;0;
17067.56;10710.78;1032.831;18737.36;-8.265548;-5.241964;16964.66;7727.961;-0.4334161;-0.1687698;0;
20241.6;13089.8;2949.532;22066.16;0.2492235;-7.714943;20128.97;9633.984;0.1517255;-0.03866553;0;
5289.253;3113.466;3130.944;6065.085;-6.984695;-6.233689;5127.758;1785.416;0.6063444;-0.03862668;0;
-26380.75;-19560.86;2297.622;-27348.12;-10.79607;-7.165064;-26358.09;-14339.85;0.2808985;-0.1685226;0;
-27386.29;-18554.65;849.9305;-29263.03;-1.541822;-3.875823;-27236.58;-13754.1;0.1506815;-0.1033859;0;
-22994;-14912.57;-1351.208;-24651.79;7.368335;-4.675724;-22817.99;-10580.5;0.08556279;0.2215547;0;
-30167.37;-21860.16;-3144.152;-31916.23;-3.556432;5.108238;-29896.41;-15561.39;0.02050947;-0.03853728;0;
-4117.293;-2627.243;-3231.525;-5285.37;-7.303903;14.27952;-4043.538;-2687.216;0.1504235;-0.1684332;0;
19972.52;13558.59;-2403.802;21163.01;-6.961771;9.442526;19884.78;9815.951;0.1502724;-0.1032967;0;
18061.37;11010.51;-1067.135;20040.23;-10.70582;11.17459;17968.1;8003.947;-0.04478062;-0.2331275;0;
17116.53;10760.49;1283.162;18777.94;-4.800565;7.881324;17013.44;7754.104;-0.2396377;-0.1029586;0;
20180.61;13020.34;3184.979;22016.48;-4.929463;3.452532;20069.59;9578.86;0.08543985;0.02707953;0;
5272.536;3050.235;3378.711;6099.85;4.318891;7.066141;5111.45;1701.674;0.4101907;-0.1028824;0;
-26263.9;-19477.48;2558.008;-27193.95;13.4906;6.456194;-26236.2;-14268.12;0.2798439;-0.1677463;0;
-27460.64;-18624.18;1103.621;-29309.96;8.520555;6.985571;-27303.18;-13654.3;-0.1102414;0.2871936;0;
-23350.21;-15287.83;-1110.829;-24966.82;9.650092;8.318089;-23166.49;-10812.57;-0.1750979;0.6117418;0;
-30639.37;-22320.17;-2927.424;-32366.76;7.832711;5.429586;-30355.44;-15971.92;-0.04498732;0.1563557;0;
-4469.254;-2912.208;-3039.581;-5631.663;6.552043;4.95525;-4382.599;-2884.937;-0.3048115;-0.4285075;0;
19902.85;13504.76;-2218.141;21094.42;3.397628;3.811561;19819.35;9765.448;-0.2395379;-0.2981423;0;
18054.92;10995.68;-876.3045;20031.88;-2.567633;3.204885;17963.21;7967.363;0.2154742;0.1569287;0;
17012.7;10654.61;1480.892;18677.51;1.721854;3.000838;16911.11;7649.982;0.1502904;-0.038131;0;
20254.52;13091.04;3410.761;22082.92;1.586402;0.1175563;20144.31;9632.576;-0.10973;0.09184201;0;
5288.632;3091.481;3621.133;6097.298;1.985974;6.815609;5128.885;1788.757;0.1502496;0.4165864;0;
-26973.95;-20180.58;2792.409;-27900.46;6.003442;10.55968;-26940.5;-14876.85;0.08513129;0.09133114;0;
-28123.65;-19290.32;1359.134;-29972.67;-2.509057;9.410363;-27957.79;-14267.78;0.02007841;-0.03869532;0;
-23257.4;-15194.13;-828.804;-24887.69;-6.72707;11.4104;-23071.42;-10724.67;0.4748296;0.0263109;0;
-30698.42;-22364.34;-2634.376;-32401.14;-6.652962;6.576281;-30405;-15923.29;0.08454847;-0.1036502;0;
-4801.605;-3169.806;-2739.393;-5933.542;-12.20598;4.22527;-4700.896;-2991.284;-0.4352752;-0.03857873;0;
19777.8;13421.21;-1932.701;20970.45;-3.351483;0.9389833;19695.07;9689.271;-0.04503381;-0.1684747;0;
17971.88;10896.36;-611.7815;19955;3.417039;-2.143053;17877.78;7846.597;-0.04498856;-0.103338;0;
16980.57;10622.63;1727.236;18648.75;-3.084105;-4.083405;16878.8;7623.368;-0.3048127;0.1566352;0;
20177.21;13013.51;3636.212;22008.08;-3.013657;-6.758619;20067.64;9540.271;-0.1745718;0.4163472;0;
5116.946;2907.383;3839.673;5929.584;-5.28878;-5.88105;4955.436;1645.321;-0.2393637;0.4808962;0;
-26877.27;-20085;3004.576;-27817.13;-7.694364;-9.224165;-26846.72;-14765.02;-0.2391232;0.2855109;0;
-28138.18;-19299.48;1567.153;-29961.82;-5.6769;-0.03847898;-27966.93;-14263.37;-0.1739156;0.3501914;0;
-23624.04;-15558.01;-609.2813;-25222.94;-6.341758;6.391799;-23437.22;-11024.81;-0.3036755;0.4148068;0;
-30599.7;-22284.86;-2432.877;-32332.56;-3.656068;3.237179;-30314.82;-15955.83;-0.238403;-0.04038135;0;
-4380.074;-2810.763;-2591.695;-5524.766;-3.250253;5.779277;-4285.149;-2821.094;-0.2381635;-0.4301448;0;
19862.86;13469.33;-1835.017;21068;1.30834;-1.12565;19778.17;9709.85;-0.5627609;-0.2348106;0;
17959.52;10883.73;-555.0032;19935.81;8.741765;-5.411304;17865.81;7842.308;-0.2373587;-0.03967262;0;
16928.66;10570.01;1760.859;18589.29;-0.4440463;-9.424721;16827.53;7551.164;0.2826185;-0.1046001;0;
20172.37;12995.95;3665.413;22001.01;-5.734886;-15.97946;20063.11;9520.802;0.4772366;0.2853091;0;
5255.321;2984.305;3871.562;6091.828;0.2990966;-15.36055;5094.654;1754.462;0.6066917;0.5448918;0;
-27040.46;-20295.68;3047.553;-27955.85;1.571594;-16.61773;-27009.13;-14928.34;0.2162781;0.2195075;0;
-28223.9;-19387.17;1616.427;-30087.21;2.440671;-18.54354;-28053.75;-14403.34;-0.1087759;0.02438493;0;
-23205.91;-15139.71;-563.9923;-24837.04;3.443572;-18.45793;-23021.32;-10709.11;0.08623537;-0.1055743;0;
-30422;-22127.83;-2393.99;-32129.39;3.975;-18.97518;-30131.76;-15754.9;0.2160834;0.2193685;0;
-4540.317;-3005.201;-2556.658;-5690.503;3.167698;-19.55896;-4436.386;-2908.74;0.08593161;0.4140502;0;
19850.8;13452.95;-1797.141;21029.1;8.389428;-14.1808;19768.95;9708.981;-0.04408942;0.2187321;0;
18021.76;10950.16;-504.4373;19993.98;17.08854;-9.812778;17928.07;7884.841;-0.3039145;0.2185123;0;
17013.46;10643.44;1825.149;18680.4;4.880228;-8.731192;16912.37;7625.404;-0.6934131;-0.106544;0;
20205.65;13031.43;3736.197;22031.4;-0.9518254;-7.047845;20094.14;9552.629;-0.3678797;-0.2363716;0;
5292.908;3074.509;3954.738;6075.541;3.26869;-4.227602;5129.009;1726.71;0.2821634;-0.04123208;0;
-26716.21;-19920.98;3142.139;-27667.31;-2.02588;-2.481798;-26683.23;-14640.97;0.2169125;-0.106158;0;
-27922.17;-19104.86;1709.45;-29752.2;12.91298;-2.613271;-27755.12;-14040.85;-0.1081422;0.2187854;0;
-23081.16;-15027.39;-477.4189;-24720.97;22.07606;-1.53904;-22907.92;-10575.26;-0.1730008;0.4784349;0;
-29978.82;-21720.86;-2308.706;-31736.47;21.18322;-5.891262;-29698.12;-15501.96;-0.5626311;-0.04178455;0;
-3975.141;-2542.348;-2466.322;-5114.367;27.99444;-7.291862;-3882.598;-2620.417;-0.6270331;-0.2366446;0;
20091.02;13657.05;-1716.594;21302;18.72291;-13.31288;20001.22;9875.249;0.3481071;0.02346256;0;
18145.05;11076.35;-459.8436;20122.47;13.7476;-21.00241;18049.58;8021.457;0.4127246;-0.1064957;0;
17144;10771.92;1840.462;18807.56;12.1262;-14.01521;17039.18;7737.098;-0.2373635;-0.171356;0;
20432.37;13245.64;3743.515;22259.28;6.085796;-11.52288;20319.55;9756.789;-0.1071903;-0.04124917;0;
5699.73;3354.063;3946.056;6514.578;8.155786;-11.64527;5529.217;1994.96;0.2177541;0.283629;0;
-26327.09;-19637.81;3108.666;-27264.99;9.018247;-8.954249;-26315.38;-14414.66;0.152568;0.4132787;0;
-27448.23;-18609.18;1650.508;-29315.15;2.980965;-8.811286;-27297.01;-13788.76;0.02248001;0.02305936;0;
-22641.8;-14568.08;-562.2731;-24288.25;-2.313316;-6.726083;-22472.85;-10305.74;-0.1724446;-0.5616699;0;
-30121.03;-21835.76;-2410.669;-31845;4.11937;-6.250444;-29844.54;-15463.26;-0.107304;-0.4311708;0;
-4310.583;-2834.058;-2567.511;-5431.889;7.731577;-5.708301;-4216.7;-2732.863;0.1526732;0.2189358;0;
20099.73;13665.15;-1795.458;21305.79;6.384638;-2.822299;20012.14;9889.165;-0.04238223;0.4136179;0;
18206.74;11131.88;-502.3033;20179.78;8.454328;-1.211994;18109.73;8052.99;-0.5620784;0.2832676;0;
17223.92;10848.22;1838.603;18888.23;5.298001;1.602507;17120.63;7821.37;-0.3016442;0.4129176;0;
20482.79;13293.94;3761.616;22310.9;2.077497;4.949921;20368.04;9792.953;0.2183976;0.2176007;0;
5785.666;3495.739;3978.32;6603.679;5.692732;3.672271;5616.365;2025.794;0.1532108;-0.1074547;0;
-25670.21;-18929.04;3171.101;-26615.68;7.830465;2.262062;-25647.25;-13869.03;0.2180242;-0.172314;0;
-26943.66;-18118.93;1719.127;-28821.8;4.205275;7.015455;-26777.92;-13334.52;0.08787044;-0.3020756;0;
-22759.39;-14690.8;-498.2679;-24404.94;4.535842;9.352687;-22577.55;-10374.82;-0.2370546;-0.04190267;0;
-29800.58;-21532.56;-2325.317;-31558.54;-2.367591;8.472511;-29534.84;-15345.05;-0.171849;0.2829762;0;
-3828.367;-2401.682;-2463.847;-5018.578;-13.551;9.535725;-3756.336;-2562.919;-0.04174167;0.1527571;0;
20100.08;13663.34;-1678.984;21280.31;2.001684;5.641255;20011.8;9883.245;0.283137;0.2825383;0;
18290.73;11209.58;-374.2331;20266.83;13.05173;2.152596;18197.13;8148.072;0.4777545;0.4771565;0;
17351.63;10980.63;1964.53;19009.65;-0.6254099;2.686297;17247.67;7933.176;0.02250307;0.4117097;0;
20543.14;13340.1;3893.976;22377.12;-4.308477;2.013768;20434.33;9853.735;-0.1074542;0.02149192;0;
6070.346;3622.968;4107.267;6891.997;-4.706289;-1.605334;5913.02;2162.883;0.2174904;-0.4333011;0;
-25625.36;-18993.06;3279.741;-26563.4;-5.572217;-4.885762;-25585.61;-13848.29;0.08733723;-0.6277677;0;
-26789.87;-17959.59;1841.479;-28653;-8.112213;-4.81387;-26616.2;-13338.25;-0.2375872;-0.2373329;0;
-21701.51;-13620.89;-361.8427;-23369.54;-13.66377;-6.215674;-21519.83;-9640.543;-0.1074138;0.4775464;0;
-28942.69;-20712.58;-2207.114;-30686.59;-3.736076;-5.673565;-28657.71;-14469.85;-0.04233855;0.4120992;0;
-3645.172;-2344.167;-2340.594;-4748.212;-0.2496971;-3.792343;-3548.558;-2355.264;0.02267134;0.4766524;0;
20377.93;13892.23;-1538.987;21595.38;5.577703;-8.477216;20293.12;10101.67;0.1525832;0.4112062;0;
18565.44;11493.77;-231.3786;20534.94;17.16002;-11.54991;18471.2;8416.112;0.2173973;-0.2388804;0;
17582.78;11209.75;2118.766;19243.82;5.018992;-10.19865;17481.02;8167.871;0.3471135;0.0861963;0;
20826.57;13611.55;4042.013;22665.39;0.1248053;-12.59966;20715.6;10121.01;-0.04303932;0.6058484;0;
6581.619;4092.2;4233.697;7465.92;2.87037;-8.300219;6425.408;2447.438;-0.4977675;-0.04443376;0;
-24450.13;-17835.19;3402.828;-25346.72;-1.553144;-3.000349;-24410.82;-12968.55;-0.5622346;-0.3692258;0;
-25511.6;-16744.67;1967.113;-27447.05;6.218925;-12.17375;-25341.17;-12429.87;-0.431735;-0.04401812;0;
-20815.83;-12734.33;-212.0507;-22547.89;10.43223;-16.98423;-20632.98;-9061.61;-0.3663339;-0.04397389;0;
-27774.7;-19648.79;-2004.53;-29553.53;9.081606;-15.96242;-27516.01;-13763.84;-0.1710638;-0.0439297;0;
-2500.528;-1560.348;-2113.929;-3646.876;13.09194;-18.62564;-2440.753;-1951.238;0.02401015;0.08604914;0;
20705.99;14091.15;-1320.312;21924.13;7.184292;-16.39655;20619.61;10260.15;-0.3008507;0.15093;0;
18696.31;11666.39;-20.6848;20672.04;2.890165;-13.63383;18605.39;8627.67;-0.04067902;0.2157457;0;
17854.39;11460.88;2304.542;19513.62;7.642684;-18.84468;17751.91;8387.586;0.02432919;-0.1742751;0;
21009.95;13794.45;4173.833;22853.81;6.965419;-22.50974;20903.17;10327.71;-0.300532;-0.3040347;0;
7024.718;4529.594;4307.944;7866.214;10.97691;-17.73146;6861.356;2687.433;0.2844761;0.2160095;0;
-23762.21;-17148.42;3441.674;-24716.24;14.38213;-16.03907;-23740.19;-12545.22;0.1542556;0.5406292;0;
-24940.65;-16289.46;1985.056;-26892.81;10.55026;-14.41542;-24787.64;-12100.46;-0.3006708;0.4751186;0;
-20120.8;-12138.06;-198.7486;-21856.64;9.133141;-10.04717;-19949.25;-8539.083;0.08943534;0.2147719;0;
-26989.81;-18908.7;-1976.39;-28769.28;7.851166;-14.39084;-26747.1;-13015.64;-0.1055565;0.08462137;0;
-2078.055;-1289.364;-2071.09;-3209.849;7.976999;-15.91693;-2035.605;-1656.858;-0.4952545;-0.1103657;0;
20950.68;14297.55;-1272.518;22181.77;1.739693;-13.42263;20863.62;10484.03;-0.2998549;0.01967988;0;
19020.99;11993.38;0.8553258;21000.83;-1.477236;-13.47613;18932.68;8946.11;0.3501198;0.2145621;0;
18117.32;11729.79;2269.042;19779.99;-5.293169;-9.44373;18013.23;8648.235;0.4147354;-0.1754575;0;
21197.28;13961.7;4096.718;23046.71;-13.92901;-7.022856;21092.4;10518.3;-0.6251588;-0.1103139;0;
7713.467;5023.517;4211.104;8579.455;-0.7868515;-3.398843;7551.63;2988.812;-0.2996939;0.2146337;0;
-22236.22;-15753.11;3321.568;-23171.8;7.921476;1.427221;-22209.53;-11473.92;0.2203459;0.4742874;0;
-23412.97;-14974.16;1845.689;-25395.84;2.622231;-0.4497349;-23267.28;-11091.05;0.02522249;0.6037455;0;
-18917.7;-11151.65;-346.5486;-20698.1;3.959743;-1.855803;-18773.25;-7899.161;0.09016449;-0.1764693;0;
-25666.16;-17694.83;-2134.473;-27458.27;4.892793;2.432848;-25434.62;-12132.75;-0.1048281;-0.3062266;0;
-1155.211;-637.5322;-2256.313;-2273.009;8.304129;3.903906;-1109.307;-1273.259;-0.2346575;-0.04604955;0;
21109.28;14360.07;-1470.924;22351.09;2.602357;2.962344;21021.9;10506.08;0.02544766;0.01896406;0;
19111.85;12131.97;-165.8514;21087.06;-4.767648;3.562214;19024.23;9122.202;0.2852915;0.1488797;0;
18319.41;11906.05;2133.488;19976.96;6.489299;-0.9962049;18213.73;8800.709;0.4149395;-0.435976;0;
21360.64;14134.72;3975.152;23213.03;10.76969;-3.071553;21254.79;10713.35;0.2196205;-0.7603746;0;
8066.896;5369.387;4095.095;8939.724;10.42407;-7.355252;7894.377;3217.695;0.2843672;-0.1099372;0;
-21876.44;-15374.93;3198.116;-22801.59;14.09729;-12.70637;-21871.43;-11277.49;0.2840815;0.5398467;0;
-23001.17;-14672.9;1726.563;-24971.67;7.519045;-9.478548;-22855.83;-10912.23;-0.3009101;0.4093696;0;
-18146.44;-10533.64;-460.4016;-19920.36;2.554996;-9.469024;-17988.38;-7406.439;-0.2356404;0.0191542;0;
-25164.59;-17134.86;-2266.75;-26949.98;4.562161;-7.717953;-24933.29;-11592.7;0.02446577;0.214037;0;
-1122.61;-590.9141;-2377.962;-2246.947;6.165168;-4.696088;-1081.636;-1198.803;0.08940853;0.3437566;0;
21251.35;14436.28;-1538.384;22471.06;-3.21815;-5.830079;21160.47;10571.22;0.4141554;0.1485092;0;
19204.83;12243.79;-191.1394;21173.93;-10.18114;-5.288358;19113.56;9237.373;0.3487719;0.01842526;0;
18336.47;11916.38;2159.293;19993.13;-7.760014;-4.144334;18231.16;8809.801;-0.04138258;-0.2414626;0;
21470.32;14246.75;4072.52;23312.77;-11.23484;-3.939221;21363.59;10821.17;0.02362634;-0.1762527;0;
7879.664;5312.276;4231.721;8745.873;-3.788812;-2.662587;7711.348;3200.62;-0.1063321;0.3436632;0;
-21989.34;-15406.49;3333.918;-22918.24;4.587739;-1.856117;-21973.28;-11260.66;-0.0412579;0.08344851;0;
-22822.59;-14492.12;1833.196;-24784.73;-3.454822;-2.72503;-22678.41;-10730.51;0.0237509;-0.1115374;0;
-18453.97;-10810.4;-396.3702;-20205.75;-6.465461;-1.650565;-18301.58;-7691.624;-0.04124031;0.2783788;0;
-25614.7;-17614.77;-2236.297;-27403.2;-0.3633955;-6.270729;-25373.24;-12068.3;0.1537032;-0.2416397;0;
-1196.968;-673.3907;-2382.741;-2339.373;3.388014;-11.02009;-1141.144;-1281.684;0.02361403;-0.6961683;0;
21120.06;14356.97;-1571.066;22342.2;1.575948;-6.65513;21035.43;10488.89;-0.1063444;-0.1107627;0;
19069.93;12096.76;-220.3841;21039.85;0.3015671;-5.84477;18981.35;9092.438;0.3485339;0.08425062;0;
18263.72;11844.92;2141.447;19915.93;4.588172;-4.76717;18159.17;8742.161;0.5430857;-0.04576873;0;
21339.38;14114.38;4073.511;23183.44;5.521566;-0.6095603;21233.85;10683.07;0.2177033;-0.3055921;0;
7804.994;5094.867;4276.063;8681.999;8.596501;-5.900477;7646.521;3058.568;0.2174845;-0.305285;0;
-22242.98;-15778.59;3430.346;-23156.1;14.28129;-8.908659;-22216.02;-11464.78;0.2822333;-0.1100763;0;
-23095.94;-14724.79;1980.986;-25060.37;6.228989;-3.139297;-22942.8;-10880.24;-0.237789;-0.2399004;0;
-18217.19;-10526.25;-219.6029;-19975.37;2.606384;0.1458991;-18048.13;-7427.803;-0.04264802;-0.1097246;0;
-25318.59;-17274.36;-2071.561;-27078.61;3.206001;0.8825648;-25064.38;-11734.81;0.2822315;0.2152224;0;
-1252.953;-688.7182;-2251.231;-2350.298;-0.4135665;1.819439;-1196.185;-1289.937;-0.2377908;-0.174798;0;
21088.25;14308.4;-1465.847;22332.3;4.810786;6.841209;21005.84;10441.73;-0.1076172;-0.499459;0;
19090.85;12117.9;-128.2493;21069.62;5.542886;9.915427;19007.12;9113.524;0.1523603;-0.4339898;0;
18193.81;11777.03;2230.21;19852.72;9.623154;12.31685;18092.27;8671.928;-0.04269478;0.1511523;0;
21366.25;14139.86;4180.581;23220.82;15.50798;15.38557;21263.81;10715.26;0.0872828;0.4758372;0;
8112.812;5399.434;4402.892;8985.854;8.995666;13.89648;7942.633;3252.552;0.4769991;-0.109347;0;
-21898.95;-15416.58;3549.363;-22834.81;7.512758;14.61933;-21896.23;-11333.64;0.2166505;0.1506322;0;
-23310.41;-14820.52;2078.597;-25261.54;4.021608;9.915959;-23158.25;-11014.59;-0.2383386;0.2804155;0;
-19016.05;-11269.44;-142.2985;-20736.44;-1.541162;4.94938;-18833.71;-8030.095;0.2166723;-0.1096703;0;
-26054.51;-17996.73;-2010.794;-27794.28;-0.1330937;6.485015;-25803.55;-12375.13;0.3463893;0.08534195;0;
-1596.017;-888.343;-2210.735;-2698.479;-3.013348;4.937891;-1547.054;-1440.924;-0.4335669;0.08525619;0;
20959.41;14254.39;-1458.922;22186.82;-2.474457;3.995168;20873.01;10400.07;-0.1732619;0.3450399;0;
19020.81;12020.51;-155.4538;20997.44;0.1399979;3.924171;18934.16;9005.256;0.4765856;0.4096605;0;
18140.65;11732.48;2184.901;19805.43;-8.165539;1.17405;18037.42;8633.904;0.02133536;-0.3703592;0;
21262.64;14028.83;4125.479;23116.23;-11.37251;-0.1667884;21155.69;10591.66;-0.3684901;-0.4999217;0;
7807.431;5081.674;4356.216;8674.673;-10.89257;-0.3005866;7643.118;3047.026;0.02168418;-0.3045174;0;
-22351.06;-15898.5;3530.095;-23267.74;-9.005617;-1.305029;-22343.73;-11576.78;0.1515971;-0.4991134;0;
-23421.21;-15006.26;2075.34;-25338.17;-13.28348;0.3038731;-23292.37;-11109.96;-0.04345727;-0.5635793;0;
-18693.04;-10966.03;-138.5238;-20409.55;-23.65261;1.174346;-18534.53;-7793.391;0.1514884;-0.04327426;0;
-25793.69;-17753.85;-2014.66;-27538.45;0.3512944;1.842995;-25544.79;-12169.5;0.2163035;0.02173657;0;
-1481.948;-863.7079;-2223.077;-2576.28;13.94762;4.118441;-1430.094;-1417.011;-0.1087505;-0.498024;0;
21056.81;14312.84;-1469.049;22292.44;12.92923;1.03321;20972.38;10456.38;-0.3035433;-0.4325562;0;
19032.04;12044.52;-196.7589;21010.81;26.71399;-0.8433504;18945.16;9029.229;-0.4331729;0.1525845;0;
18068.21;11650.73;2109.374;19732.67;4.516652;2.104746;17964.2;8551.282;-0.3677703;0.2173985;0;
21191.88;13961.56;4063.146;23040.98;-10.55844;4.714844;21086.96;10527.08;-0.1724988;-0.2375914;0;
7876.942;5166.899;4328.146;8721.629;-2.510851;2.23186;7704.817;3090.426;0.2174786;-0.2373526;0;
-22337.01;-15871.38;3541.878;-23279.18;-6.259373;0.220129;-22331.66;-11614.21;0.2822274;0.2826246;0;
-23614.27;-15177.97;2129.996;-25540.11;-5.4488;5.042557;-23467.33;-11275;-0.1728276;-0.04249608;0;
-18864.34;-11145.05;-60.63788;-20582.38;-7.318359;5.908268;-18697.72;-7910.266;0.08721546;-0.5621921;0;
-25926.86;-17884.71;-1921.532;-27681.05;-2.555583;11.12688;-25683.51;-12252.35;0.2170625;-0.04188849;0;
-1600.442;-941.1237;-2122.359;-2711.45;5.417587;17.88085;-1552.398;-1486.584;-0.237927;0.2829903;0;
20977.35;14234.98;-1386.08;22207.52;-5.036705;11.56661;20890.66;10365.52;-0.1727206;-0.04213075;0;
18996.54;12007.35;-107.454;20976.7;-12.46638;9.880416;18910.59;8993.706;-0.04261234;0.08784629;0;
18125.46;11703.93;2223.482;19780.84;-2.13873;10.40635;18023.25;8602.33;-0.1075369;0.1527254;0;
21219.99;13991.68;4165.38;23065.69;2.618841;9.324168;21116.42;10546;0.08747321;-0.1722648;0;
7675.405;5019.332;4413.131;8532.776;-0.7326931;10.58748;7502.892;2990.76;0.1523527;0.08777764;0;
-22735.06;-16230.19;3620.155;-23682.72;1.344148;10.10796;-22729.58;-11875.13;0.02226489;0.2825915;0;
-24050.24;-15517.61;2206.586;-26006.27;-4.61905;13.98269;-23889.29;-11504.99;-0.1076922;-0.3023986;0;
-19286.47;-11470.98;48.31187;-21035.42;-9.168759;16.58097;-19106.13;-8163.385;-0.3674533;0.02274199;0;
-26303.36;-18230.78;-1777.069;-28098.12;-5.609573;17.77;-26063.71;-12581.71;-0.6919208;0.3475559;0;
-1888.951;-1130.051;-1963.33;-3049.991;-5.737659;17.81913;-1844.192;-1639.45;-0.1714868;-0.1725321;0;
20888.08;14198.47;-1202.114;22086.46;-3.722162;22.22198;20801.9;10344.35;0.2184895;-0.1073914;0;
18977.8;11963.79;81.40292;20950.84;-3.919492;26.88833;18889.64;8935.921;0.02336797;0.08761854;0;
17946.99;11535.28;2393.752;19603.56;3.451836;19.62728;17842.36;8434.361;-0.1715575;0.1524978;0;
21146.53;13911.53;4329.779;22986.09;13.4287;16.59345;21039.13;10458.9;-0.04145047;0.1523446;0;
7628.551;4956.596;4551.346;8483.508;3.167431;12.75887;7462.853;2998.522;0.5432972;-0.3675472;0;
-23109.54;-16628.99;3727.029;-24048.57;-2.662901;8.124351;-23085.65;-12129;0.5427513;-0.2372432;0;
-24252.94;-15783.12;2316.522;-26213.37;5.778893;5.972733;-24089.55;-11739.58;-0.1074674;0.1527992;0;
-19017.56;-11235.35;155.2642;-20779.53;7.448025;1.211066;-18850.45;-8012.994;-0.1073594;0.022711;0;
-25989.63;-17924.6;-1676.924;-27794.57;9.918788;4.491891;-25751.75;-12335.63;0.02268311;0.08765554;0;
-1651.968;-937.463;-1842.327;-2812.388;13.59252;6.83178;-1602.016;-1482.507;-0.1722417;0.02260011;0;
21002.85;14282.67;-1073.018;22219.03;11.7702;4.748445;20916.92;10412.46;0.1527681;-0.3022593;0;
18997.03;11996.84;208.573;20977.21;14.50504;5.145571;18908.29;8975.759;0.08764723;-0.1070536;0;
18131.76;11708.56;2526.214;19785.97;9.399272;6.480059;18027.64;8604.109;-0.04237552;0.08795603;0;
21216.51;13987.74;4433.872;23066.4;4.031192;7.076395;21111.24;10537.39;0.0226344;0.0229003;0;
7711.654;5079.032;4635.719;8579.396;11.93137;9.480548;7542.521;3031.652;-0.4321598;0.2177793;0;
-22405.47;-15883.47;3807.256;-23335.63;13.05846;11.14559;-22397.68;-11594.28;-0.3667582;0.1525932;0;
-23837.79;-15215.89;2333.545;-25773.02;18.80514;10.59853;-23682.26;-11234.74;-0.1065203;0.2174072;0;
-19822.16;-11930.4;103.0074;-21522.17;26.08726;9.784087;-19637.82;-8564.352;-0.3013153;0.4120907;0;
-27196.18;-19057.78;-1733.079;-28940.63;20.16655;10.51107;-26943.58;-13333.59;-0.4309472;0.1518073;0;
-2333.246;-1389.172;-1858.009;-3493.967;18.40497;12.57698;-2281.174;-1862.565;-0.2356121;0.02172008;0;
20861.58;14247.43;-1042.035;22057;19.32449;4.928408;20779.11;10394.27;-0.1054407;0.2815676;0;
19023.42;11981.38;263.5434;21012.49;18.23334;-0.769971;18936.21;8954.249;-0.1703021;0.2812847;0;
18122.77;11715.86;2599.136;19788.28;16.54008;-0.1663509;18019.08;8607.593;-0.04019631;0.02113269;0;
21267.75;14030.38;4534.55;23120.77;13.10819;-4.185038;21161.62;10590.04;-0.3000253;-0.1737906;0;
7891.702;5180.703;4738.857;8774.428;14.56791;-0.6978421;7732.037;3148.881;-0.2347565;-0.1086486;0;
-22588.38;-16122.91;3894.674;-23480.98;15.95979;2.049159;-22559.2;-11757.15;0.3501855;-0.1735068;0;
-24319.91;-15701.86;2429.37;-26216.07;9.781811;-1.971754;-24164.77;-11523.37;0.3498336;-0.3032671;0;
-19756.82;-11893.07;212.6202;-21436.26;6.62415;-1.099116;-19592.26;-8419.659;0.1545801;0.02187432;0;
-27037.41;-18921.86;-1642.989;-28758.33;5.545767;-5.049883;-26796.77;-13116.83;-0.2353793;0.2167544;0;
-2544.567;-1600.015;-1804.084;-3679.227;3.797906;-8.125901;-2497.69;-1931.316;-0.1701754;0.1515692;0;
20827.24;14203.02;-1005.032;22030.53;3.058132;-4.634746;20740.64;10360.84;-0.04006977;0.2163843;0;
19081.74;12037.19;299.3074;21067.74;-0.562263;-4.228191;18992.48;8992.313;-0.1049968;0.08623218;0;
18156.78;11744.85;2631.506;19818.66;8.614353;-1.343799;18050.74;8650.241;0.2199454;-0.2386912;0;
21341.92;14100.34;4566.638;23195.03;19.65776;0.3321246;21235.11;10652.54;0.08978967;-0.563288;0;
8139.557;5356.406;4785.687;8999.296;6.242397;3.145074;7978.46;3253.783;0.2846015;-0.36782;0;
-22005.07;-15609.78;3957.198;-22943.63;-3.476767;6.156024;-21984.95;-11410.49;0.1543808;-0.04261374;0;
-24114.63;-15415.91;2481.993;-26041.96;11.79835;6.082855;-23968.88;-11297.88;-0.170611;-0.1725056;0;
-20317.29;-12394.46;252.7278;-22019.88;19.48965;10.16258;-20149.51;-8793.885;0.0894298;-0.302267;0;
-27745.46;-19564.29;-1588.663;-29480.34;14.51358;1.980695;-27486.48;-13632.89;-0.2354968;-0.4968652;0;
-2886.058;-1759.052;-1733.009;-4032.275;13.96313;-4.384552;-2825.746;-2078.98;-0.3651948;-0.4313987;0;
20816.04;14250.72;-915.8183;21999.83;13.61431;-0.5622411;20729.8;10394.7;0.2198782;0.08877355;0;
19138.94;12061.82;406.9687;21119.52;11.99304;-4.58053;19051.99;9015.021;0.4795266;0.218619;0;
18152.77;11755.07;2744.931;19808.7;12.85164;3.662729;18051.23;8654.515;0.2841428;-0.1714047;0;
21457.68;14203.97;4704.905;23306.51;17.19201;10.55817;21354.5;10764.3;0.0239879;-0.3011672;0;
8372.54;5598.094;4945.555;9265.448;4.58243;3.782406;8203.365;3459.682;-0.04100355;-0.3658319;0;
-22217.73;-15822.7;4103.131;-23116.32;-5.871023;3.711622;-22207.56;-11593.15;0.2838744;-0.2355296;0;
-24187.77;-15603.11;2625.062;-26123.67;3.713069;-1.047773;-24034.01;-11507.02;0.3485565;-0.3002603;0;
-19745.11;-11917.07;402.3212;-21475.97;3.307197;-5.802387;-19575.7;-8538.776;0.4131736;-0.1050566;0;
-27665.17;-19489.19;-1457.211;-29412.08;12.01141;-3.921034;-27413.53;-13533.09;0.5426931;0.2848531;0;
-3187.58;-2083.272;-1625.989;-4351.393;22.98503;-3.917094;-3126.149;-2187.264;-0.04255828;-0.1052372;0;
20758.37;14173.01;-847.5898;21929.69;12.37839;-5.654715;20672.5;10321.69;-0.1724502;-0.4949355;0;
18981.86;11919.47;430.1669;20964.13;6.204008;-6.586794;18892.54;8858.021;-0.04234223;-0.2995362;0;
17996.53;11585.5;2745.852;19658.6;14.03466;-4.235773;17893.01;8501.358;-0.2372017;-0.2992352;0;
21174.99;13933.92;4675.215;23018.14;17.30211;-3.360739;21067.02;10462.81;0.02290599;0.09086952;0;
7739.895;5084.833;4893.812;8576.864;11.05543;1.398304;7574.907;3058.763;-0.1070517;0.2207129;0;
-22765.69;-16253.88;4056.594;-23710.94;10.97795;6.085583;-22739.94;-11888.58;-0.1069441;0.09055644;0;
-24792.71;-16092.34;2580.352;-26686.96;-0.2188648;5.409638;-24629.55;-11792.24;0.1530327;0.4802695;0;
-20005.02;-12039.25;379.5043;-21692.35;-11.53913;5.739118;-19836.73;-8402.791;-0.04202311;0.2199176;0;
-26498.25;-18445.5;-1445.616;-28266.77;-4.226514;9.149359;-26259;-12866.16;0.1529211;0.0897619;0;
-1953.047;-1157.117;-1633.131;-3112.477;-3.552682;13.29311;-1906.527;-1822.404;0.0228328;0.1546391;0;
20812.39;14126.94;-886.0522;22017.21;-2.342688;7.653306;20724.76;10261.31;-0.3020268;-0.04041838;0;
18893.97;11862.28;403.6434;20872.98;1.946574;4.832332;18804.68;8832.601;0.08808068;0.02458958;0;
17879.97;11454.61;2715.013;19540.91;-0.4672555;4.89446;17773.84;8334.362;0.02302483;-0.1703372;0;
20845.35;13605.64;4637.38;22695.98;-1.136371;0.4018072;20739.73;10150.7;-0.04196564;-0.3001007;0;
7441.127;4824.984;4873.912;8280.877;3.352749;7.367507;7267.086;2853.331;0.1529786;-0.03992977;0;
-23309.04;-16802.87;4049.957;-24245.46;3.951617;11.17801;-23301.71;-12302.12;-0.1070445;-0.104857;0;
-24727.52;-16121.98;2627.851;-26654.03;7.363897;9.157289;-24574.6;-12064.64;-0.2368717;-0.2346863;0;
-19117.3;-11197.26;477.1337;-20852.63;9.968467;11.76042;-18951.94;-7942.396;0.08820307;-0.1045158;0;
-26520.29;-18411.38;-1364.686;-28276.66;7.346482;5.65328;-26270.43;-12539.2;0.2830165;0.2204259;0;
-2532.137;-1705;-1540.975;-3674.425;12.02815;0.1551214;-2472.293;-1935.435;-0.107072;0.09026976;0;
20905.89;14209.95;-770.7664;22101.17;-4.997846;4.441751;20817.19;10336.75;-0.1719317;-0.299625;0;
18943.91;11906.34;477.8028;20927.73;-19.12537;5.575998;18854.28;8850.572;0.2830124;0.09048012;0;
17826.3;11402.61;2772.403;19489.15;-10.13117;2.757234;17721.1;8305.824;0.1527934;0.1553565;0;
21068.52;13820.61;4725.853;22914.29;-12.59924;3.089378;20957.31;10339.67;0.02270516;-0.1696363;0;
7556.159;4905.842;4983.504;8388.616;-6.289937;0.4069567;7386.471;2942.775;0.2825517;0.09040355;0;
-23066.92;-16575.15;4187.457;-24009.14;-1.327124;-0.799145;-23062.63;-12100.23;0.2173005;0.2852148;0;
-24600.87;-15983.49;2768.71;-26494.12;-3.469244;-0.4634274;-24464.48;-11829.59;0.1521148;0.1549935;0;
-19671.89;-11787.84;595.2379;-21352.88;-2.461381;-4.414833;-19501.83;-8365.146;0.2818966;-0.1050316;0;
-26853.57;-18734.09;-1242.484;-28599.94;-2.391558;8.048184;-26600.55;-13033.25;0.08671134;-0.03995877;0;
-2468.158;-1524.989;-1433.482;-3638.641;3.571716;19.69476;-2418.884;-1999.583;-0.4980819;0.1549834;0;
20713.02;14060.43;-685.386;21893.68;-13.24374;10.02967;20623.39;10188.35;-0.5625488;0.08986035;0;
18794.42;11749.19;575.2006;20779.81;-25.82273;6.469623;18702.07;8705.647;-0.1072121;-0.04016464;0;
17784.68;11350.41;2862.426;19450.31;-19.50112;12.7594;17676.49;8237.412;0.08779766;-0.1050916;0;
20904.03;13664.75;4797.169;22749.02;-23.29894;15.09086;20793.31;10188.48;0.02274211;0.08991601;0;
7246.157;4712.533;5057.154;8087.533;-16.10824;14.2719;7070.648;2781.084;0.2176213;0.154793;0;
-23461.55;-16891.92;4261.595;-24391.63;-11.27026;14.32454;-23448.65;-12339.39;0.02250059;-0.04026457;0;
-24860.26;-16186.8;2845.428;-26796.85;-9.315572;13.3054;-24711.07;-11993.43;0.08744532;0.2846126;0;
-19795.8;-11858.23;675.0182;-21557.74;-0.7997456;11.21568;-19645.22;-8406.782;0.4771615;0.1543919;0;
-27183.19;-19013.2;-1168.937;-28961.25;-9.037965;12.07519;-26949.16;-13120.99;0.28178;-0.3005346;0;
-2903.61;-1794.316;-1343.892;-4060.54;-13.98538;10.65642;-2855.62;-2050.929;0.1515622;-0.2352653;0;
20614.72;14035.89;-578.754;21798.01;-6.737655;11.78442;20522.53;10171.21;0.08644257;-0.2350289;0;
18817.26;11735.92;684.2086;20798.2;-5.926602;16.05936;18724.9;8672.736;0.1513231;0.090044;0;
17659.19;11238.79;2988.113;19321.06;-3.308678;5.125255;17550.32;8134.46;0.2161383;0.2198882;0;
20827.22;13581.35;4916.39;22669.75;-0.090173;-1.444101;20720.39;10096.14;0.02101915;-0.1701368;0;
7145.582;4543.691;5148.455;8002.926;-4.10857;1.370633;6963.713;2711.358;0.1509327;0.02493618;0;
-24026.93;-17517.71;4348.525;-24955.33;-5.84673;-1.444027;-24032.41;-12842.03;0.2807157;0.4796825;0;
-25616.98;-16928.79;2937.644;-27555.6;-5.639785;4.786715;-25453.58;-12606.88;0.08553165;0.4142332;0;
-20118.13;-12156.15;775.3715;-21846.23;-5.433047;8.197912;-19931.58;-8611.639;0.1504131;0.02401291;0;
-27196.39;-19034.05;-1056.05;-28965.07;-8.77649;11.40486;-26937.9;-13271.84;-0.04464011;0.1539235;0;
-2851.697;-1767.297;-1235.258;-4038.93;-11.78178;17.82364;-2789.518;-2183.152;-0.1745299;0.3486708;0;
20597.38;13990.81;-476.0536;21770.69;-9.425419;14.52356;20506.92;10116.61;-0.1093872;0.02348378;0;
18708.98;11636.88;787.9459;20695.95;-9.951812;16.04958;18617.13;8587.318;0.150592;0.2833295;0;
17606.89;11177.26;3076.613;19266.24;-5.923324;13.55508;17502.62;8066.073;0.5402448;0.4779469;0;
20845.29;13602.85;4991.745;22682.23;-1.764186;8.383898;20736.71;10114.7;0.2798326;0.2825646;0;
6946.089;4414.743;5213.334;7797.521;-4.776524;16.54727;6774.908;2601.214;-0.1102526;0.6071174;0;
-24543.13;-17990.82;4386.29;-25470.83;-6.982527;18.87492;-24532.95;-13284.81;-0.1751092;0.736442;0;
-25881.47;-17138.29;2949.009;-27825.85;-2.420183;19.05691;-25724.34;-12793.54;-0.04499858;0.2809307;0;
-20195.67;-12173.6;761.2064;-21940.23;0.9975239;21.38216;-20018.82;-8563.557;0.3448507;0.02077903;0;
-27618.34;-19439.54;-1106.183;-29368.98;-3.356759;16.53803;-27362.95;-13462.59;0.4744389;0.2156602;0;
-3211.403;-2073.212;-1314.653;-4363.153;-2.415381;14.44494;-3152.661;-2266.344;0.3440275;0.4753129;0;
20625.59;14049.03;-573.7042;21803.86;-7.03563;10.14364;20535.04;10191.78;-0.04612227;0.4748352;0;
18756.05;11665.73;665.8901;20737.12;-8.769874;5.511745;18663.38;8589.669;0.01889142;0.2794561;0;
17593.11;11169;2947.402;19256.38;-9.631718;2.960856;17485.91;8066.281;0.1488071;-0.0456614;0;
20870.3;13619.84;4874.72;22713.33;-18.06116;-2.1327;20763.1;10125.03;0.01872291;-0.1755502;0;
7167.319;4556.112;5091.992;8008.992;3.256832;-0.8578814;6994.174;2712.809;0.08367144;-0.3053085;0;
-24058.94;-17567.54;4259.385;-24986.43;15.77851;-0.6560706;-24055.36;-12919.47;0.213522;-0.2400344;0;
-25918.88;-17135.53;2818.39;-27799.5;15.89736;-5.612026;-25758.9;-12662.48;0.08337282;-0.1098585;0;
-20839.77;-12797.06;621.0515;-22505.04;27.06717;-9.491276;-20659.11;-8998.532;0.1482564;0.1501213;0;
-27809.27;-19649.75;-1230.954;-29545.93;13.9118;-8.343029;-27556.11;-13770.76;0.2130748;0.2149378;0;
-3037.746;-1901.247;-1413.266;-4214.1;7.668534;-7.397007;-2976.499;-2258.967;-0.111976;-0.1750823;0;
20572.53;13985.46;-652.2746;21746.59;7.995621;-13.35081;20486.45;10120.24;-0.2417982;-0.04497167;0;
18753.48;11664.39;626.9412;20741.75;1.690947;-16.0837;18662.12;8596.704;-0.1765879;0.2799102;0;
17677.27;11249.17;2942.21;19340.21;5.708712;-17.67506;17570.73;8130.843;-0.04647579;0.08472696;0;
20820.23;13570.45;4873;22673.09;4.161758;-17.92524;20714.99;10085.7;0.2784076;0.01967447;0;
7097.664;4542.969;5095.708;7959.895;7.908621;-20.72045;6927.701;2662.731;0.4730299;0.0196547;0;
-24298.99;-17758.86;4266.971;-25195.99;12.38865;-24.18262;-24290.74;-13138.63;0.08275054;0.01963495;0;
-26159.36;-17379.46;2816.629;-28020.18;8.089297;-16.18759;-25992.05;-12856.16;-0.2421693;0.3444519;0;
-20872.15;-12853.31;611.9834;-22540.89;7.947447;-13.1571;-20684.58;-9040.57;-0.3068933;0.2791385;0;
-28313.1;-20086.5;-1247.775;-30010.92;7.73839;-5.976946;-28054.73;-14065.74;-0.2416176;-0.1759134;0;
-3690.048;-2399.997;-1410.736;-4816.402;8.601271;1.932923;-3624.568;-2520.104;-0.04647281;-0.240704;0;
20552.38;14010.37;-618.2939;21718.57;4.774235;0.9262369;20466.03;10162.46;-0.1113935;0.344244;0;
18757.14;11643.51;648.4565;20739.84;-0.3207766;4.743211;18665.5;8544.839;-0.3711509;0.3438981;0;
17461.42;11041.62;2960.564;19136.36;4.233897;1.724335;17356.49;7942.067;-0.370778;0.01871581;0;
20786.99;13527.71;4926.943;22621.8;2.019816;0.9188076;20678.4;10012.98;-0.110536;0.1486317;0;
6942.347;4390.934;5171.648;7785.941;9.519875;-1.627467;6772.665;2626.533;0.2144117;-0.04641968;0;
-24554.89;-18027.12;4357.89;-25470.62;21.29833;-7.587069;-24546.71;-13259.59;0.01929427;-0.2412751;0;
-26036.09;-17310.73;2932.288;-27944.29;2.723755;-0.5464813;-25879.49;-12896.35;-0.04569246;-0.1110979;0;
-20625.04;-12632.41;739.9107;-22325.35;-5.920146;1.396573;-20445.27;-8959.896;0.08428814;-0.3058884;0;
-28060.47;-19876.59;-1116.837;-29812.06;-3.301254;1.596118;-27810.76;-13927.81;-0.1756659;-0.2406136;0;
-3464.535;-2218.201;-1285.349;-4661.313;-8.924991;3.335949;-3412.194;-2439.71;-0.2404567;-0.1104372;0;
20470.45;13940.17;-499.4515;21633.81;0.5284485;1.189265;20379.65;10073.78;-0.2402151;0.01960846;0;
18727.71;11616.69;793.9318;20712.85;5.28334;1.054104;18634.67;8526.432;-0.1100391;0.4093928;0;
17617.3;11184.97;3123.556;19273.61;6.417107;-1.760238;17509.08;8071.9;0.2798755;0.4739488;0;
20856.98;13603.34;5062.286;22695.36;9.424768;-2.361194;20746.32;10094.94;0.409529;0.01870117;0;
6986.079;4457.264;5278.275;7849.04;11.6261;-8.655095;6811.636;2661.248;0.4091175;-0.3061543;0;
-24584.68;-18027.7;4444.013;-25489.55;16.43719;-15.88043;-24581.53;-13315.46;-0.1759997;-0.04597734;0;
-26116.89;-17372.07;3002.926;-28057.15;9.520823;-10.372;-25968.99;-13021.36;-0.5006595;0.4088403;0;
-20546.46;-12533.76;809.1976;-22298.45;6.229702;-9.088901;-20376.21;-8899.78;0.2794516;0.08359276;0;
-27967.65;-19751.34;-1057.115;-29726.23;4.414782;-8.811836;-27701.92;-13773.18;0.1492362;-0.241328;0;
-3393.032;-2137.982;-1250.565;-4572.413;1.731028;-5.319991;-3316.046;-2347.328;-0.7604566;0.2786533;0;
20637.64;14091.38;-481.2567;21797.23;-0.346816;-8.19479;20551.18;10219.73;-0.2399537;0.08347126;0;
18846.33;11729.12;799.5521;20831.8;-5.169239;-9.392248;18753.92;8638.205;0.1500914;-0.176482;0;
17704.05;11278.7;3115.975;19363.86;1.667482;-5.698872;17599.88;8162.744;-0.2398634;0.4084014;0;
20955.82;13692.88;5054.836;22799.23;4.010332;-5.157282;20849.01;10191.64;0.215149;0.2780564;0;
7254.359;4681.084;5268.584;8137.506;7.690973;-2.071007;7084.033;2792.226;0.5397695;-0.04705974;0;
-24067.71;-17534.97;4421.995;-24949.37;13.97891;-0.1264212;-24055.87;-12923.07;-0.1104463;0.08292224;0;
-25803.65;-17042.31;2964.594;-27697.78;10.21382;0.5435352;-25639.72;-12686.84;-0.3052373;0.2127736;0;
-20260.75;-12217.77;762.6896;-21976.38;13.35139;5.097706;-20081.51;-8631.218;-0.04506126;0.08262513;0;
-27315.02;-19178.85;-1107.309;-29092.86;5.56844;-4.619697;-27061.62;-13325.65;-0.04501598;-0.4371966;0;
-2936.846;-1851.53;-1324.352;-4136.551;-3.211065;-11.91607;-2877.01;-2154.712;0.1499313;-0.3068227;0;
20694.51;14113.96;-569.0725;21857.32;6.571425;-7.34926;20605.8;10227.01;0.1497806;-0.046645;0;
18910.49;11809.17;711.5433;20894.44;7.971342;-8.547568;18818.86;8725.734;-0.2401739;0.01836921;0;
17758.37;11322.66;3011.937;19423.71;11.24489;-7.13246;17653.16;8201.148;0.1498715;0.1482854;0;
20952.68;13685.61;4947.687;22791.57;16.99436;-6.656413;20844.63;10181.24;0.6694596;-0.1767003;0;
7436.035;4793.602;5188.966;8280.136;9.67627;-5.109117;7266.729;2899.521;0.2789829;-0.1115554;0;
-23649.3;-17176.99;4367.444;-24568.13;4.911125;-1.219095;-23629.48;-12552.17;0.08380052;0.4082955;0;
-25525.21;-16837.06;2912.441;-27456.78;7.9203;-6.777331;-25358.77;-12485.57;0.1486837;0.0830485;0;
-20372.67;-12422.73;702.8111;-22122.65;8.380856;-9.315751;-20196.7;-8837.746;0.08356692;-0.111937;0;
-27595.9;-19403.61;-1166.128;-29365.47;1.40621;-8.971476;-27342.8;-13487.82;0.278385;0.2779796;0;
-3122.662;-1924.229;-1369.588;-4298.413;-3.619045;-11.50781;-3064.468;-2171.028;-0.1766661;0.2777002;0;
20707.61;14139.18;-605.9072;21878.03;-6.629519;-7.611239;20615.44;10250.55;-0.5662926;-0.04741552;0;
18952.46;11837.09;671.8722;20935.95;-9.90441;-3.450772;18858.23;8740.881;0.01898241;0.01759946;0;
17728.83;11292.89;2979.287;19386.76;-14.31509;-7.73409;17620.3;8171.926;0.01896334;0.4073859;0;
20990.21;13720.84;4927.563;22822.17;-18.25282;-8.329165;20877.51;10206.19;-0.2409251;0.2770418;0;
7312.562;4716.701;5157.962;8160.875;-17.16275;-6.914277;7141.769;2855.716;0.149121;-0.37291;0;
-23892.01;-17375.72;4335.19;-24822.38;-16.54327;-9.25161;-23884.8;-12753.4;0.5387753;-0.2426006;0;
-25249.29;-16592.14;2921.386;-27212.3;-16.92781;0.8048821;-25122.73;-12429.99;0.2783645;0.3423493;0;
-19551.07;-11597.43;747.7449;-21316.86;-18.31732;8.038108;-19417.2;-8182.008;-0.3066213;0.3420053;0;
-26727.29;-18596.8;-1118.506;-28494.57;-10.39566;6.154509;-26499.06;-12802.07;-0.2413458;0.08179224;0;
-2545.158;-1557.338;-1349.641;-3710.772;-3.084201;8.425623;-2499.34;-1970.113;0.08373341;0.0167427;0;
20835.76;14189.52;-623.6487;22014.07;-6.898519;5.537013;20742.55;10283.96;0.1486166;-0.1132088;0;
18954.47;11856.81;636.2668;20935.81;-6.624144;1.445612;18861.63;8774.987;0.3433693;-0.1780624;0;
17809.28;11374.61;2920.292;19468.38;-4.474034;3.721457;17700.19;8239.435;-0.04677976;-0.1129161;0;
20974.06;13691.87;4855.727;22814.64;-2.058641;3.114872;20864.27;10193.29;-0.1117001;-0.3726721;0;
7680.379;4988.819;5129.083;8536.117;-4.132678;-0.9071122;7508.074;2986.123;0.2782162;-0.3722976;0;
-22975.53;-16521.04;4345.289;-23889.82;-4.865459;-0.3703373;-22970.22;-12035.97;-0.04690007;0.08284792;0;
-24475.31;-15914.83;2933.88;-26407.3;-3.520424;-11.15397;-24334.13;-11850.87;-0.436657;0.2126994;0;
-18956.19;-11122.75;767.4573;-20705.45;-7.134209;-19.04651;-18806.22;-7926.24;-0.2413162;0.01758359;0;
-26158.32;-18067.88;-1086.507;-27922.66;5.465263;-15.41041;-25925.72;-12388.34;0.278665;-0.1773361;0;
-2309.935;-1394.3;-1305.758;-3463.029;15.97597;-17.47134;-2263.631;-1809.126;0.01851562;-0.3720599;0;
20816.21;14145.21;-581.5593;21999.78;7.855592;-8.61222;20723.28;10225.16;-0.1114377;0.1480527;0;
18979.84;11906.7;654.4353;20957.53;3.761862;-0.498875;18888.2;8836.999;0.4084131;0.4727406;0;
17772.25;11314.1;2924.995;19428.45;11.19282;-0.230442;17662.76;8166.749;0.3430353;0.1474289;0;
20960.86;13692.58;4876.667;22806.47;17.94673;2.248158;20852.07;10198.06;0.01785393;-0.177556;0;
7809.448;5071.709;5167.681;8680.859;3.661454;9.68076;7627.757;3100.646;0.3426727;-0.1773776;0;
-23415.52;-17029.17;4366.982;-24330.68;-9.001878;15.36446;-23427.75;-12522.37;0.5372304;-0.1771993;0;
-25451.54;-16709.34;2934.188;-27407;0.4516391;15.88489;-25315.86;-12488.16;0.01695186;-0.2419886;0;
-19851.37;-11863.79;766.0463;-21614.81;2.594639;20.42364;-19700.97;-8425.253;-0.5028039;-0.1767781;0;
-27260.11;-19072.47;-1096.335;-29022.35;-3.167768;12.16446;-27010.54;-13176.94;-0.04752729;0.1482362;0;
-3141.691;-1948.42;-1317.403;-4308.951;-1.624344;6.190882;-3075.21;-2196.511;0.5372266;0.2130546;0;
20758.06;14180.65;-572.109;21924.52;-12.20626;7.323371;20661.29;10271.18;0.4717194;-0.1119962;0;
19029.17;11902.02;695.0011;21011.5;-21.16897;2.828278;18932.52;8809.183;0.1464087;-0.566655;0;
17844.51;11407.38;2994.615;19494.61;-14.38255;7.246187;17734.49;8272.644;-0.04864044;-0.631053;0;
21033.99;13750.24;4941.001;22871.63;-16.04304;8.846375;20922.47;10240.42;-0.1785263;-0.1756475;0;
7604.466;4880.578;5207.525;8489.396;-7.118309;9.1724;7422.188;2941.353;0.2764245;-0.1754711;0;
-23403.34;-17005.5;4414.282;-24320.46;3.672485;12.6463;-23420.27;-12507.96;0.6659508;-0.3052294;0;
-25176.06;-16459.04;2994.902;-27140.11;-6.780055;9.21746;-25030.95;-12307.26;0.340445;-0.174988;0;
-19705.05;-11692.92;826.2781;-21462.76;-10.52429;9.409147;-19533.63;-8268.976;0.01526617;0.1500245;0;
-26903.23;-18790.56;-1022.904;-28683.75;-8.101838;7.92619;-26665.45;-12959.07;0.1451855;0.01993907;0;
-2691.575;-1679.837;-1224.509;-3879.275;-11.64367;4.770028;-2645.606;-2022.462;0.210007;-0.174983;0;
20844.29;14216.1;-472.2655;22019.19;-6.408034;9.453918;20752.15;10304;0.07986128;-0.3047419;0;
18988.57;11887.65;792.386;20969.28;-0.5070971;8.908556;18895.35;8805.723;0.01481369;-0.2394683;0;
17791.43;11339.57;3101.351;19446.95;-12.09451;13.9232;17682.27;8190.289;-0.05016854;0.1505764;0;
21006.07;13729.53;5059.936;22842.35;-16.70406;19.80359;20898.1;10227.81;0.01484921;0.2153924;0;
7623.601;4925.274;5309.88;8440.077;-18.56231;11.14314;7440.106;2986.561;0.4046384;0.215176;0;
-23749.68;-17332.91;4497.075;-24703.51;-25.10774;7.715931;-23759.97;-12743.93;0.4042318;0.1499925;0;
-25698.22;-16981.85;3079.798;-27631.5;-17.38033;4.158082;-25553.29;-12611.35;0.01402153;-0.04506031;0;
-20162.11;-12207.85;906.1537;-21907.35;-16.75965;-1.338574;-20006.75;-8688.317;-0.3757966;0.08491967;0;
-27737;-19554.1;-956.1805;-29493.13;-9.70924;-1.069297;-27488.16;-13597.23;-0.4403864;0.2797364;0;
-3456.255;-2218.377;-1152.948;-4620.791;0.9504358;-1.269172;-3388.249;-2343.15;-0.1800745;0.2794553;0;
20650.59;14093.18;-390.0166;21812.87;-11.04059;-7.09529;20556.43;10182.5;0.01500849;-0.04566224;0;
18924.55;11794.7;884.2662;20907.84;-14.98161;-12.6475;18829.62;8690.313;0.2748628;-0.2405184;0;
17774.15;11328.08;3200.947;19425.99;-14.43069;-6.33864;17662.98;8185.377;0.1446519;0.08456001;0;
21039.6;13759.02;5152.217;22876.49;-17.02816;-2.44726;20926.12;10234.56;-0.5051668;0.1494424;0;
7472.749;4741.796;5395.915;8351.125;-16.14039;-4.052392;7285.372;2887.008;0.2099815;-0.2405118;0;
-24020.54;-17641.61;4579.338;-24922.53;-17.79814;-2.90961;-24039.74;-13015.59;0.5995746;0.08456656;0;
-26220.32;-17432.17;3145.737;-28140.65;-14.4987;-0.8303376;-26077.41;-12947.05;-0.375538;0.2793836;0;
-21112.37;-13130.13;967.9189;-22825.66;-13.61348;1.916797;-20954.53;-9356.109;-0.245226;-0.04573384;0;
-28764.33;-20512.74;-884.9509;-30496.97;-10.04982;1.713922;-28512.42;-14396.56;-0.2449796;0.01927945;0;
-4147.258;-2632.948;-1088.568;-5331.271;-5.551747;3.252685;-4070.678;-2660.299;-0.2447334;0.01926008;0;
20475.04;14023.11;-322.2186;21613.34;-8.359208;3.048468;20382;10125.09;0.2752512;-0.110694;0;
18939.47;11767.25;965.0364;20919.53;-6.542148;1.906817;18841.98;8644.42;-0.1797968;0.1492867;0;
17656.91;11221.56;3284.65;19312.52;-11.02355;6.392636;17546.19;8085.604;-0.5044528;0.409006;0;
21055.35;13767.43;5249.579;22889.93;-14.09394;7.323974;20942.13;10233.35;-0.4389786;0.3436277;0;
7487.225;4782.86;5493.773;8349.027;-13.81135;11.26849;7311.958;2967.777;0.08120123;-0.04652164;0;
-24399.4;-18000.75;4664.917;-25292.19;-18.95504;15.14205;-24399.53;-13258.68;0.146087;-0.1764096;0;
-26546.21;-17767.99;3226.013;-28428.31;-10.22846;12.11273;-26396.78;-13115.01;-0.1139292;0.0186697;0;
-21279.66;-13309.5;1026.438;-22975.04;-5.99862;11.69866;-21114.77;-9443.782;0.7307608;0.0836183;0;
-29488.28;-21199.55;-843.7011;-31191.9;-6.193663;8.136807;-29201.04;-14867.08;0.7300265;0.2784363;0;
-4889.359;-3250.353;-1018.921;-6047.247;0.04185091;3.841846;-4772.013;-2928.258;-0.1152825;0.3431239;0;
20417.96;14020.87;-220.7823;21543.23;-10.34067;3.168156;20334.91;10184.27;0.07973536;-0.04702496;0;
18970.33;11778.87;1069.65;20953.32;-14.21504;1.490521;18873.03;8602.651;0.3395246;0.01798963;0;
17660.28;11234.06;3399.013;19322;-16.94645;-4.137421;17557.19;8126.211;-0.2455226;-0.1769305;0;
21128.97;13839;5366.67;22971.21;-26.30752;-9.893674;21022.17;10287.91;-0.5051453;-0.7614588;0;
7461.771;4739.115;5597.565;8374.343;-12.41501;-8.00821;7289.24;2910.899;0.1450357;-0.8906283;0;
-24117.84;-17726.98;4771.009;-25000.32;-5.102494;-6.660627;-24115.05;-13066.95;-0.05001206;-0.5648967;0;
-26119.2;-17340.07;3342.369;-28025.65;-8.579991;-11.87848;-25953.78;-12889.71;-0.7646025;0.02037697;0;
-21078.4;-13086.84;1147.44;-22770.24;-7.432294;-13.87591;-20892.98;-9340.479;-0.5689322;0.1502912;0;
-28803.2;-20562.96;-709.4365;-30538.04;-5.884584;-14.33085;-28519.05;-14449.94;0.08131282;-0.2396639;0;
-4025.134;-2516.577;-881.4337;-5201.915;-0.3189664;-17.12967;-3924.911;-2555.612;0.1461985;0.0204463;0;
20601.6;14164.52;-101.4396;21755.67;-11.03592;-11.55306;20515.95;10269.26;-0.2437525;0.08539311;0;
19119.35;11935.5;1192.278;21103.86;-17.58891;-8.460236;19025.51;8802.627;-0.1785402;-0.3694641;0;
17929.77;11496.44;3529.357;19585.27;-14.35606;-7.580957;17825.04;8360.952;-0.3082955;-0.2391582;0;
21257.48;13958.52;5495.415;23099.92;-17.62416;-2.214827;21148.35;10436.07;-0.3079857;0.08591885;0;
8001.478;5198.793;5738.737;8924.762;-11.51088;-10.11647;7824.619;3233.196;0.3419971;0.1507999;0;
-23655.9;-17329.02;4901.826;-24510.33;-11.29825;-15.86671;-23665.87;-12820.13;0.2117188;0.02071364;0;
-26099.86;-17338.9;3466.432;-28035.29;-0.7706944;-9.621477;-25953.02;-12945.28;-0.1133306;-0.5640132;0;
-20542.65;-12557.77;1299.599;-22283.76;14.03221;-7.736287;-20371.04;-8935.973;0.01671794;-0.6284139;0;
-28181.13;-19960.95;-560.2418;-29903.22;-2.458959;-7.86248;-27916.04;-13835.85;0.08166848;-0.04307636;0;
-3963.909;-2551.479;-746.1788;-5133.325;-10.35974;-5.644265;-3884.904;-2472.298;0.01661908;0.2818036;0;
20687.94;14192.69;40.11359;21828.02;-4.25474;-7.915891;20597.46;10306.47;-0.243267;0.08661846;0;
19191.87;12020.24;1307.655;21178.15;-6.594989;-11.25708;19096.07;8872.827;-0.2430225;0.02156407;0;
17911.33;11469.62;3612.213;19576.17;-1.899313;-3.743806;17802.43;8335.896;-0.2427784;0.1514771;0;
21247.63;13946.99;5577.063;23091.56;3.193786;0.2118268;21137.96;10408.5;-0.3724691;0.08635756;0;
7839.653;5108.504;5822.864;8716.137;-2.972341;-1.061062;7660.178;3168.821;0.2126112;0.02130343;0;
-23546.56;-17164.04;4995.832;-24441.85;-3.772661;0.8155265;-23554.99;-12604.19;0.2773649;0.2161841;0;
-25662.28;-16964.98;3563.811;-27571.46;-5.778603;-2.735266;-25516.98;-12546.51;-0.04775046;0.4758362;0;
-20351.34;-12419.57;1384.448;-22077.36;-13.27489;-2.933467;-20192.38;-8782.151;0.3421016;0.1505214;0;
-28015.85;-19847.79;-469.0585;-29750.29;1.608909;-8.757913;-27758.81;-13846.29;0.4067252;-0.1744666;0;
-3623.981;-2299.784;-656.3522;-4766.753;11.58665;-15.17935;-3545.555;-2420.226;0.08147977;0.02061074;0;
20803.32;14303.81;111.0938;21977.28;4.809855;-11.14525;20714.83;10391.52;-0.1784715;-0.1093447;0;
19189.61;12024.45;1372.895;21177.97;8.556066;-12.67453;19096.51;8895.15;-0.1133248;0.0206999;0;
17947.85;11497.98;3670.422;19608.64;-2.704688;-7.504233;17841.17;8348.968;-0.1781783;0.08564646;0;
21229.66;13928.14;5626.124;23071.26;-14.82576;-1.40149;21123.15;10400.59;-0.2429666;-0.2392763;0;
7866.108;5063.517;5872.75;8765.259;-3.156564;-6.088765;7691.729;3129.96;0.4719183;-0.1740686;0;
-23578.28;-17259.18;5055.882;-24443.77;-0.4067258;-4.943937;-23573.71;-12671.4;0.5364115;0.1509431;0;
-25559.4;-16858.61;3644.353;-27475.54;-2.282327;-7.28325;-25396.63;-12601.54;-0.04883359;0.2807261;0;
-19769.65;-11826.35;1476.482;-21503.83;1.269939;-11.83077;-19595.92;-8497.591;0.08115017;0.02057463;0;
-27591.02;-19362.37;-394.7182;-29317.39;-6.232449;-3.714071;-27321.21;-13403;-0.04886606;-0.04441339;0;
-3727.914;-2317.913;-597.2665;-4863.792;-10.64779;-0.09338241;-3642.909;-2344.979;-0.04881696;0.02059858;0;
20722.87;14232.29;171.9942;21899.35;-6.886049;-0.3612203;20635.31;10313.16;0.4709708;0.08554524;0;
19203.27;12030.83;1425.769;21185.55;-6.409639;2.720357;19112.2;8901.889;0.2755956;-0.2393774;0;
17944.29;11493.24;3720.495;19602.91;-4.862957;-2.105025;17840.11;8348.249;-0.1144854;-0.4990063;0;
21270.57;13970.58;5686.641;23116;-4.389556;-5.853954;21164.55;10433.43;-0.04940302;-0.1087008;0;
7872.754;5133.701;5945.201;8744.764;-0.6341017;-3.235738;7698.038;3178.372;0.0805813;-0.04362426;0;
-23359.37;-16976.88;5136.818;-24251.85;2.649065;-2.897572;-23353.73;-12457.06;-0.179369;-0.2384824;0;
-25544.94;-16825.79;3715.181;-27429.43;3.048545;-4.502251;-25378.22;-12409.43;-0.2441562;-0.1083081;0;
-20547.12;-12612.7;1543.085;-22238.94;6.595455;-3.492983;-20369.3;-8952.445;-0.1139761;0.1516701;0;
-28219.01;-19996.15;-318.1404;-29943.42;1.029123;-8.379105;-27945.66;-14034.97;0.08104041;0.02158297;0;
-3768.058;-2331.147;-532.6191;-4943.825;-4.330546;-14.46601;-3677.702;-2499.22;0.01599164;0.08652864;0;
20644.33;14171.43;218.0391;21787.33;-0.03928703;-5.944887;20558.69;10265.86;-0.1139591;0.4112784;0;
19138.88;11952.29;1461.867;21128.26;-0.9772526;-2.254852;19047.29;8821.266;0.4708615;-0.04390625;0;
17946.01;11504.79;3742.766;19608.44;0.2291781;-1.649862;17842.39;8347.011;0.0805843;-0.3686988;0;
21285.41;13971.14;5704.83;23125.46;4.11469;4.246172;21178.56;10445.33;-0.5691701;0.02147568;0;
8051.089;5187.981;5968.774;8925.725;-5.200194;-3.996751;7885.732;3207.14;0.2759773;0.1513888;0;
-23412.31;-17131.36;5158.494;-24303.67;-9.549226;-9.016334;-23392.16;-12609.43;0.2756999;0.02130198;0;
-25582.09;-16891.85;3740.708;-27483.67;-10.94615;-4.98842;-25413.19;-12562;0.01555356;-0.04368677;0;
-19899.54;-11987.77;1576.223;-21624.75;-17.70031;-6.992773;-19722.25;-8524.944;0.21044;-0.2385449;0;
-27673.83;-19459.92;-289.6582;-29409.16;-8.238049;-1.962149;-27397.38;-13436.69;-0.3744776;-0.3682399;0;
-3774.683;-2355.421;-496.4662;-4931.447;-2.670066;2.12566;-3680.962;-2333.681;-0.4390686;-0.3029025;0;
20698.26;14220.66;262.7294;21853.17;-6.418427;-1.426572;20615.73;10318.21;-0.0488234;0.08720589;0;
19184.45;12000.95;1486.975;21167.8;-4.535967;-0.4203943;19093.49;8850.936;-0.3086437;0.4769223;0;
17815.43;11368.56;3739.02;19479.04;-7.54552;-3.568048;17712.5;8222.463;-0.1134316;0.2165737;0;
21154.37;13842.63;5691.436;23001.69;-7.471565;-5.640934;21049;10301.21;0.08158444;0.1513888;0;
7965.455;5100.884;5980.194;8839.009;-11.48255;-4.295607;7796.832;3117.563;0.1464698;0.3461387;0;
-23336.02;-17060.06;5199.231;-24231.1;-16.96336;-4.559222;-23325.71;-12558.39;0.3412247;0.2158562;0;
-25570.39;-16883.31;3788.026;-27471.13;-10.18116;-3.214983;-25407.76;-12556.9;0.2109471;0.08570462;0;
-20024.08;-12085.04;1631.193;-21745.46;-7.827386;-5.020291;-19846.7;-8610.412;0.2757025;0.1505858;0;
-27244.98;-19079.91;-222.4218;-29002.05;-7.350031;3.424359;-26984.44;-13299.29;0.4053602;0.2154019;0;
-3099.445;-1852.732;-441.4162;-4292.205;-6.069848;10.18607;-3030.055;-2153.163;0.01514879;-0.04468394;0;
20812.99;14255.03;300.3266;21965.01;-3.652851;6.290949;20727.24;10324.81;0.08010091;-0.04463904;0;
19170.13;12016.27;1542.322;21165.23;0.9725193;7.423337;19081.32;8900.457;0.2099551;0.02037316;0;
17989.75;11524.2;3828.248;19654.26;-4.989329;2.794178;17883.27;8350.91;-0.1800599;0.08532004;0;
21227.37;13922.34;5777.95;23075.83;-8.73536;-2.29921;21121.6;10397.44;-0.179879;0.2801363;0;
7938.173;5171.294;6025.767;8827.964;-6.315685;-0.6894315;7764.802;3161.187;-0.1147309;-0.2398839;0;
-23485.73;-17132.51;5218.115;-24347.06;-8.118;-0.3538241;-23482.1;-12655.42;-0.3095177;-0.1746755;0;
-25755.23;-17037.14;3799.27;-27644.34;-5.564248;-6.515776;-25598.49;-12639.89;-0.374174;0.08536938;0;
-20144.66;-12223.04;1620.124;-21867.29;-3.08041;-10.99696;-19974.06;-8671.942;-0.3088306;-0.3694878;0;
-27897.46;-19651.46;-257.9667;-29605.28;-6.559939;-9.847204;-27629.98;-13648.58;-0.1136183;-0.2391819;0;
-3955.95;-2472.417;-471.7093;-5105.222;-6.486975;-12.58349;-3874.831;-2477.382;-0.1784715;0.3457645;0;
20675.12;14200.94;281.5113;21815.21;-9.226147;-7.212331;20588.77;10295.03;-0.3082269;0.2804498;0;
19243.91;12049.96;1510.813;21232.93;-12.76685;-2.650367;19153.92;8902.335;0.0818869;-0.2395708;0;
17888.43;11436.55;3793.632;19554.94;-7.931251;-6.130816;17781.24;8271.391;0.2117393;-0.3042974;0;
21213.29;13896.94;5765.639;23060.12;-5.847177;-5.387844;21106.01;10360.6;0.08159187;0.08581246;0;
8031.295;5177.162;6036.894;8901.658;-5.305438;-7.92766;7860.946;3191.229;0.01654254;-0.04420847;0;
-23457.26;-17179.38;5230.512;-24344.71;-3.759865;-10.06315;-23450.34;-12695.46;0.08149326;-0.1091314;0;
-26220.26;-17446.24;3786.542;-28055.44;-2.48329;-10.38795;-26066.92;-12853.84;-0.3083927;0.02091295;0;
-21144.39;-13194.12;1590.37;-22786.7;1.069179;-12.72179;-20980.21;-9386.706;-0.1781481;-0.3039448;0;
-28771.47;-20544.54;-286.0355;-30477.72;-3.151454;-12.30711;-28490.11;-14449.63;0.1468676;-0.1737047;0;
-4321.104;-2735.245;-503.2169;-5507.979;-6.76561;-13.96932;-4217.934;-2672.181;-0.3080514;0.1513066;0;
20506.71;14099.43;255.642;21629.67;-1.199106;-12.34769;20421.38;10200.63;-0.2427745;-0.2386495;0;
19134.3;11923.34;1514.221;21121.46;0.6107597;-8.316432;19041.87;8757.583;-0.1775632;-0.3033771;0;
17766.01;11310.78;3808.858;19426.86;1.212382;-17.48455;17660.87;8152.786;-0.3722868;0.02176448;0;
21092.86;13777.67;5770.917;22933.49;2.282891;-23.16041;20987.3;10235.34;-0.04707604;-0.04322473;0;
7929.666;5105.041;6028.955;8805.816;2.079526;-20.52487;7758.698;3109.96;0.01793861;0.02178604;0;
-24116.21;-17813.85;5201.654;-25010.79;2.6133;-22.7816;-24118.55;-13323.61;0.1478553;0.02176415;0;
-26806.26;-18033.97;3776.047;-28698.78;0.7356405;-18.27092;-26643.75;-13400.11;0.1477067;0.08670964;0;
-21176.87;-13237.02;1608.841;-22865.21;0.3327597;-14.16672;-20982.98;-9396.639;-0.1123111;-0.04331218;0;
-29391.75;-21118.72;-279.4059;-31094.36;-4.155553;-18.10442;-29090.61;-14854.01;0.08270379;-0.1732033;0;
-5028.919;-3345.111;-487.4423;-6222.632;-10.31332;-20.16264;-4916.563;-3039.049;0.2125554;0.3467094;0;
20547.47;14154.39;286.8773;21655.1;-4.8106;-16.79329;20464.39;10279.09;0.2773091;0.4762957;0;
19146.47;11919.29;1530.698;21133.46;-0.5188587;-14.49906;19053.43;8723.026;0.4069652;0.02104575;0;
17729.81;11279.91;3832.955;19395.76;-8.55629;-17.69961;17628.15;8140.768;0.2766216;0.02102461;0;
21228.65;13909.09;5815.855;23062.83;-12.63353;-17.88277;21123.73;10334.47;0.0814416;-0.1089312;0;
7780.441;4984.733;6068.163;8639.516;-9.874168;-20.47708;7610.054;3121.655;0.01639243;-0.4336585;0;
-24039.9;-17730.75;5250.786;-24942.04;-9.797873;-22.198;-24030.99;-13032.96;-0.1135587;-0.04341866;0;
-26311.53;-17568.27;3833.438;-28220.83;-9.117467;-22.24268;-26146.77;-12987.92;-0.178412;0.08655966;0;
-20924.77;-12985.85;1637.267;-22638.61;-10.11366;-25.50243;-20743.96;-9278.575;-0.2432;-0.04346202;0;
-29012.31;-20769.82;-252.9605;-30732.29;-4.141651;-17.50602;-28716.07;-14628.36;-0.2429557;-0.1083857;0;
-4627.073;-2989.083;-450.7787;-5832.077;3.498321;-12.53175;-4514.726;-2840.356;-0.1777442;-0.4331135;0;
20498.65;14114.06;317.0698;21612.69;-6.017015;-11.84933;20415.23;10213.75;-0.3075003;-0.4976456;0;
19166.29;11940.09;1582.068;21158.37;-11.5697;-6.746845;19074.32;8762.321;-0.5020933;-0.3022436;0;
17906.02;11453.25;3906.169;19566.85;-6.334136;-11.2949;17802.74;8294.497;-0.3066868;-0.1070378;0;
21290.27;13971.11;5880.812;23127.28;-6.19405;-13.3599;21183.75;10403.57;-0.176444;0.2828737;0;
7833.753;5008.744;6117.094;8670.187;-5.383543;-10.80125;7662.706;3134.356;-0.1112993;0.2176222;0;
-24047.24;-17749.38;5275.555;-24972.43;-3.904265;-11.25928;-24035.53;-13050.14;0.2786165;-0.1724005;0;
-26523.16;-17786.08;3840.504;-28394;-5.709003;-9.707357;-26357.33;-13116.27;0.1484019;-0.10726;0;
-20879.66;-12919.18;1658.115;-22562.27;-4.899959;-9.83157;-20707.9;-9152.142;0.01831812;0.1527172;0;
-28453.62;-20258.85;-222.1539;-30176.5;-8.578731;-8.281083;-28169.71;-14172.64;0.3431364;-0.172273;0;
-4127.082;-2696.028;-428.6393;-5321.078;-13.79502;-8.00483;-4022.03;-2589.773;0.01795493;0.08776949;0;
20715.49;14231.56;341.264;21828.14;-7.551872;-6.92506;20628.86;10338.35;-0.3068998;0.4774854;0;
19280.35;12082.17;1593.869;21268.13;-5.869344;-3.770026;19186.59;8892.01;0.1481799;0.02223417;0;
17923.03;11457.41;3896.938;19583.02;-6.466659;-10.66536;17817.37;8300.54;0.01809637;0.1521465;0;
21299.64;13978.55;5877.149;23138.48;-2.77549;-14.13763;21190.93;10412.15;-0.2417912;0.3468957;0;
7994.835;5194.848;6119.432;8895.039;-12.0161;-15.59699;7823.473;3248.221;0.2132232;-0.1731916;0;
-23761.49;-17433.25;5288.229;-24619.45;-17.22894;-20.40397;-23762.8;-12866.4;0.2130089;-0.237985;0;
-26230.86;-17479.25;3866.003;-28102.8;-17.74749;-15.22596;-26076.1;-12956.82;0.0828602;0.1520582;0;
-20597.96;-12631.86;1679.653;-22295.47;-22.7535;-12.66531;-20420.06;-8935.913;-0.04715774;0.2168728;0;
-28167.25;-19956.69;-207.603;-29903.2;-17.77415;-12.85353;-27900.24;-13950.86;-0.5668491;-0.1081818;0;
-3977.918;-2547.342;-435.842;-5185.972;-15.6792;-9.357629;-3898.725;-2593.359;-0.6962142;-0.04310581;0;
20636.71;14144.5;310.6428;21756.29;-15.52973;-11.89346;20548.5;10216.83;-0.04584122;0.1518395;0;
19188.66;11988.9;1565.481;21182.24;-11.69573;-12.95323;19094.71;8820.178;0.1491069;-0.1731497;0;
17899.69;11433.75;3863.752;19565.34;-15.50237;-8.653431;17792.5;8256.578;-0.435749;-0.04304108;0;
21245.37;13923.53;5829.692;23085.27;-16.82597;-7.037146;21136.95;10359.92;-0.04550714;0.4117736;0;
7903.375;5095.175;6082.985;8759.438;-15.26882;-3.413118;7729.765;3141.45;0.6691793;0.2814251;0;
-23936.5;-17624.56;5266.53;-24837.82;-18.33493;0.4751994;-23929.15;-12995.49;0.3436702;-0.2385964;0;
-26457.34;-17722.35;3848.167;-28331.8;-9.340555;-0.1281244;-26295.55;-13038.7;-0.2413812;-0.303324;0;
-20862.07;-12917.42;1669.707;-22551.93;-0.5572596;0.8097653;-20688.31;-9158.838;-0.3710733;0.0218175;0;
-28452.13;-20250.98;-203.3431;-30175.74;-10.00117;1.612747;-28170.5;-14248.79;0.1490383;0.1517303;0;
-4075.686;-2614.771;-406.3647;-5279.492;-13.0716;1.678109;-3975.996;-2607.645;0.2138559;0.2815125;0;
20717.86;14252.99;356.8164;21826.46;-11.38451;2.212287;20632.18;10341.65;-0.2411304;0.08632761;0;
19280.13;12073.12;1603.316;21271.68;-13.31545;0.937388;19186.62;8885.412;0.01898126;-0.04369383;0;
17950.05;11482.63;3887.368;19618.88;-8.814093;3.615763;17843.92;8314.642;-0.04600516;0.1512521;0;
21292.2;13966.14;5854.877;23133.56;-6.259641;6.492274;21183.43;10395.44;-0.435763;0.2810348;0;
8083.998;5253.244;6119.483;8973.688;-6.3207;0.7923236;7901.516;3282.486;-0.04552108;0.3457198;0;
-23651.38;-17349.82;5308.114;-24518.65;-6.247;-3.227326;-23665.08;-12813.41;0.08445935;0.280405;0;
-26055.96;-17332.38;3901.017;-27964.3;-3.495033;-1.415544;-25911.56;-12939.79;-0.1105275;0.2801233;0;
-20356.32;-12424.6;1732.903;-22097.09;-1.68286;-1.883003;-20195.79;-8884.729;0.08448554;0.2148745;0;
-28231.69;-20008.25;-156.1548;-29982.65;-1.547447;-3.957582;-27969.99;-14002.35;-0.04553403;0.0847239;0;
-4154.941;-2664.429;-387.9282;-5378.642;3.075808;-5.494212;-4073.819;-2677.81;-0.2403903;-0.04529593;0;
20633.79;14164.63;359.2424;21744.49;-8.64893;-6.493314;20540.62;10226.69;-0.04524674;-0.1751851;0;
19198.75;11986.52;1600.601;21186.65;-19.82602;-7.089635;19101.85;8808.999;0.01976607;-0.1750091;0;
17874.99;11405.75;3874.661;19531.52;-10.36163;-8.020273;17764.46;8222.235;0.01974621;0.2149708;0;
21159.54;13829.84;5825.817;22995.16;-10.35122;-7.00747;21047.52;10255.49;-0.04524098;0.3446895;0;
7858.567;5071.794;6086.547;8694.187;-8.464808;-10.81846;7684.027;3114.696;-0.1101629;0.08447381;0;
-23813.27;-17481.31;5286.144;-24728.85;-2.897573;-15.49621;-23806.32;-12852.3;0.1498172;0.2792909;0;
-26149.97;-17477.93;3884.128;-28029.27;-12.20444;-6.840022;-25989.43;-12931.62;0.214634;-0.0458264;0;
-20346.69;-12485.87;1729.337;-22058.06;-13.66604;-0.6039804;-20183.85;-8906.707;-0.240353;-0.4355844;0;
-28216.31;-19983.69;-143.6315;-29965.69;-20.08267;-3.684466;-27950.34;-13985.93;-0.4350136;-0.11031;0;
-4348.366;-2749.711;-388.2079;-5587.787;-29.37324;-2.542054;-4254.138;-2701.796;-0.1097398;-0.3051012;0;
20480.76;14075.36;354.0124;21563.51;-18.35804;-0.9320318;20391.77;10154.63;0.1502399;-0.6296313;0;
19144.87;11916.22;1598.156;21132.58;-13.98631;-0.3952318;19048.33;8727.842;0.2150563;-0.5640313;0;
17750.03;11281.18;3864.16;19413.95;-13.03425;3.088278;17643.95;8101.101;-0.1749639;-0.04372587;0;
21203.11;13871.09;5841.001;23031.88;-7.46145;5.161523;21091.96;10292.29;-0.3047228;0.3461221;0;
8032.364;5199.845;6127.766;8880.496;-9.932199;5.960133;7868.157;3266.931;0.1503548;-0.04402972;0;
-23911.08;-17610.54;5324.104;-24798.74;-9.521053;6.088109;-23882.61;-12935.93;0.4100731;-0.1739202;0;
-26287.59;-17575.45;3937.51;-28163.66;-6.898542;7.957514;-26116.35;-13019.3;0.1497917;0.08612397;0;
-20352.56;-12451.87;1785.884;-22070.68;-7.963337;10.56173;-20190.2;-8909.515;0.0197065;0.3459068;0;
-28514.8;-20277.94;-111.5205;-30245.35;-1.793394;4.790708;-28243.63;-14173.8;-0.04528064;0.1506572;0;
-4610.795;-3004.591;-349.898;-5833.651;2.226896;0.5660918;-4508.154;-2770.598;-0.2401372;-0.1743309;0;
20584.24;14178.28;391.8934;21664.2;-1.124244;1.972165;20495.56;10267.29;0.01997349;0.4105504;0;
19249.19;12017.48;1614.807;21241.93;-2.395912;1.702251;19147.18;8805.219;0.3447901;0.6050399;0;
17879.04;11407.1;3890.664;19540.59;-3.598954;-1.380552;17768.3;8231.39;0.2794763;0.01972583;0;
21261.38;13930.63;5869.165;23096.63;-2.657332;-4.393397;21147.67;10340.6;0.0842935;-0.04526133;0;
7973.762;5121.085;6154.09;8861.267;-12.03179;-2.04458;7790.033;3179.758;0.01924146;-0.04521585;0;
-23849.45;-17568.44;5366.986;-24739.39;-20.79458;-1.774594;-23865.07;-13001.24;0.08418947;-0.04517042;0;
-26568.71;-17802.25;3963.109;-28472.62;-14.27695;-1.705828;-26424.09;-13206.33;-0.04582981;0.149777;0;
-21007.61;-13062.29;1789.749;-22718.04;-11.1138;-1.771096;-20838.55;-9285.514;0.2140856;0.01969181;0;
-28716.08;-20458.73;-97.13356;-30440.85;-14.9874;-1.166471;-28447.92;-14411.63;0.2788378;0.1496067;0;
-4468.92;-2831.886;-336.603;-5673.837;-17.58528;1.513897;-4382.56;-2818.629;-0.3061484;0.08448905;0;
20531.46;14109.77;402.9574;21635.15;-9.663383;-4.850881;20440.1;10170.61;-0.1759061;-0.4353346;0;
19209.25;11969.93;1653.08;21187.55;-5.701558;-7.123304;19110.88;8772.201;0.2140747;-0.5648319;0;
17855.21;11384.89;3946.578;19517.65;-1.811063;-10.80021;17745.23;8193.642;0.3437943;-0.1744602;0;
21129.8;13791.47;5921.274;22965.97;5.089633;-18.09025;21015.31;10206.71;0.4733835;0.1505518;0;
7905.553;5113.954;6198.12;8733.146;-1.680636;-8.493759;7733.153;3167.233;0.5378752;0.0204658;0;
-24154.7;-17829.84;5399.072;-25075.28;-5.764784;-3.260678;-24149.16;-13217.98;0.5373347;-0.1094894;0;
-26858.31;-18121.68;3996.286;-28716.44;-2.34274;-6.003702;-26703.94;-13422.59;0.4068601;0.02055525;0;
-20726.78;-12791.86;1826.203;-22392.89;1.343309;-4.122147;-20552.67;-8995.431;0.01664726;0.2154366;0;
-28643.92;-20408.81;-74.05225;-30346.23;-5.825336;-4.653869;-28372.11;-14306.05;-0.1782715;0.1502528;0;
-4759.128;-3167.646;-305.7832;-5957.574;-6.154275;-3.577466;-4674.014;-2993.132;0.01680966;-0.04480019;0;
20540.41;14117.37;452.8929;21639.37;-5.277436;-5.114478;20451.96;10213.63;0.2116948;0.02021217;0;
19212.83;11975.91;1691.737;21200.2;-5.606925;-7.9225;19118.51;8752.752;0.1465147;0.1501266;0;
17732.26;11255.56;3977.012;19397.85;5.317049;-3.426805;17625.51;8073.216;0.2763022;0.4098451;0;
21147.31;13811.5;5958.581;22986.36;0.7563784;-2.351635;21039.06;10212.79;0.6008613;0.4744006;0;
7853.704;5010.637;6246.82;8726.608;36.79219;-1.679443;7679.59;3091.931;0.5352902;-0.04581483;0;
-24296.17;-18017.31;5470.931;-25166.6;62.40932;1.202389;-24292.48;-13380.62;-0.1798884;-0.4355728;0;
-26988.13;-18226.45;4081.254;-28834.56;51.89679;-3.353537;-26827.36;-13516.47;-0.1147403;-0.1752658;0;
-21043.88;-13119.21;1917.77;-22715.06;59.28035;-4.153962;-20876.04;-9255.135;0.4051137;0.4096164;0;
-28797.18;-20557.24;36.16274;-30515.1;39.46119;-6.29312;-28533.94;-14500.26;0.01490258;0.1493354;0;
-4557.509;-2892.543;-196.3349;-5772.623;36.13901;-9.234046;-4468.694;-2872.461;-0.3749164;-0.305586;0;
20601.24;14187.48;538.337;21703.48;-3.482873;-5.741777;20514.94;10253.41;-0.1796377;0.0845251;0;
19197.97;11951.2;1773.94;21185.09;-49.22786;-6.874596;19105.07;8741.719;0.2753142;0.2143749;0;
17828.61;11353.88;4067.067;19489.88;-19.63954;0.4332077;17724.63;8161.784;0.3400049;-0.1756446;0;
21162.91;13822.79;6047.108;22998.54;-18.95022;5.523353;21050.51;10229.93;0.2097286;-0.1105008;0;
7788.236;5069.962;6326.294;8640.87;-15.71599;4.847974;7619.364;3149.033;0.3394525;0.1494796;0;
-24166.47;-17791.83;5532.334;-25058.13;-1.90245;6.718625;-24151.9;-13114.85;0.1442094;0.01939473;0;
-26420.01;-17740.02;4136.255;-28295.25;-13.75591;4.300488;-26265.75;-13165.7;-0.05083751;0.0843426;0;
-20296.42;-12421.95;1965.813;-21987.78;-13.54101;5.434877;-20133.82;-8848.385;0.2090829;0.2141925;0;
-28619.96;-20372.11;49.01881;-30341.95;-9.709991;-5.220626;-28375.65;-14253.6;0.5337095;0.2789446;0;
-4893.875;-3216.375;-204.1064;-6140.736;-7.556781;-15.12855;-4833.553;-2957.871;0.5981406;0.6035011;0;
20546.13;14160.42;550.7194;21623.54;-5.606805;-12.56806;20459.9;10247.59;0.1427682;0.4079927;0;
19332.15;12079.81;1799.71;21323.3;-4.193676;-15.63658;19241.39;8854.191;-0.05227726;-0.2420907;0;
17865.31;11385.53;4093.997;19525.52;-3.051362;-16.42467;17758.85;8203.008;0.07770995;-0.5017169;0;
21206.28;13868.66;6068.858;23037.75;-2.578805;-17.01101;21097.16;10269.44;0.3375012;-0.5012127;0;
7929.167;5191.943;6325.877;8776.476;-1.772907;-18.13257;7763.156;3221.941;0.3371621;-0.3707744;0;
-24047.39;-17663.21;5512.239;-24944.68;-4.383094;-16.90871;-24025.2;-13093.33;-0.3778174;-0.2404672;0;
-26882.58;-18146.26;4084.915;-28717.25;3.390842;-19.9059;-26711.26;-13359.36;-0.5073725;-0.1102909;0;
-20860.54;-12923.67;1893.41;-22486.59;11.8939;-21.89532;-20673.58;-8972.45;0.2727454;-0.04521271;0;
-28238;-20023.83;1.645262;-29958.09;0.7635157;-18.72518;-27975.94;-14057.17;0.207504;-0.1101346;0;
-4224.557;-2687.897;-240.8595;-5493.817;-3.323088;-15.55823;-4158.882;-2770.416;-0.1825085;0.01991073;0;
20645.17;14201.69;502.2903;21730.47;-4.124032;-18.55677;20560.81;10267.94;-0.05239045;-0.04507662;0;
19344.48;12103.97;1772.241;21344.88;-10.28183;-20.3466;19256.19;8901.117;0.2724989;0.08490337;0;
17988.63;11505.15;4085.39;19645.58;-2.635689;-15.77144;17881.19;8300.05;0.01235573;0.2147527;0;
21270.92;13927.21;6049.421;23114.99;-0.8243794;-14.48298;21165.21;10341.88;-0.1825587;-0.3052018;0;
8117.863;5239.042;6297.277;9014.028;2.190559;-11.72213;7944.339;3291.42;0.5972328;-0.2399278;0;
-24013.47;-17755.26;5472.767;-24858.52;10.62747;-9.834947;-24005.51;-13118.97;0.5316654;0.5399214;0;
-26832.5;-18069;4043.359;-28662.84;-0.1668454;-9.490149;-26666.93;-13366.87;-0.05357492;0.01964015;0;
-20490.13;-12566.51;1848.241;-22163.68;-3.649302;-7.203194;-20323.47;-8804.808;0.1413809;-0.630053;0;
-28466.85;-20206.51;-64.26491;-30151.71;-2.842328;-12.68843;-28188.36;-14033.7;-0.1835978;-0.2396159;0;
-4808.968;-3135.85;-278.9362;-5959.858;-8.198107;-14.55121;-4698.957;-2884.761;-0.5082501;-0.04447308;0;
20645.35;14228.82;502.2641;21759.95;3.599127;-19.82805;20559.41;10309.83;0.01199937;0.2804083;0;
19390.13;12127.2;1742.464;21380.61;10.15959;-26.84122;19293.37;8888.045;0.2068893;0.3450939;0;
17898.27;11421.63;4038.808;19569.32;11.22111;-21.25479;17790.68;8236.171;-0.442992;0.01991044;0;
21367.61;14012.47;6031.059;23214.6;16.16633;-19.224;21254.96;10410.94;-0.5724815;0.2147925;0;
8331.727;5453.498;6292.208;9250.981;14.67622;-19.1377;8155.426;3423.844;0.2077018;0.01967461;0;
-23482.94;-17224.91;5476.792;-24322.62;14.79617;-16.23827;-23491.99;-12727.39;0.3374278;-0.0453125;0;
-26261.17;-17564.68;4053.002;-28103.37;14.37916;-15.41816;-26116.97;-12937.72;0.07721937;0.01970037;0;
-20339.42;-12440.97;1856.469;-21979.12;11.75274;-14.06307;-20176.81;-8702.951;-0.1177602;-0.3701235;0;
-28056.46;-19866.29;-34.5715;-29768.79;13.61597;-10.43198;-27804.13;-13930.46;0.07726011;0.02005248;0;
-4120.417;-2662.608;-240.5738;-5379.909;17.15226;-10.55546;-4048.53;-2736.415;0.3370518;0.2799017;0;
20813.57;14314.8;534.2942;21890.76;5.748171;-2.373062;20725.24;10359.3;0.1418111;-0.04521626;0;
19434.07;12199.91;1788.439;21433.75;-2.496627;5.734014;19341.68;8989.043;-0.3780701;-0.1101382;0;
18111.42;11622.15;4086.424;19776.24;2.730794;-3.180234;18004.11;8411.266;-0.3127229;0.08487454;0;
21436.34;14080.75;6072.474;23285.67;2.325908;-5.923216;21329.26;10495.45;0.2073301;0.0198219;0;
8479.829;5565.282;6353.321;9387.028;5.940894;-7.725804;8309.304;3477.848;0.3370565;-0.1101327;0;
-23200.69;-16975.39;5556.928;-24055.55;9.887039;-9.794512;-23191.72;-12544.89;0.07684842;-0.3049241;0;
-26032.79;-17299;4147.707;-27890.25;9.676034;-12.53085;-25871.38;-12816.83;-0.1830982;-0.4345523;0;
-19953.8;-12033.25;1979.908;-21629.91;9.53259;-16.93907;-19778.28;-8479.704;-0.1829142;-0.304181;0;
-27756.83;-19539.81;92.55341;-29443.55;17.35989;-10.96063;-27474.32;-13528.74;-0.3126651;-0.1739407;0;
-4241.936;-2699.134;-144.6236;-5410.732;27.59023;-9.944994;-4144.057;-2628.879;-0.1174489;-0.3037006;0;
20736.05;14272.75;602.1777;21845.8;14.90285;-1.763206;20649.77;10312.35;0.3374405;-0.2384281;0;
19455.29;12206.36;1833.438;21439.81;6.448761;7.816881;19362.47;8991.228;0.2721341;-0.1082539;0;
17977.63;11487.25;4116.728;19642.97;14.21181;3.589224;17871.83;8278.031;0.07695866;-0.1731124;0;
21367.17;14012.18;6107.308;23208.48;12.58994;3.920532;21258.68;10417.52;0.206816;-0.04300379;0;
8325.069;5443.779;6386.09;9230.628;19.00765;7.131651;8155.192;3407.45;0.3365429;0.02200676;0;
-23685.97;-17442.21;5584.292;-24527.37;29.16996;8.12923;-23679.58;-12941.57;-0.05359932;-0.1729174;0;
-26485.97;-17786.22;4189.379;-28367.16;12.66261;7.786147;-26326.6;-13221.87;-0.4433495;-0.237711;0;
-20204.38;-12308.71;2033.408;-21919.37;1.79889;6.438664;-20026.21;-8692.981;0.01186735;-0.3024395;0;
-27874.6;-19660.22;153.2149;-29612.59;10.70569;6.030297;-27602.64;-13716.22;0.01185543;-0.1722009;0;
-4205.198;-2656.63;-79.13486;-5451.993;9.221066;4.349787;-4121.87;-2678.851;-0.5078952;-0.1070605;0;
20717.16;14256.41;664.6489;21800.55;14.30299;2.001013;20631.35;10297.87;-0.1175808;-0.2368876;0;
19386.45;12134.35;1901.531;21381.57;21.58964;0.1904635;19294.9;8922.564;0.3373087;-0.3016169;0;
17989.9;11498.5;4184.753;19647.96;10.91802;-3.627633;17884.11;8285.649;-0.2477363;-0.04144451;0;
21335.63;13977.17;6170.829;23177.26;7.959316;-5.700337;21230.15;10387.84;-0.7022588;0.02356448;0;
8437.434;5565.719;6463.416;9336.543;3.865481;-9.646602;8268.008;3454.82;-0.1168471;-0.1063939;0;
-23265.47;-17000.78;5677.219;-24120.84;-4.310077;-11.91421;-23258.22;-12589.4;0.1431397;0.08861506;0;
-26076.75;-17376.57;4297.986;-27949.85;4.20072;-12.4381;-25910.02;-12839.38;-0.3117755;0.3483954;0;
-19962.61;-12070.64;2152.276;-21672.52;8.952898;-13.89923;-19775.09;-8489.444;-0.2464949;0.2181106;0;
-27763.76;-19555.88;257.5174;-29500.5;3.517918;-8.124849;-27495.05;-13641.84;-0.3112145;-0.1069452;0;
-4185.229;-2672.381;12.28799;-5413.09;2.107864;-4.700678;-4112.365;-2690.814;0.01393487;-0.1068378;0;
20787.88;14305.12;751.4978;21882.79;5.454648;0.8635067;20700.91;10331.66;0.01392087;-0.1716978;0;
19421.26;12174.84;1970.77;21417.41;10.00352;5.417356;19332.72;8975.219;-0.5058318;-0.2364926;0;
17899.03;11400.97;4241.179;19560.91;5.238045;10.77043;17791.08;8180.049;-0.1804869;0.1535491;0;
21298.5;13939.62;6227.417;23136.74;1.214294;17.05588;21192.59;10338.54;-0.05037085;0.08842747;0;
8281.305;5362.53;6512.044;9168.661;8.848885;14.09161;8106.863;3421.293;0.1445818;-0.1065634;0;
-23941.68;-17736.02;5707.809;-24793.11;9.442229;14.74728;-23947.36;-13112.99;0.2094039;0.02347833;0;
-27100.65;-18326.26;4307.649;-28920.56;15.72938;8.972054;-26933.58;-13517.71;-0.1156433;0.1533894;0;
-21014.95;-13110.34;2156.181;-22646.13;22.88087;2.331851;-20819.31;-9177.339;0.07937496;0.08826797;0;
-28811.29;-20567.71;266.6509;-30497.55;15.69059;4.338995;-28522.89;-14434.59;0.01432787;-0.04175542;0;
-4961.303;-3154.204;8.684343;-6175.278;17.48348;4.93736;-4859.999;-3027.443;-0.4404579;0.08822124;0;
20442.13;14108.37;737.9341;21537.58;5.810639;-2.703411;20355.99;10164.42;-0.5049827;0.2180673;0;
19273.94;11982.25;1961.093;21276.78;-6.318012;-9.599815;19177.23;8744.855;-0.3095733;0.02294612;0;
17809.98;11320.45;4219.08;19481.52;2.261176;-3.025964;17704.26;8116.037;0.01557451;0.08789042;0;
21132.85;13771.46;6189.942;22973.51;0.9870818;-0.8124865;21021.13;10158.71;0.2754282;0.0878021;0;
8002.357;5134.112;6495.628;8902.473;5.473093;0.7288154;7835.441;3179.303;0.3401188;-0.1721555;0;
-24216.66;-17958.05;5721.362;-25041.29;10.89358;4.479127;-24200.5;-13351.27;0.144875;-0.1719825;0;
-27144.21;-18421.08;4335.276;-28982.6;6.05986;3.603848;-26993.21;-13671.02;-0.1801072;-0.04187502;0;
-20701.13;-12828.1;2196.617;-22384.1;5.183115;5.07373;-20546.06;-8946.352;0.2098778;-0.236735;0;
-28566.5;-20309.1;301.4711;-30279.22;5.646421;3.796078;-28302.88;-14201.97;0.2746342;0.02337227;0;
-4907.864;-3126.73;35.52047;-6148.455;7.181965;1.715793;-4821.547;-3026.056;0.01448892;0.5430875;0;
20591.5;14226.89;764.4621;21662.14;1.681416;4.25942;20501.57;10278.6;0.5991805;0.3476398;0;
19382.36;12085.67;1967.136;21377.46;-1.334384;5.862608;19287.23;8843.983;0.5336111;-0.04251356;0;
17759.49;11274.13;4210.406;19424.43;-2.471143;1.368983;17651.07;8060.595;-0.3764679;-0.1074382;0;
21165.47;13794.25;6194.457;23009.57;-7.09036;-1.646502;21053.33;10179.35;-0.05125294;0.02260445;0;
8288.463;5342.846;6506.948;9193.649;-1.055016;-0.5061378;8119.635;3373.255;0.2736353;-0.302255;0;
-23821.87;-17630.9;5730.609;-24649.91;-0.2506483;0.231061;-23804.51;-13008.87;-0.3113458;-0.5618206;0;
-26678.06;-17950.17;4348.917;-28516.06;5.24196;-2.783281;-26518.39;-13326.68;0.1437385;-0.1714521;0;
-20165.11;-12274.29;2195.846;-21837.27;14.1453;-5.258853;-20003.33;-8634.109;0.4034634;-0.1712798;0;
-28247.59;-20027.8;286.1299;-29932.74;2.945304;-1.904422;-27966.47;-13911.93;-0.1166807;-0.236075;0;
-4820.952;-3130.632;30.36144;-6025.777;-1.880427;-1.366645;-4712.325;-2927.89;0.01337121;0.02403155;0;
20578.46;14176.94;765.1959;21665.86;-1.342674;1.983753;20492.73;10214.37;0.2082598;-0.3008293;0;
19344.15;12062.66;1985.782;21334.61;-4.690227;5.732682;19247.92;8822.894;-0.2467209;-0.6253637;0;
17855.21;11355.28;4257.55;19525.08;-4.015929;4.119453;17749.62;8135.104;-0.3764076;-0.559768;0;
21239.99;13873.78;6229.029;23075.53;-5.619484;5.521833;21131.24;10267.39;0.01377463;0.0255005;0;
8256.01;5375.982;6518.34;9092.313;-3.805177;3.439936;8080.864;3334.283;0.3385975;-0.1694271;0;
-23898.83;-17654.94;5728.559;-24787;-0.5188235;2.230787;-23898.65;-13213.74;0.01342057;-0.4940936;0;
-27193.27;-18450.84;4315.198;-29023.06;-5.675866;1.826648;-27039.52;-13667.05;-0.1165276;-0.2337278;0;
-21152.3;-13272.38;2149.948;-22805.54;-9.488556;-0.9883489;-20984.63;-9306.629;0.01352417;-0.5583296;0;
-28958.82;-20694.38;254.8488;-30667.52;-3.450802;3.098481;-28675.43;-14596.91;0.1434453;-0.4278339;0;
-5012.224;-3194.092;5.733476;-6266.302;0.1026388;4.568992;-4905.818;-3091.863;0.2082685;0.02736734;0;
20598.36;14247.24;754.9917;21662.05;-0.7681204;5.368074;20511.95;10292.38;-0.1817448;-0.1675622;0;
19440.86;12136.57;1987.348;21435.33;2.246761;8.845793;19344.69;8884.94;-0.3114969;-0.1673938;0;
17870.58;11379.74;4254.71;19532.09;-1.841333;2.875546;17761.84;8156.562;0.01365279;-0.1022583;0;
21229.02;13858.19;6232.501;23068.28;-6.795976;-1.280163;21118.19;10246.56;-0.05132827;-0.2320902;0;
8384.303;5467.869;6521.653;9273.378;1.248805;1.333335;8209.757;3421.113;0.2085927;-0.2968243;0;
-23765.98;-17536.77;5727.964;-24621.86;3.859518;0.7291492;-23768.22;-13093.09;0.2733504;-0.3614934;0;
-26916.01;-18180.14;4322.443;-28786.42;4.526201;0.9293653;-26761.65;-13498.89;-0.5065324;-0.1662282;0;
-20378.31;-12483.82;2149.409;-22090;8.205349;2.669988;-20211.3;-8660.067;-0.1811867;-0.1010938;0;
-28011.13;-19792.4;241.6135;-29742.92;1.230879;-2.557242;-27748.23;-13758.1;0.2087994;0.09390981;0;
-4523.509;-2897.943;-20.20094;-5766.882;-2.38768;-6.908441;-4438.517;-2837.097;-0.1162471;0.6785215;0;
20649.48;14198.14;709.8743;21722.74;-3.59073;-2.882645;20560.16;10229.39;0.01380441;0.353003;0;
19476.98;12197.8;1948.132;21468.7;-5.261085;-1.875005;19382.01;8955.715;0.1437252;-0.2320578;0;
18031.72;11532.65;4235.898;19691.71;-7.801394;-1.940104;17922.22;8304.367;0.01364613;-0.1018899;0;
21379.74;14003.52;6210.429;23219.5;-10.13808;0.3391434;21270.3;10385.64;-0.1163023;0.4179512;0;
8437.892;5494.809;6480.425;9327.284;-7.850718;-3.747034;8264.396;3463.527;-0.1811527;0.3525639;0;
-23743.99;-17552.55;5665.351;-24594.43;-8.713485;-6.958328;-23745.12;-13024.18;-0.05103604;0.02737295;0;
-26998.94;-18253.13;4245.4;-28836.84;-0.533056;-3.468346;-26833.34;-13468.52;-0.1159521;-0.2325239;0;
-20811.06;-12917.54;2068.695;-22473.69;6.031563;-2.259168;-20625.54;-9052.499;-0.1158356;-0.2322903;0;
-28579.21;-20360.19;159.6222;-30279.78;7.231927;-2.52483;-28303.51;-14302.45;0.07918283;0.1577472;0;
-4740.302;-3033.681;-81.90127;-5977.869;12.31488;-0.8477194;-4649.026;-2944.184;-0.1807661;0.09262134;0;
20737.19;14351.08;675.4098;21801.24;10.0917;-4.062048;20647.53;10383.03;-0.2455518;-0.1023738;0;
19530.31;12233.49;1911.281;21529.88;9.411973;-8.210787;19432.38;8982.077;0.144499;-0.1672382;0;
18070.05;11567.76;4207.674;19736.03;10.74266;-1.705314;17959.49;8340.276;0.07938644;-0.1021029;0;
21500.5;14122.7;6201.411;23348.28;10.26238;2.650168;21388.43;10507.44;0.144274;0.1578691;0;
8638.633;5647.953;6457.767;9588.707;9.58248;-1.773246;8463.723;3614.157;0.2740637;0.09274314;0;
-23317.25;-17162.09;5639.998;-24126.3;7.965262;-2.709225;-23320.78;-12697.68;0.208821;0.0276826;0;
-26416.76;-17686.13;4224.477;-28261.18;6.75181;-3.644264;-26259.06;-13080.26;0.4035132;-0.03731256;0;
-20163.76;-12271.08;2030.708;-21827.62;1.922254;-5.516125;-19980.04;-8527.927;0.1432384;0.09265963;0;
-28042.75;-19815.95;123.7656;-29738.55;8.484406;-4.371872;-27757.4;-13726.74;-0.2467096;0.2225012;0;
-4569.171;-2910.102;-103.1354;-5782.997;16.51383;-4.233513;-4468.827;-2808.788;-0.116527;0.09234296;0;
20787.99;14351.76;666.1754;21871.53;1.225619;-4.028311;20701.15;10378.36;0.4033288;0.2871522;0;
19608.2;12317.33;1911.161;21602.83;-6.612494;-2.684604;19513.19;9070.037;0.4678909;0.2868637;0;
18090.45;11590.55;4195.685;19757.57;-4.931886;-4.35648;17985.03;8359.433;-0.1822527;-0.1032286;0;
21421.75;14038.76;6174.129;23271.11;-8.811696;-6.696383;21313.62;10429.39;-0.1171022;0.2217118;0;
8675.775;5709.821;6438.352;9620.143;-5.788733;-0.6613131;8508.021;3601.951;0.07791749;0.1565217;0;
-22960.25;-16782.08;5630.41;-23770.35;-6.586223;3.760103;-22948.94;-12386.96;-0.05209549;-0.6232437;0;
-26144.64;-17412.83;4217.71;-27985.42;-2.226325;0.9430416;-25968.1;-12836.89;0.2078262;-0.3627481;0;
-20046.46;-12132.64;2033.943;-21712.06;3.268269;-0.1966158;-19850.99;-8490.702;0.3375521;0.2223225;0;
-27761.05;-19552.51;132.0103;-29473.35;-2.293745;2.147985;-27480.72;-13607.78;0.0123762;-0.03777029;0;
-4323.438;-2721.061;-98.11613;-5557.13;-2.55986;3.351519;-4233.493;-2730.132;-0.3124729;-0.2326344;0;
20811.82;14379.27;666.973;21893.78;-7.111639;1.137715;20724.31;10383.47;-0.3771263;-0.03749859;0;
19629.46;12345.21;1912.067;21625.41;-12.39578;0.466742;19535.48;9106.489;-0.3767474;0.4822778;0;
18134.07;11625.91;4198.621;19796.13;-10.84308;-0.8732636;18025.38;8386.462;-0.2464341;0.3518586;0;
21467.18;14087.39;6190.461;23310.36;-12.90829;-0.4036276;21358.95;10467.31;0.2085849;0.02666829;0;
8788.959;5762.022;6478.405;9697.828;-11.4888;-4.489059;8613.379;3686.199;0.01347326;0.1565762;0;
-23189.72;-17059.17;5667.832;-24032.67;-7.927284;-10.17798;-23185.89;-12577.77;-0.506279;0.1564189;0;
-26464.25;-17714.13;4248.847;-28310.58;-15.48876;-0.3884846;-26283.12;-13149.95;0.07893578;0.09129436;0;
-19854.2;-11968.23;2073.075;-21536.69;-21.50141;5.037401;-19661.99;-8367.583;0.5336279;-0.03873208;0;
-27811.85;-19561.64;150.4419;-29504.6;-14.71465;4.228666;-27522.26;-13444.54;0.403157;-0.1686278;0;
-4746.221;-3018.607;-106.0648;-5926.15;-14.09666;6.635681;-4634.689;-2821.99;0.07791518;0.02644362;0;
20766.91;14351.43;658.4232;21852.97;-9.059626;6.963928;20680.75;10374.96;-0.3119672;0.02641705;0;
19679.3;12371.81;1898.591;21666.2;0.8634391;8.229607;19583.77;9109.045;0.01318301;0.09135786;0;
18090.29;11591.52;4173.195;19752.1;-12.93616;6.144866;17984.28;8355.922;0.1431044;0.09126607;0;
21508.6;14117.94;6158.877;23354.17;-19.88938;4.129326;21398.87;10501.32;-0.1169087;-0.363597;0;
8867.222;5813.214;6445.042;9829.927;-14.91193;4.058194;8698.807;3678.957;0.3379802;-0.2982644;0;
-22801.62;-16698.41;5639.873;-23612.3;-18.44692;3.183338;-22789.02;-12375.67;0.07777118;0.0918394;0;
-26127.37;-17398.3;4218.917;-28000.58;-8.649119;0.8357369;-25953.69;-12878.38;-0.4420457;-0.03818758;0;
-20178.42;-12297.65;2042.833;-21874.35;-1.40676;-1.107486;-19996.89;-8616.096;-0.1167648;-0.2980186;0;
-27880.42;-19680.55;143.4991;-29623.29;-3.347729;-1.642236;-27600.88;-13700.42;0.07825454;-0.4276538;0;
-4257.03;-2630.428;-111.923;-5505.979;1.076264;-2.980245;-4157.811;-2688.39;-0.05175878;-0.4921914;0;
20877.71;14427.19;621.2585;21964.5;-2.407442;-1.36966;20788.94;10412.65;-0.1166741;-0.1018928;0;
19588.31;12292.77;1849.345;21579.27;-4.012613;-0.0287472;19492.46;9059.939;0.1433125;0.09311159;0;
18143.06;11632.87;4126.716;19800.97;-2.870482;0.3061963;18036.86;8378.143;-0.05173354;0.2229527;0;
21510.33;14120.97;6113.662;23351.85;-8.427303;2.583308;21404.24;10511.85;-0.3115509;0.3526634;0;
8854.427;5838.066;6402.309;9752.604;3.503883;0.7721735;8689.109;3705.907;0.2085009;0.09243965;0;
-22938.45;-16807;5603.524;-23770.65;12.67739;-1.639866;-22919.41;-12388.54;0.3382261;-0.2974573;0;
-26180.07;-17455.34;4202.938;-28007.32;3.688695;4.189175;-26000.23;-12869.14;-0.1818525;-0.4920604;0;
-19846.14;-11966.52;2036.052;-21529.05;5.226206;7.06511;-19661.85;-8424.188;-0.3765718;-0.4265987;0;
-27931.81;-19705.82;114.846;-29631.27;-4.358215;5.986284;-27639.4;-13645.83;0.2085126;-0.1663007;0;
-4793.5;-3113.847;-146.5131;-5986.444;-14.46789;6.516132;-4678.55;-2883.084;0.3382378;0.1587032;0;
20750.82;14330.97;595.1989;21832.09;-6.549125;4.701046;20664.3;10359.8;-0.05190613;0.028609;0;
19661.7;12354.32;1802.962;21654.23;-9.422933;5.433134;19564.27;9082.916;-0.1168213;-0.2312891;0;
18028.75;11523.65;4060.265;19697.87;0.4995215;-1.069426;17921.46;8291.448;0.07819809;0.09378001;0;
21450.94;14056.1;6055.836;23296.24;12.42174;-6.024966;21341.01;10431.74;0.2080542;0.4185225;0;
8928.059;5846.331;6371.746;9881.064;-0.0493253;-4.612392;8751.849;3706.915;0.2728125;0.09326525;0;
-22662.29;-16586.89;5601.384;-23456.63;-1.92431;-6.215226;-22667.84;-12264.08;0.1426037;0.02820418;0;
-25921.73;-17201.46;4211.108;-27779.14;-3.932108;-3.663752;-25766.12;-12789.42;-0.117409;0.1581105;0;
-19835.55;-11942.75;2054.583;-21515.42;-9.687958;-3.459122;-19666.37;-8432.836;-0.05232366;0.02801697;0;
-27543.58;-19369.24;154.2385;-29245.06;-2.17711;1.30002;-27278.86;-13460.02;-0.05227109;0.09295617;0;
-4151.745;-2566.684;-124.4327;-5390.577;-1.772781;4.91567;-4065.528;-2656.34;-0.4420226;0.1578301;0;
20850.39;14414.11;591.5669;21928.63;4.056149;5.714526;20760.63;10390.09;-0.1167418;0.1576715;0;
19647.96;12350.66;1808.579;21642.13;12.09002;9.99557;19550.12;9113.892;0.5330489;0.09254576;0;
18165.08;11652.89;4058.037;19821.34;2.834476;3.153511;18052.26;8389.577;0.3376113;0.2223874;0;
21471.98;14077.06;6048.269;23317.48;-1.856445;0.3370595;21360.28;10468.55;0.07740273;0.3520987;0;
9006.332;5937.333;6386.487;9919.071;0.4225963;-2.342474;8830.462;3723.667;-0.05260973;0.2867775;0;
-22697.07;-16602.45;5623.888;-23534.62;-0.8506261;-6.827855;-22698.49;-12292.31;0.01241047;-0.1033147;0;
-25806.84;-17154.82;4244.99;-27678.98;-3.662811;-3.605936;-25659.57;-12760.2;0.1423327;-0.4280476;0;
-19115.93;-11300.88;2108.765;-20831.93;-5.869933;-2.597569;-18974.03;-8009.196;0.3370917;-0.3626501;0;
-27246.21;-19053.36;196.2623;-28962.29;-9.882523;-1.2553;-27015.57;-13109.14;0.2717856;-0.1024164;0;
-4501.11;-2904.896;-85.73072;-5731.943;-13.55726;-1.120073;-4439.553;-2737.178;0.01164318;0.02762122;0;
20846.27;14401.18;647.7056;21910.74;-14.4143;5.579102;20752.23;10406.78;0.2715009;0.1575282;0;
19739.88;12442.13;1857.446;21733.88;-15.27047;9.190575;19644.6;9179.2;0.4011627;0.02743518;0;
18082.82;11569.62;4122.409;19746.57;-17.59965;12.66433;17968.41;8324.012;0.2058576;-0.2324618;0;
21551.7;14154.61;6138.876;23392.55;-19.59072;18.8809;21438.54;10526.96;0.3355854;0.09260855;0;
9110.63;5981.289;6445.676;10017.75;-17.22651;11.89582;8930.946;3830.241;0.4002156;0.02754814;0;
-22629.45;-16588.11;5646.254;-23485.21;-16.13845;12.68766;-22637.62;-12216.31;0.4647808;-0.4922183;0;
-25920.22;-17210.03;4259.618;-27811.46;-14.17888;1.489009;-25767.49;-12792.13;0.2694117;-0.0369523;0;
-19594.9;-11700.37;2111.947;-21326.34;-11.48531;-11.77474;-19432.35;-8305.056;-0.3805324;0.1579869;0;
-27289.99;-19131.74;209.0615;-29028.67;-11.47377;-0.1752291;-27031.68;-13228.08;-0.4451174;-0.426878;0;
-4011.804;-2516.854;-51.6426;-5237.303;-9.720932;0.8966739;-3928.055;-2542.852;-0.05486604;-0.3614817;0;
20924.27;14451.73;667.0793;22009.41;-9.376371;4.378885;20834.68;10419.39;-0.4446149;-0.2961511;0;
19683.46;12395.65;1869.086;21673.39;-7.290845;10.40271;19588.11;9157.583;-0.5741029;0.02898315;0;
18228.07;11711.55;4138.441;19876.92;-9.359625;5.703569;18116.14;8442.252;-0.4435914;0.3537908;0;
21512.27;14117;6133.403;23360.22;-12.63275;6.032753;21402.73;10506.98;-0.2482436;-0.3612055;0;
9158.521;5969.471;6446.236;10095.67;-3.376656;4.887981;8977.166;3768.879;0.2067772;-0.5557446;0;
-22421.47;-16432.63;5671.957;-23259.35;3.190821;5.151002;-22441.55;-12160.98;0.2065694;0.2244219;0;
-25840.63;-17115.86;4268.648;-27718.38;1.178859;1.99775;-25691.43;-12669.87;0.2063619;0.2891638;0;
-19431.89;-11549.36;2107.443;-21139.89;1.980981;-0.8844013;-19262.82;-8120.439;0.07621986;-0.03596351;0;
-27403.16;-19174.12;197.3938;-29122.52;3.586581;2.398529;-27136;-13218.14;-0.3136608;-0.2957967;0;
-4527.438;-2871.348;-78.96264;-5758.107;-0.2344398;2.931983;-4435.63;-2752.889;-0.4432803;0.02933719;0;
20799.07;14362.09;661.4789;21863.25;10.21465;7.282805;20709.14;10361.27;-0.3129002;0.09427507;0;
19739.83;12435.94;1873.533;21728.46;20.98802;9.284975;19642.22;9169.923;-0.1826511;-0.4255584;0;
18055.18;11541.34;4127.017;19717.21;4.422516;15.10292;17944.19;8286.258;-0.3124023;-0.03532675;0;
21466.49;14066.81;6141.386;23300.91;-1.208006;19.24068;21354.67;10439.02;-0.247121;0.2895455;0;
9144.724;6050.619;6461.114;10039.37;-7.770875;20.15899;8966.645;3866.779;0.1429313;-0.1005495;0;
-22709.6;-16646.13;5672.359;-23567.22;-20.49007;23.68883;-22714.76;-12298.09;0.07782038;-0.4252852;0;
-26151.85;-17441.76;4287.041;-28050.55;-9.885932;15.89513;-25991.96;-12969.34;0.01277484;-0.5547925;0;
-19415.2;-11530.45;2137.467;-21161.36;-8.737899;12.2622;-19246.82;-8119.869;-0.1171727;-0.3593331;0;
-27100.81;-18933.67;229.4026;-28831.06;-7.590043;6.489469;-26844.93;-13019.37;-0.4418916;-0.09910265;0;
-4214.059;-2631.08;-35.00764;-5438.117;-3.764024;2.464094;-4137.465;-2594.77;-0.3115129;-0.2939051;0;
20889.95;14466.81;690.5378;21968.53;-7.377564;-3.767673;20796.47;10445.61;-0.05133058;-0.4885118;0;
19748.77;12441.65;1894.863;21745.51;-3.150592;-13.40919;19653.5;9184.714;0.07865568;-0.0982169;0;
18175.02;11658.67;4165.567;19838.15;-15.33759;-2.07584;18062.98;8391.332;0.2085113;0.2267185;0;
