Fp1;Fp2;O1;O2;POLY3;POLY4;A1;A2;Video;Audio;event;
20561.42;15529.63;1135.899;25724.21;19.70166;-6.202621;22046.34;12011.62;-0.05080446;-0.1951619;0;13:27:00 Глаза закрыты;
7366.212;5922.217;1212.313;8920.027;20.68624;-6.263371;7360.641;4287.52;0.209116;0.3897403;0;
-29010.86;-24676.15;435.2031;-30558.61;11.62313;-4.649487;-30411.69;-21464.14;0.1439385;0.3243813;0;
-33486.13;-28176.71;-516.6465;-37483.07;8.396266;-3.238174;-34775.24;-23488.25;0.01385918;0.06418603;0;
-16037.07;-11186.57;-4991.034;-21206.27;12.20622;-4.306647;-17205.66;-6870.772;-0.1160894;0.3889582;0;
-16102.48;-10992.12;-11629.27;-21485.89;9.648362;-4.101371;-17378.13;-7346.392;0.1438966;0.3236001;0;
2040.201;2757.269;-12707.99;-1940.643;17.47555;1.931092;1620.974;1932.548;0.143752;-0.06652915;0;
23504.19;18946.44;-8693.689;26219.37;20.06996;3.804552;24753.75;15339.26;0.3385096;-0.1314296;0;
22446.25;17457.19;-3965.279;28271.65;9.935734;3.532797;24053.57;14195.68;0.4681041;0.1935391;0;
18684.73;14121.94;-338.9125;24139.12;9.590958;5.002872;20124.87;10941.12;-0.1820396;0.1283773;0;
20310;15299.52;1377.831;25336.1;5.696555;1.64882;21769.53;11785.76;-0.2468241;-0.2615557;0;
6916.912;5622.429;1500.79;8119.686;2.140857;1.178283;6825.092;4026.514;0.2731627;-0.06639089;0;
-29429.62;-25002.88;706.5869;-31099.19;14.46357;0.5742525;-30864.61;-21753.48;0.2079208;0.3234799;0;
-33726.92;-28439.26;-123.8155;-37728.25;16.79356;-0.9669319;-35018.44;-23751.05;-0.1171248;-0.3265186;0;
-15880.08;-11017.18;-4132.785;-21131.55;7.264863;4.12462;-17069.57;-6735.894;-0.2469418;-0.4561252;0;
-15816.28;-10682.77;-10569.54;-21200.87;5.649973;5.460135;-17104.33;-6982.389;-0.05179162;0.3239413;0;
1987.434;2702.535;-11647.98;-1905.235;10.13227;1.703726;1551.22;2002.536;0.07819511;0.3885831;0;
23442.96;18877.11;-7444.505;26205.04;10.59061;2.10379;24683.06;15288.16;-0.05181815;-0.1315461;0;
22443.9;17466.62;-2922.716;28257.32;7.498507;1.298003;24052.89;14184.34;0.01320126;-0.2613486;0;
18587.54;14011.18;98.42229;24031.8;8.630049;0.6268692;20027.05;10842.19;0.20809;-0.06618398;0;
20160.47;15188.61;1577.908;25181.23;2.726879;6.788547;21615.21;11662.06;0.1429136;-0.1960521;0;
6384.25;5316.894;1751.047;7609.859;1.384968;8.925057;6281.44;3722.5;0.01283531;-0.2608225;0;
-29864.48;-25303.61;912.4269;-31523.45;8.215104;6.370861;-31311.71;-22078.96;0.2077244;0.194211;0;
-33980.62;-28727.67;241.55;-37981.65;7.336193;8.03891;-35264.31;-24003.05;0.2075157;0.1290485;0;
-16272.58;-11385.66;-3180.801;-21517.4;20.39062;4.011979;-17434.95;-6971.369;0.07737251;-0.1959179;0;
-15436.84;-10319.28;-9219.349;-20926.72;24.32224;1.73065;-16733.82;-6758.999;0.01232743;-0.4555904;0;
2693.156;3311.445;-10331.68;-1319.415;15.45557;12.64676;2238.578;2335.35;-0.182587;-0.3251979;0;
23432.02;18828.1;-6225.808;26191.77;16.31069;13.37087;24679.09;15207.75;-0.3123382;0.2598349;0;
22288.5;17322.1;-2029.253;28110.24;5.309592;12.0179;23891.59;14070.27;-0.247057;0.1296391;0;
18595.12;14017.75;518.4288;24047.21;1.888005;13.07743;20038.99;10822.74;-0.1168741;0.06454153;0;
20074.13;15098.69;1834.48;25023.98;2.957835;2.81614;21503.56;11584.02;0.01317803;0.3893134;0;
6343.088;5252.371;2039.346;7367.311;1.548344;0.8039445;6151.332;3681.788;-0.1167699;-0.0658492;0;
-30025.45;-25478.76;1162.096;-31742.41;4.159732;-4.153478;-31507.06;-22233.57;-0.2465872;-0.3906197;0;
-34486.44;-29195.59;452.4094;-38459.62;4.155552;-7.6994;-35756.85;-24451.7;-0.1164048;-0.1303579;0;
-16871.88;-11998.93;-2905.561;-22135.47;15.00237;-0.7925438;-18042.13;-7595.593;0.1435815;0.2595772;0;
-16546.26;-11362.08;-8957.504;-21944.41;18.3362;-1.126662;-17838.21;-7547.168;0.07846992;0.389251;0;
1476.952;2343.581;-9913.112;-2537.619;21.66667;3.898068;1009.643;1810.012;-0.2464456;0.3238926;0;
23298.53;18806.59;-5457.292;25944.07;25.73074;6.104588;24519.42;15270.63;-0.3111653;0.06369776;0;
22446.22;17436.12;-1457.239;28272.38;14.45175;4.222932;24056.78;14118.81;-0.2458853;-0.261203;0;
18434.92;13883;722.5524;23858.27;11.82526;5.15645;19869.05;10721.14;-0.05073625;-0.001071149;0;
20197.24;15205.24;2023.563;25278.35;10.60793;2.204019;21658.25;11664.45;-0.05068527;-0.06603742;0;
6514.688;5324.814;2260.409;7878.794;6.041947;1.398132;6428.853;3784.025;-0.1156017;-0.3908078;0;
-29652.6;-25132.35;1349.813;-31329.4;5.902154;-1.550522;-31102.29;-21857.36;0.0794165;-0.0006110327;0;
-33756.48;-28470.39;737.7797;-37779.04;1.743038;-3.089572;-35042.5;-23772.83;0.144304;0.3242263;0;
-16252.3;-11341.24;-1960.762;-21481.53;4.15316;-4.626953;-17429.43;-6931.192;0.2740937;0.1289985;0;
-15022.26;-9945.746;-7428.526;-20526.81;5.354435;-6.229894;-16330.92;-6479.607;-0.05101839;0.1288689;0;
3353.476;3809.135;-8577.45;-558.2724;-14.54427;-0.9990874;2939.939;2699.996;-0.4407712;-0.001195309;0;
23657.77;18986.55;-4573.449;26504.26;-20.4915;0.7434727;24930.38;15355.95;0.0144431;-0.4559655;0;
22353.05;17402.9;-1013.25;28165.86;-8.480842;0.8766915;23946.96;14152.07;0.1443633;-0.39054;0;
18714.74;14142.39;926.1218;24167.09;-9.008183;3.755955;20151.38;10943.04;-0.05068381;-0.3251802;0;
20236.05;15242.13;2207.781;25224.49;-3.908917;-0.467622;21676.79;11722.49;-0.1805676;-0.3898208;0;
6620.3;5395.136;2436.634;7710.3;0.716711;-1.940777;6470.818;3832.496;0.0145159;0.2602443;0;
-28968.17;-24482.08;1521.707;-30758.3;-7.656754;10.51975;-30452.05;-21236.37;0.07946865;0.5848195;0;
-33029.34;-27738.6;905.5491;-37045.24;-5.77305;12.11665;-34335.91;-23038.06;-0.3753826;0.3243625;0;
-16084.71;-11178.97;-1615.094;-21335;-3.892215;11.76969;-17285.86;-6765.38;0.07976599;0.7138406;0;
-15033.15;-9916.199;-6944.495;-20507.02;-3.888304;14.30309;-16335.32;-6428.357;0.2745879;0.648156;0;
3401.482;3904.088;-8102.728;-418.9346;8.708882;-2.054753;3008.36;2827.687;-0.1804594;0.2577007;0;
23739.23;19079.94;-4108.387;26638.53;11.98168;-7.009303;25017.88;15460.07;-0.1153108;0.3224091;0;
22519.62;17561.59;-761.8452;28339.13;13.71096;-1.576765;24117.9;14304.72;-0.2451296;0.2571178;0;
18837.06;14275.6;1030.004;24230.56;17.3145;-3.718512;20260.19;11077.98;-0.4397853;-0.003009935;0;
20480.02;15466.62;2367.484;25692.29;9.125432;-3.647793;21952;11950.54;-0.1145067;0.06196045;0;
7197.468;5862.177;2595.974;8825.242;8.78147;-3.912059;7164.32;4272.919;0.6002491;-0.06803651;0;
-28572.9;-24153.89;1657.133;-30172.25;6.830264;-3.70718;-30001.98;-20930.22;0.4697113;-0.2628702;0;
-33514.94;-28212.81;1020.974;-37547.63;5.014739;-3.502506;-34840.37;-23457.96;-0.5052708;0.06223068;0;
-17553.64;-12661;-1497.052;-22683.57;8.627023;-0.7528082;-18753.62;-8191.253;-0.2448937;-0.1977012;0;
-16396.66;-11339.73;-6700.432;-21896.46;7.680349;0.7215728;-17719.13;-7804.166;0.3400584;-0.5873066;0;
3162.761;3601.381;-7590.78;-795.0078;14.83993;-2.159418;2713.036;2590.736;0.209782;-0.1969125;0;
23782.61;19109.92;-3566.296;26641.7;16.96847;-2.492163;25030.5;15501.72;0.07963657;-0.0667799;0;
22271.99;17329.4;-508.6544;28084.68;13.93633;-2.623625;23872.35;14062.33;0.4043933;-0.3265822;0;
18737.98;14162.04;1181.429;24139.38;15.12876;-3.759577;20165.94;10975.96;0.2090849;-0.2612867;0;
20368.83;15377.39;2516.43;25397.17;9.151708;-0.07185965;21832.26;11855.39;-0.3758313;0.2587146;0;
6828.313;5616.918;2731.589;8056.916;7.33385;1.870718;6761.562;4005.856;-0.3104863;0.2584547;0;
-28749.78;-24246;1812.008;-30512.73;8.666628;-6.838821;-30205.53;-21046.64;-0.05030494;-0.001674423;0;
-32892.7;-27598.44;1152.268;-36922.57;7.385122;-7.903677;-34216.63;-22888.57;0.07968029;0.128262;0;
-16287.99;-11381.91;-956.221;-21502.94;10.59288;-3.876759;-17493.31;-6954.431;0.2095349;0.2580678;0;
-15363.83;-10257.52;-5658.943;-20859.29;12.18983;-4.408727;-16680.34;-6787.758;0.07938968;0.06290643;0;
3419.983;3894.496;-6600.983;-433.5822;5.010285;5.508933;3013.533;2798.591;0.01434257;-0.3269608;0;
23798.89;19127.97;-2896.694;26708.87;2.192211;9.522251;25074.15;15506.3;0.3391649;-0.1317303;0;
22384.85;17436.71;-268.4465;28217.09;13.77793;4.690034;23983.43;14182.23;0.2738567;0.06330412;0;
18633.17;14069.16;1215.281;24030.42;14.83582;6.359895;20054.98;10868.34;-0.3111245;-0.06669419;0;
20320.33;15319.08;2610.202;25512.09;14.61984;6.219539;21798.99;11802;-0.1808772;-0.1315945;0;
6945.246;5664.372;2820.644;8554.609;18.62364;6.816135;6926.924;4086.212;0.4040106;0.06343975;0;
-28803.91;-24336.24;1895.632;-30413.7;-2.091705;6.608338;-30231.1;-21108.44;0.3386373;-0.001591352;0;
-32759.42;-27429.69;1242.836;-36849.06;-7.448237;5.462988;-34082.77;-22767.18;0.2083624;-0.4563611;0;
-16196.18;-11282.78;-774.6649;-21373.5;6.826489;13.49521;-17394.61;-6925.721;0.2731203;-0.1960332;0;
-16100.34;-10965.3;-5515.847;-21556.39;6.484837;15.75907;-17405.28;-7368.551;0.07794388;0.1290005;0;
2721.932;3290.075;-6643.329;-1205.26;13.17613;9.580924;2320.337;2395.152;-0.1170365;-0.1959659;0;
23760.31;19135.44;-2863.644;26584.44;16.9803;9.236382;25029.5;15534.56;0.01301583;0.1290678;0;
22426.95;17458.16;-139.4779;28246.5;11.26981;10.23184;24018.86;14179.13;0.07797009;0.1939054;0;
18814.61;14265.1;1326.254;24233.31;12.39757;10.28855;20244.56;11081.58;-0.1170103;-0.001191462;0;
20534.35;15517.09;2716.925;25622.03;14.32749;9.273465;21990.79;11986.35;0.01304197;0.3236465;0;
7114.903;5716.32;2902.834;8487.915;16.12176;9.398113;7022.342;4153.845;0.3378656;0.1284192;0;
-28067.16;-23663.71;1998.823;-29790.14;12.22079;9.455653;-29538.36;-20424.04;0.4024934;-0.1965465;0;
-31992.41;-26668.75;1324.372;-36049.02;11.67265;8.910288;-33326.96;-22041.35;0.01228495;-0.06641436;0;
-15773.35;-10838.79;-499.5585;-20987.05;18.76087;15.39856;-17004.27;-6508.609;-0.4424988;0.2584891;0;
-14837.64;-9759.917;-4704.287;-20333.81;20.28226;17.1915;-16154.15;-6415.456;-0.5070215;0.3231967;0;
4073.838;4403.431;-5674.273;338.5513;23.00854;16.30357;3715.025;3160.477;-0.3765773;0.2579046;0;
24013.64;19279.2;-2305.074;27025.72;24.39194;18.43052;25314.25;15639.54;-0.05136226;0.1926781;0;
22442.3;17512.71;39.90791;28250.04;24.50116;11.64697;24030.22;14272.01;0.1435914;0.3224192;0;
18735.19;14165.77;1423.36;24144.64;24.00802;10.16164;20156.33;10957.36;-0.3762916;0.2571279;0;
20326.52;15322.83;2839.42;25477.11;23.64911;14.23727;21790.71;11805.38;-0.1160442;-0.1329345;0;
6937.222;5613.732;3028.689;8419.694;23.28958;13.21822;6879.533;4064.219;0.1439418;-0.2627356;0;
-28437.02;-23991.15;2115.323;-30139.56;13.21947;18.16155;-29908.16;-20739.16;-0.3109742;-0.3924063;0;
-32213.19;-26898.32;1431.446;-36283.58;9.588862;19.14805;-33566.09;-22259.1;-0.0507924;0.06275938;0;
-15823.31;-10883.18;-369.4472;-20986.57;7.369401;15.10995;-17053.56;-6519.897;0.209128;0.387533;0;
-14801.35;-9766.907;-4499.89;-20301.8;3.610951;14.49193;-16120.12;-6406.182;0.01401585;-0.2625298;0;
4324.165;4547.747;-5336.633;607.5965;6.420362;11.46325;3991.479;3288.229;-0.4407696;-0.00239664;0;
24152.93;19396.66;-1984.313;27212.8;4.270457;10.11208;25475.62;15758.12;-0.5052941;-0.002394232;0;
22441.93;17517.3;145.6114;28252.31;10.56281;7.22165;24027.94;14277.07;-0.1799497;-0.4571632;0;
18768.36;14206.94;1456.369;24172.19;13.16416;5.807874;20188.61;11008.24;-0.5046055;-0.001932466;0;
20441.12;15425.74;2897.211;25616.53;5.582472;4.663329;21919.81;11908.74;-0.1792618;0.1280042;0;
7372.15;5922.569;3093.513;8926.397;8.055109;3.118036;7361.768;4324.935;0.2107224;-0.1969612;0;
-27718.08;-23344.24;2226.714;-29400.89;-3.608259;7.468671;-29152.33;-20136.91;-0.1143261;-0.1967633;0;
-31597.85;-26265.77;1523.532;-35699.21;-7.42205;7.394184;-32938.9;-21626.64;0.01572348;0.1282712;0;
-15613.29;-10658.3;-114.3018;-20782.35;9.32992;10.60193;-16852.38;-6292.638;0.1456424;0.3880116;0;
-14635.28;-9659.902;-3853.276;-20147.58;9.722687;11.93082;-15958.33;-6407.426;0.340398;0.4525891;0;
4753.501;4794.231;-4634.26;1051.959;24.31495;6.962215;4450.299;3399.664;0.4699907;0.3221997;0;
24370.71;19529.08;-1596.565;27460.99;32.26112;7.022202;25705.38;15886.19;0.0797144;0.2569086;0;
22404.3;17520.57;290.2787;28212.03;11.53208;-0.1517831;23985.05;14295.75;0.1446016;0.06174841;0;
18793.39;14212.76;1545.606;24205.58;9.57811;-2.897931;20214.82;11003.6;0.274391;0.06168637;0;
20302.29;15302.94;2981.752;25442.96;10.97501;0.3201618;21783.16;11795.37;0.3390827;-0.003342973;0;
7039.747;5728.882;3163.382;8509.226;7.212933;-0.6179209;7044.611;4174.438;0.4037093;-0.5880457;0;
-27697.54;-23241.55;2302.806;-29413.53;11.29152;2.932673;-29128.1;-19967.87;0.273369;-0.5224875;0;
-31221.86;-25895.91;1594.175;-35341.27;9.605237;3.800505;-32574.49;-21339.83;-0.1167098;0.06274361;0;
-15362.81;-10409.48;-35.49865;-20546.34;8.457486;6.275054;-16595.12;-6200.828;-0.3114945;-0.06725413;0;
-14768.25;-9731.867;-3638.496;-20231.67;8.046846;8.278115;-16101.67;-6411.957;-0.05131217;-0.1971212;0;
4383.013;4570.383;-4275.846;771.4821;3.21599;5.724568;4053.59;3307.463;0.1436414;-0.2618905;0;
24214.4;19427.51;-1344.692;27348.22;2.744244;6.455628;25551.6;15775.39;0.07852974;-0.19666;0;
22364.96;17466.35;341.6869;28146.42;-3.220361;2.899046;23937.46;14242.88;-0.1164512;0.1933416;0;
18660.79;14078.69;1570.46;24099.14;-6.767098;0.8197842;20090.78;10863.08;-0.3112362;0.06321269;0;
20140.82;15153.6;3019.294;25176.7;6.97108;6.512388;21578.47;11651.53;-0.1160214;-0.4565896;0;
6651.039;5412.419;3203.494;7807.093;10.84884;6.907619;6495.176;3886.394;-0.1808722;-0.5210981;0;
-28322.32;-23840.76;2362.946;-30133.76;2.666267;1.944064;-29822.07;-20565.89;0.1441462;-0.06580313;0;
-32010.24;-26689.59;1636.279;-36084.01;4.538622;0.6025738;-33362.28;-22005.49;0.4688381;0.1941324;0;
-17217.81;-12321.53;-1.94835;-22340.8;-0.08763864;2.611334;-18460.71;-7951.53;0.1435303;0.12897;0;
-17791.48;-12646.93;-3715.736;-23215.9;-4.709251;2.943625;-19121.21;-8999.838;-0.246418;-0.001094328;0;
2383.892;2991.751;-4423.457;-1583.074;20.94958;-0.6762891;1950.17;2164.957;-0.6359744;-0.1959953;0;
23895.96;19288.96;-1306.733;26723.6;27.89475;-0.8765584;25145.38;15695.75;-0.3104987;-0.06586363;0;
22316.52;17350.49;497.9859;28145.55;5.897298;-1.009643;23909.1;14068.08;-0.1152847;0.06413724;0;
18596.51;14045.53;1727.461;23980.84;5.019741;-1.343544;20017.03;10867.77;-0.1801362;0.1290401;0;
20489.15;15479.48;3207.59;25632.52;0.0582036;4.820114;21947.28;11958.09;0.1448815;0.3238125;0;
6895.789;5527.047;3352.527;8435.569;-4.496206;7.159552;6803.721;3968.396;0.2097033;-0.001349585;0;
-28899.73;-24494.57;2465.868;-30577.66;5.622368;7.085375;-30392.16;-21249.84;0.27446;-0.3911523;0;
-32378.71;-27035.74;1730.18;-36499.54;5.482997;8.953777;-33733.78;-22411.11;0.2092168;-0.1958572;0;
-16777.56;-11857.58;240.5491;-21896.04;6.414517;9.815558;-18007.98;-7577.741;0.1440393;-0.1956604;0;
-17493.55;-12353.75;-3097.406;-22917.21;6.943935;11.21234;-18825.28;-8753.423;0.2088619;0.1943402;0;
2484.537;3077.194;-3716.153;-1399.373;7.071655;11.06711;2071.989;2254.578;-0.05121736;0.389047;0;
23984.98;19363.62;-967.6419;26893.61;7.734135;11.52487;25254.83;15772.16;0.1437361;-0.2610174;0;
22235.38;17274.23;562.4993;28051.54;4.712254;11.91506;23819.02;13992.23;0.5983631;-0.1308204;0;
18647.29;14090.59;1784.038;24049.66;6.24776;11.09942;20070.32;10911.29;0.4028598;0.1291804;0;
20422.17;15428.02;3262.83;25483;-7.154128;16.31281;21859.79;11896.81;-0.1172837;-0.2607534;0;
6581.862;5335.708;3388.564;7894.251;-12.03706;17.97087;6437.677;3838.992;-0.05219851;-0.06558941;0;
-28376.01;-23880.05;2531.511;-30186.54;3.98359;10.317;-29891.69;-20591.49;0.142756;-0.0655235;0;
-31551.69;-26251.72;1777.563;-35666.77;5.386107;8.230165;-32910.11;-21617.78;-0.1822242;-0.3902944;0;
-15971.2;-11022.82;314.9335;-21169.04;8.796947;12.4417;-17229.4;-6658.22;-0.0521064;-0.0650655;0;
-15347.9;-10332.74;-2741.191;-20861.5;12.20436;12.36221;-16685.48;-7020.188;0.2078153;0.06493458;0;
4355.877;4543.921;-3142.811;706.9316;6.029178;9.335682;4017.262;3228.499;0.01270448;-0.1300327;0;
24228.82;19456.69;-604.8024;27374;5.086091;9.460267;25551.35;15805.03;0.2075937;0.1299673;0;
22266.84;17365.74;651.8927;28060.89;7.157085;6.771444;23841.09;14130.42;0.3373198;0.3247388;0;
18638.53;14062.69;1830.176;24056.66;6.815102;5.893984;20061.75;10846.92;-0.05282316;0.06454311;0;
20169.27;15185.27;3305.048;25234.84;0.9137555;11.91628;21607.36;11669.61;-0.1177374;-0.06545645;0;
6534.787;5300.52;3427.867;7767.999;-0.1588895;13.71285;6391.204;3789.85;0.2072176;0.06454402;0;
-28172.2;-23670.5;2601.821;-30056.11;-3.507632;15.23968;-29679.45;-20387.04;0.2070094;-0.1953902;0;
-31338.97;-26028.53;1829.203;-35537.28;-4.709557;17.70261;-32699.28;-21425.66;-0.05306799;-0.3251286;0;
-16041.36;-11114.77;348.7797;-21274.01;-1.758064;17.61784;-17321;-6833.617;0.07692001;0.1299695;0;
-15697.11;-10620.79;-2691.652;-21181.98;-2.760675;19.20773;-17036.42;-7271.042;0.2717448;-0.1300305;0;
4115.48;4417.152;-3145.046;468.0911;9.565983;19.92524;3824.631;3237.594;-0.05336501;-0.3248018;0;
24332.07;19578.17;-638.6757;27440.8;12.63783;20.30712;25678.94;15957.65;0.0766233;0.1952633;0;
22395.9;17476.87;672.979;28171.52;11.75447;24.03763;23960.65;14229.3;0.4663503;-0.1297696;0;
18633.43;14066.38;1862.283;24044.85;14.95784;25.35314;20060.04;10864.8;-0.05385697;-0.1946066;0;
20221.18;15228.31;3322.192;25263.59;0.2070577;23.78706;21661.56;11709.84;-0.4436069;0.1304257;0;
6510.29;5248.951;3436.764;7719.513;-3.946336;24.43298;6362.492;3796.345;0.1415449;0.1302946;0;
-28240.62;-23764.84;2564.263;-30134.8;0.6793294;20.85846;-29753.14;-20425.11;0.6611413;0.3250657;0;
-31182.18;-25863.87;1774.488;-35371.78;-0.9953164;18.895;-32531.57;-21266.62;0.1407384;-0.1300323;0;
-15903.69;-10944.31;235.1031;-21119.85;-3.338841;23.43073;-17143.61;-6606.36;-0.1842398;-0.7146077;0;
-15654.62;-10635.74;-3007.16;-21163.14;-4.876704;22.60339;-16987.39;-7228;0.2057494;-0.389053;0;
4262.339;4446.586;-3532.248;614.6392;-1.120759;22.31275;3937.29;3234.101;0.1405753;0.196044;0;
24355.13;19570.37;-864.3502;27513.47;-1.186006;21.88843;25691.68;15932.94;0.0104994;-0.193957;0;
22293.43;17395.2;576.2165;28087.13;4.106472;16.90982;23863.07;14157.25;-0.1844132;-0.5835661;0;
18661;14078.14;1789.371;24095.32;7.919762;15.55329;20095.91;10874.13;-0.5090646;-0.1931757;0;
20168.36;15196.94;3241.124;25181.58;-3.273979;10.04519;21589.83;11685.4;0.01118566;-0.1929816;0;
6099.48;4952.051;3345.001;7208.913;-4.408789;6.953877;5901.806;3486.278;0.2060764;0.002114293;0;
-28578.86;-24042.57;2476.887;-30503.36;-0.7880131;8.688446;-30094.88;-20700.77;0.140902;0.3269489;0;
-31065.76;-25764.52;1721.448;-35222.37;-2.059043;6.536263;-32400.54;-21180.72;0.2057278;0.1317184;0;
-15753.1;-10803.44;125.3795;-20919.28;4.640831;12.15614;-16990.95;-6541.77;-0.1193156;0.4564227;0;
-15779.59;-10724.74;-3231.075;-21209.95;5.707895;14.2204;-17091.83;-7280.432;0.01073895;0.3260294;0;
4062.268;4342.296;-3640.699;496.1394;4.362013;6.905089;3747.36;3239.194;-0.05423918;-0.06410225;0;
24315.14;19561.67;-822.4088;27500.41;5.161913;7.0991;25648.63;15933.2;-0.1841194;-0.1290052;0;
22304.38;17397.55;581.6497;28096.37;-2.278013;5.953257;23877.06;14153.56;0.01096766;-0.1938429;0;
18609.19;14025.61;1786.366;24054.7;-5.357183;5.076619;20039.35;10822.77;0.01095664;-0.1286808;0;
20062.13;15105.53;3257.737;25077.45;-1.064892;10.43003;21493.61;11597.31;0.270815;0.06635055;0;
5837.376;4812.534;3348.681;6990.716;-0.4606099;11.02227;5682.843;3365.448;0.5304122;0.001316525;0;
-28885.59;-24262.91;2476.941;-30753.46;-11.31114;15.56604;-30376.43;-20912.51;0.1400752;-0.1935868;0;
-31254.29;-25958.27;1707.79;-35433.48;-14.38123;18.16261;-32592.27;-21322.78;-0.1849022;-0.2583596;0;
-16089.45;-11141.2;127.4459;-21256.96;-5.19073;11.84809;-17318.79;-6826.291;0.1401203;-0.2581;0;
-16529.1;-11446.4;-3250.078;-21946.65;-4.046438;10.63061;-17842.07;-7907.354;0.1399795;-0.4527427;0;
3472.525;3833.29;-3770.768;-158.7935;-4.243443;12.6293;3138.075;2866.711;-0.05506319;-0.2573858;0;
24248.59;19532.29;-959.2341;27383.74;-4.038108;11.47789;25573.39;15918.28;-0.2499099;0.1326769;0;
22287.06;17367.39;545.4114;28078.66;1.189886;9.791911;23857.56;14108.93;-0.3795935;0.06757624;0;
18523.97;13943.31;1762.86;23990.36;2.596186;8.844311;19960.66;10753.99;0.01059201;0.1324757;0;
20005.46;15048.47;3212.984;24903.08;-2.899755;4.81657;21412.58;11528.82;-0.1843207;0.1973099;0;
5556.501;4540.387;3311.064;6465.751;-3.096936;3.271123;5331.094;3131.093;-0.1841355;-0.3875944;0;
-29438.04;-24813.28;2445.39;-31365.22;-11.73499;1.727229;-30955.23;-21438.72;0.2058536;-0.582107;0;
-31761.51;-26477.19;1710.598;-35890.64;-15.20582;-0.3508557;-33085.96;-21848.48;0.2706141;-0.3866201;0;
-16286.52;-11340.27;135.404;-21485.43;-11.84164;5.811683;-17519.13;-7009.315;0.3353095;-0.2562969;0;
-16187.37;-11128.99;-3181.175;-21684.65;-12.83412;6.743604;-17502.4;-7675.09;0.01013592;-0.3210067;0;
3917.598;4224.976;-3555.257;217.0451;-11.95057;4.794445;3587.513;3138.315;-0.3796783;-0.3856515;0;
24287.25;19546.39;-771.5041;27410.42;-12.3407;5.727267;25616.41;15923.97;-0.1194275;-0.190362;0;
22277.78;17365.88;620.0564;28060.15;-5.764218;2.238521;23850.22;14117.55;0.1405619;-0.1901707;0;
18558.57;13971.89;1834.901;23991.14;-3.079109;2.169289;19988.23;10771.39;0.010486;0.06988975;0;
20043.71;15088.68;3296.727;24992.6;-7.094503;1.966161;21465.17;11580.62;0.01047546;0.3946562;0;
5567.257;4559.284;3391.912;6590.646;-5.881926;1.763236;5381.883;3151.903;0.01046494;0.264325;0;
-29443.24;-24818.3;2511.57;-31373.62;-9.224918;7.052994;-30949.97;-21440.25;-0.1194803;0.3939941;0;
-31614.21;-26320.47;1744.321;-35839;-9.818861;10.06014;-32958.19;-21678.45;-0.2492949;0.06876149;0;
-16994.04;-12068.94;96.75505;-22186.91;-6.995956;8.040543;-18235.8;-7735.398;-0.1840771;-0.3211116;0;
-17957.83;-12825.61;-3412.828;-23398.3;-6.251992;9.439105;-19273.9;-9220.906;0.01100993;-0.1908543;0;
2837.692;3362.161;-3911.943;-987.9146;-5.910917;16.12767;2494.708;2499.238;-0.3788052;0.1341742;0;
24185.41;19536.48;-965.226;27175.63;-5.570186;18.18793;25500.68;15950.46;-0.2484899;0.06907201;0;
22302.98;17342.27;617.3707;28112.32;0.5983293;22.2555;23874.94;14064.64;0.07659651;-0.1258994;0;
18703.08;14146.72;1856.237;24124.89;2.673833;24.51056;20139.66;10970.18;-0.3132845;0.1340964;0;
20391.78;15394.81;3302.925;25427.81;5.283114;21.67264;21804.33;11868.56;-0.2480024;-0.06094033;0;
6105.207;4843.576;3378.488;7324.8;9.632063;21.71785;5888.018;3439.696;0.07708354;-0.3857158;0;
-28815.41;-24337.09;2486.915;-30709.38;-5.649236;16.47148;-30320.17;-20924.47;0.3368754;0.004475813;0;
-30945.07;-25630.9;1728.062;-35140.71;-11.06954;13.5078;-32251.11;-21112.62;0.4664716;0.06943867;0;
-15825.02;-10874.44;150.1802;-20992.54;8.097966;14.36501;-17056.89;-6705.839;0.07619888;0.0693689;0;
-16146.1;-11118.2;-3202.879;-21585.74;9.027834;12.47505;-17443.31;-7725.054;0.01115497;0.3941359;0;
4181.598;4424.463;-3642.922;598.2431;5.536139;9.582373;3898.264;3270.466;0.01114376;0.3287725;0;
24518.3;19755.5;-814.9941;27716.63;7.807752;7.563256;25863.9;16119.56;-0.4436388;0.00360546;0;
22406.85;17497.9;626.7411;28207.06;-8.275997;9.632128;23980.05;14266.93;-0.1833237;0.1985039;0;
18759.58;14179;1815.951;24197.73;-12.01873;10.29228;20193.4;10984.11;0.3365992;0.3282391;0;
20147.6;15176.41;3263.866;25207.07;-7.853464;3.985663;21590.17;11672.75;0.2063264;-0.06189478;0;
5824.562;4707.942;3348.98;7089.366;-9.453163;2.106136;5700.403;3320.719;0.1411517;-0.3866693;0;
-28651.82;-24083.54;2486.625;-30506.49;-4.620893;8.869174;-30119.71;-20656.79;0.2059772;-0.3213134;0;
-30404.2;-25113.93;1724.82;-34629.06;-4.281457;9.731041;-31732.03;-20576.4;-0.1190665;-0.1260885;0;
-14909.53;-9945.123;219.4053;-20110.76;2.019484;8.381604;-16139.72;-5759.556;-0.0539795;0.06894019;0;
-14963.67;-9963.772;-2896.233;-20406.99;3.758767;8.641114;-16275.41;-6593.253;-0.1838599;0.2637729;0;
4705.623;4816.143;-3273.945;1225.823;5.362581;7.024841;4417.881;3630.783;-0.5085119;0.2635079;0;
24490.79;19679.39;-655.2976;27766.97;8.638746;6.347953;25851.76;16053.64;-0.2481316;0.06834111;0;
22413.54;17527.05;655.1088;28194.03;-8.382867;4.935055;23980.1;14291.37;0.2068891;-0.06166226;0;
18752.33;14157.94;1854.738;24214.75;-12.66135;3.925352;20190.79;10967.27;0.3366159;-0.06160031;0;
20118.06;15164.73;3299.663;25070.1;-9.031307;2.782698;21536.05;11656.86;0.401245;0.003428933;0;
5440.59;4426.74;3369.42;6477.427;-11.83527;2.511971;5237.608;3074.693;-0.1188969;0.1333602;0;
-29077.08;-24458.21;2524.301;-31009.46;-5.594089;0.6339243;-30576.81;-20983.87;-0.8983855;-0.06167585;0;
-30055.53;-24794.31;1755.244;-34318.84;-3.311292;0.4323386;-31391.32;-20419.84;-0.7025807;-0.2565159;0;
-14177.62;-9208.671;293.5574;-19451.47;-8.063387;3.178204;-15449.23;-5226.711;-0.3120708;-0.1912908;0;
-14368.86;-9406.313;-2675.823;-19830.21;-7.453048;3.84484;-15696.74;-6192.346;-0.05188783;-0.2560659;0;
5124.346;5139.44;-3096.64;1679.102;-2.690137;9.132506;4850.552;3758.658;0.273001;0.1339954;0;
24504.67;19663.63;-661.2515;27820.43;-2.351665;11.73554;25872.39;15996.18;0.337694;0.4586975;0;
22197.18;17326.55;613.2258;27975.09;3.946361;9.915334;23761.93;14127.88;0.2074201;0.3932692;0;
18643.03;14035.8;1813.631;24106.31;6.019477;10.44111;20081.48;10819.2;-0.1825924;0.3279067;0;
20045.44;15105.47;3247.837;24949.39;0.6547937;13.44485;21454.51;11614.66;-0.2473763;-0.06222681;0;
5254.363;4306.382;3327.672;6204.403;1.256372;15.10592;5032.102;2966.207;0.3375784;0.06777041;0;
-29486.16;-24839.28;2470.148;-31415.78;-10.0644;8.593515;-30992.22;-21372.03;0.5971085;0.1326697;0;
-30670.09;-25407.28;1697.522;-34909.71;-14.67598;7.64712;-31995.42;-20894.34;0.4016065;-0.1923004;0;
-14898;-9943.131;207.1274;-20139.38;-7.092775;8.644179;-16138.46;-5788.212;0.01139893;0.392599;0;
-15240.24;-10222.82;-2823.12;-20694.95;-8.223748;7.295835;-16560.43;-6823.279;-0.1835146;0.06736775;0;
4329.944;4513.329;-3259.516;784.8376;-6.273102;12.24512;4021.886;3368.286;-0.1183628;-0.5823734;0;
24192.19;19406.26;-768.3661;27429.14;-5.597214;12.2998;25543.78;15778.22;-0.05327654;-0.1270168;0;
22151.06;17258.55;586.2566;27923.33;-3.581857;13.96201;23714.9;14030.22;0.141679;0.1979475;0;
18566.67;13963.24;1808.631;24047.99;-0.2293559;14.48385;20013.13;10764.12;0.206504;0.002846603;0;
19867.15;14942.51;3216.542;24676.92;-11.48226;9.98156;21256.48;11443.94;-0.1835075;0.0678111;0;
4760.789;3889.311;3303.593;5515.463;-13.88162;9.234717;4471.982;2597.01;0.07654621;0.1976776;0;
-30094.18;-25414.85;2468.489;-32094.4;-3.486169;1.522523;-31614.95;-21913.94;0.206404;-0.06239036;0;
-31120.5;-25866.97;1717.354;-35355.77;-2.946803;-2.095963;-32423.2;-21314.21;-0.3785095;-0.517099;0;
-15447.69;-10504.28;222.519;-20676.54;0.003894996;-0.4192835;-16675.74;-6258.833;-0.2481945;-0.2567101;0;
-15804.39;-10762.26;-2936.023;-21237.4;2.012647;-2.361367;-17101.73;-7330.47;-0.05304307;0.1333519;0;
4106.617;4412.931;-3475.285;527.8073;-2.476378;-1.689165;3805.126;3243.74;0.01197757;-0.1916188;0;
24166.89;19440.19;-895.5255;27393.32;-2.206446;-2.625229;25515.84;15802.96;0.1419002;-0.4512956;0;
22156.68;17250.01;550.1013;27938.8;-5.754202;0.19057;23728.2;14022.72;0.0767903;-0.2559402;0;
18556.88;13963.62;1752.444;24023.03;-7.489732;1.396071;20007.65;10764.12;0.07671314;-0.1907157;0;
19894.8;14980.51;3151.245;24775.98;-2.860507;-2.021339;21281.16;11482.74;0.01166871;0.06934536;0;
4849.483;3988.897;3251.932;5735.334;-1.451113;-1.349479;4561.141;2649.226;0.07662433;0.1992104;0;
-30031.89;-25355.86;2406.916;-31989.7;-6.74094;-4.429338;-31544.92;-21877.78;0.1415147;0.004108162;0;
-30791.57;-25546.46;1682.142;-35049.44;-7.805894;-4.826785;-32098.9;-21036.68;0.07640514;-0.06086331;0;
-15308.22;-10351.19;81.61468;-20521.48;-0.02851824;-3.34831;-16541.92;-6230.894;0.3361977;-0.1907368;0;
-16294.56;-11256.73;-3337.764;-21691.7;0.5073739;-4.014775;-17592.57;-7727.956;0.01102321;-0.0606105;0;
3821.854;4087.998;-3838.626;224.671;6.066569;3.491225;3501.105;3139.413;-0.3787919;0.2642871;0;
24226.41;19478.4;-1006.347;27416.5;9.677796;5.564066;25563.79;15862.19;-0.313444;-0.1907498;0;
22232.15;17324.93;531.0017;28011.68;-4.3981;4.419888;23807.83;14082.29;-0.118227;-0.3854602;0;
18688.07;14095.8;1749.949;24156.26;-7.743559;5.821966;20135.78;10914;-0.2480429;0.06969852;0;
19981.05;15046.71;3158.997;24834.4;-2.578215;2.266143;21372.52;11540.55;-0.3777283;0.1345958;0;
4749.654;3846.448;3236.454;5610.546;-4.383309;2.1299;4473.484;2538.851;0.01245527;0.4592973;0;
-30113.41;-25446.51;2382.364;-32070.42;-4.647325;-1.422214;-31614.86;-21952.2;0.1423774;0.4588358;0;
-30892.49;-25645.11;1649.775;-35139.82;-4.709028;-3.765187;-32188.52;-21097.71;-0.05266765;-0.1263313;0;
-15902.24;-10950.27;63.27327;-21081.46;-10.79986;2.869784;-17128.33;-6746.053;0.1422873;-0.1911717;0;
-16574.7;-11585.28;-3146.365;-21995.83;-13.13354;4.139576;-17865.31;-8154.313;0.2071117;-0.06104497;0;
4211.129;4371.523;-3492.106;570.7183;-8.231197;-1.156113;3891.023;3248.137;-0.1179331;0.1988858;0;
24294.72;19503.15;-834.6965;27505.45;-8.222927;-2.829524;25628.19;15867.58;-0.3127167;0.5235226;0;
22096.51;17214.96;594.7366;27877.38;-8.281037;4.943217;23672.42;13997.66;0.01243426;0.1981599;0;
18805.88;14189.17;1867.952;24283.52;-7.067267;6.478735;20262.8;10990.39;0.07738911;-0.06190862;0;
19924.86;15031.9;3253.331;24693.48;-11.34707;-1.699448;21302.15;11538.3;-0.2475254;0.4578923;0;
4208.51;3502.9;3296.898;4887.514;-11.67047;-3.50628;3893.731;2270.222;0.07756006;0.5223996;0;
-30877.6;-26114.39;2434.72;-32858.96;-10.31859;-1.895166;-32380.76;-22558.96;0.6621881;0.1320706;0;
-31477.54;-26250.29;1687.148;-35724.02;-10.44292;-1.960245;-32757.96;-21619.72;0.5965555;0.00200322;0;
-15691.22;-10753.84;94.98641;-20954.68;-7.753111;-7.986617;-16910.01;-6438.238;0.4660214;-0.1279335;0;
-16256.25;-11211.4;-3234.326;-21698.34;-7.209457;-9.519199;-17548.44;-7623.826;0.07574908;-0.06283759;0;
3710.396;4037.397;-3736.635;64.32011;-7.001143;-5.28971;3370.19;3111.895;-0.3790984;0.002192895;0;
23941.46;19207.49;-1030.863;27119.41;-7.797415;-4.815636;25268.36;15606.94;0.01108654;-0.322646;0;
21990.55;17094.59;473.7917;27773.97;-1.560289;-0.8588044;23571.04;13852.49;0.2059774;-0.3223218;0;
18555.09;13934.88;1693.593;24055.56;1.790181;1.017459;20017.59;10749.73;-0.1840336;0.06780612;0;
19748.74;14879.79;3066.091;24411.13;-15.76139;3.762737;21105.2;11385.03;-0.3137833;0.002770627;0;
3684.121;3120.493;3117.405;4185.025;-20.03148;6.304185;3328.055;1925.682;-0.2485007;-0.1271668;0;
-31566.16;-26746.15;2223.017;-33581.89;-13.98314;3.551672;-33064.64;-23157.29;-0.05334901;0.3277324;0;
-31726.61;-26519.33;1509.126;-35980.95;-17.65376;4.552848;-32993.71;-21867.53;-0.1182627;0.1974684;0;
-16092.9;-11184.7;-321.9399;-21337.36;-5.04274;1.801973;-17302.61;-6835.383;-0.1831113;-0.5173708;0;
-17422.73;-12351.12;-4262.261;-22835.92;-0.2822508;0.4605035;-18722.23;-8628.828;0.2068768;-0.3219489;0;
2737.34;3274.55;-4902.982;-1099.03;-17.76439;5.684587;2325.573;2513.199;-0.1181678;-0.1267234;0;
23734.17;19099.59;-1660.839;26755.89;-18.54985;6.348705;25015.77;15507.47;-0.5728204;-0.1265961;0;
21865.46;16932.18;296.722;27670.45;-16.58883;5.002789;23453.28;13677.63;-0.2474082;0.1983678;0;
18546.8;13934.24;1598.02;24016.38;-17.10802;4.796813;20006.43;10756.42;-0.3121269;0.1981685;0;
19879.52;15023.96;2959.167;24546.37;-12.00062;5.796616;21240.95;11522.21;-0.3767806;0.003067344;0;
3386.555;2884.76;3007.308;3979.799;-12.59177;5.187945;3038.543;1737.513;-0.1165327;-0.06190308;0;
-32047.69;-27190.15;2106.878;-34042.53;2.223988;4.64699;-33560.1;-23583.97;0.2084211;0.003126462;0;
-32069.89;-26890.61;1417.388;-36322.3;7.245595;3.838526;-33351.23;-22213.49;0.3381464;0.1980254;0;
-16113.25;-11189.78;-395.3917;-21388.95;-4.282261;-0.7200485;-17342.39;-6785.737;-0.1169648;0.132859;0;
-16714.43;-11655.04;-4255.46;-22151.37;-4.612751;-2.795796;-18007.04;-8000.32;-0.0518799;-0.2570785;0;
3403.134;3823.456;-4825.536;-211.9288;-9.297165;-3.462816;3063.686;2993.399;0.01313957;-0.3217875;0;
23799.62;19101.64;-1649.188;27004.76;-11.76607;-3.325371;25123.92;15532.51;-0.441645;0.003372494;0;
21851.79;16934.43;254.3726;27640.64;-15.30422;-9.015456;23431.31;13666.61;-0.3762339;0.06833646;0;
18504.09;13876.33;1560.788;23992.96;-18.16923;-10.07813;19964.66;10706.17;-0.2459212;-0.0616669;0;
19729.4;14900.52;2915.085;24375.63;-17.21297;-4.307588;21087.04;11392.35;0.14413;0.3931665;0;
3132.503;2741.437;2966.488;3676.331;-19.80764;-4.370243;2783.43;1548.375;0.4038545;0.4577388;0;
-31724.39;-26819.15;2089.978;-33759.64;-9.137819;6.485139;-33231.55;-23209.88;-0.11629;0.06747477;0;
-31002.6;-25869.15;1416.106;-35308.48;-6.382947;9.82777;-32276.63;-21273.5;-0.05120583;0.1323743;0;
-15141.48;-10185.26;-357.0667;-20449.97;-13.40913;6.200817;-16373.31;-5897.189;0.01381296;0.1972086;0;
-15335.72;-10435.41;-4114.991;-20784.69;-13.59673;7.534245;-16631.62;-7007.843;-0.1161356;0.3269452;0;
4801.479;4807.325;-4631.469;1208.999;-14.85586;-0.7789654;4490.778;3621.157;-0.4408556;0.4565513;0;
24064.24;19239.63;-1539.82;27328.51;-14.63987;-2.98862;25411.31;15597.06;-0.310478;0.5210599;0;
21867.73;16988.76;283.5923;27673.3;-22.12724;-8.210163;23446.86;13783.62;0.07963806;0.5855037;0;
18852.82;14232.62;1621.026;24271.97;-24.31484;-12.22077;20305.85;11027.88;-0.115344;0.1951113;0;
20388.78;15479.09;3004.169;25368.1;-17.79367;-7.65377;21799.63;11996.01;-0.3101301;-0.1948888;0;
4272.214;3508.324;3044.301;5422.358;-16.23555;-8.78479;4042.214;2279.227;0.01501822;-0.389595;0;
-31306.4;-26586.29;2111.772;-33150.14;-13.74099;-6.565526;-32758.45;-23018.22;0.4048072;-0.3892035;0;
-31545.28;-26317.61;1398.07;-35817.37;-11.7848;-6.35798;-32810.54;-21612.01;0.2744657;-0.06397572;0;
-15647.44;-10741.28;-462.5408;-20848.99;-2.595932;-5.413831;-16823.68;-6359.059;-0.2455488;-0.1288788;0;
-16709.85;-11636.86;-4570.401;-22132.25;2.028377;-5.341408;-17969.77;-7798.739;-0.1153674;-0.3236513;0;
3041.175;3515.522;-5144.846;-682.9964;-2.930154;-7.613461;2677.123;2939.641;-0.0502841;-0.1284241;0;
23756.19;19087.79;-1641.013;26854.44;-2.793488;-8.208657;25059.53;15537.48;-0.05023358;-0.1932624;0;
22015.38;17078.25;338.688;27821.04;0.3571506;-13.96076;23609.06;13800.92;0.01478424;-0.1930682;0;
18689.35;14087.58;1634.446;24125.54;0.4241407;-15.01846;20152.47;10931.17;-0.1801326;0.2618972;0;
20420.05;15506.91;3052.7;25338.97;-5.604506;-21.76846;21817.54;12000.13;0.2098524;0.2616341;0;
3994.463;3234.863;3075.26;5075.337;-8.144469;-24.76076;3730.688;2043.152;0.4695109;-0.2583676;0;
-31477.11;-26766.39;2145.776;-33401.79;-13.02543;-16.96604;-32941.93;-23165.92;-0.05069958;-0.06320594;0;
-31353.05;-26157.93;1458.73;-35684.46;-18.77312;-16.74804;-32609.88;-21472.06;-0.115616;0.06679226;0;
-16378.01;-11469.26;-450.9796;-21557.97;-9.711925;-6.617037;-17557.09;-7082.581;0.2093369;-0.3230789;0;
-17331.44;-12301.95;-4500.303;-22759.6;-9.568444;-1.11791;-18594.88;-8622.14;-0.1157102;-0.06288492;0;
3563.45;3940.765;-4951.021;-171.2625;-18.0653;-7.614009;3204.79;3117.564;-0.4404306;0.06711297;0;
23941.36;19233.82;-1532.575;27080.38;-16.50593;-5.061007;25250.02;15638.34;0.01478334;-0.3877259;0;
21819.98;16900.73;344.6317;27621.37;-33.30218;-8.20412;23409.79;13650.17;0.4695399;-0.06249958;0;
18758.57;14136.02;1648.552;24212.33;-38.69373;-10.27222;20226.48;10965.03;0.3391334;0.2623999;0;
20242.25;15365.2;3026.436;25024.32;-20.10167;-0.549622;21612.23;11865.75;0.40376;0.1322016;0;
3475.981;2881.039;3023.067;4270.499;-19.41091;-0.4820868;3148.882;1742.46;0.1434849;0.2620035;0;
-31732.44;-26939.12;2129.711;-33719.46;-7.93818;-1.084449;-33216.36;-23302.8;-0.181496;0.3267075;0;
-31000.13;-25839.92;1434.186;-35304.89;-2.169427;-0.7484445;-32250.94;-21211.14;0.01358842;0.1964446;0;
-15269.23;-10367.51;-372.9259;-20535.25;-11.27693;-10.45997;-16462.11;-6037.568;-0.3762293;0.3911492;0;
-16037.16;-11028.34;-4236.906;-21478.14;-9.859076;-13.53068;-17297.64;-7464.641;-0.5707533;0.3257888;0;
4023.125;4323.518;-4790.868;427.843;-18.08819;-18.00482;3714.171;3368.715;-0.3752778;-0.06434258;0;
23950.64;19198.63;-1538.53;27186.38;-21.1505;-22.67541;25292.56;15603.69;-0.3099333;-0.3241473;0;
21868.24;16960.6;358.282;27668.58;-21.39767;-18.03092;23451.89;13723.86;-0.1147199;-0.06395223;0;
18616.29;13980.83;1662.048;24083.1;-24.18921;-18.54867;20086.89;10796.85;-0.2445393;0.1310141;0;
19965.15;15111.78;3042.683;24767.88;-20.61493;-21.27627;21329.23;11622.94;-0.1143589;-0.1939543;0;
3058.295;2581.698;3054.805;3886.699;-20.66156;-20.11618;2729.73;1497.95;0.2755601;-0.2587267;0;
-32268.66;-27421.91;2144.754;-34202.98;-16.88976;-23.51204;-33717.23;-23733.36;-0.5043249;0.06636994;0;
-31814.65;-26658.6;1451.822;-36044.08;-13.85868;-23.5554;-33012.46;-21955.67;-0.8286549;-0.06363145;0;
-16250.46;-11317.01;-383.5436;-21412.61;-17.1263;-16.69959;-17392.33;-6868.294;-0.04821415;-0.1935022;0;
-16288.39;-11321.9;-4168.224;-21738.99;-16.03737;-15.07528;-17523.28;-7773.481;0.4066057;-0.06337307;0;
4274.104;4472.514;-4551.482;607.6281;-12.53863;-10.03648;3968.673;3426.579;0.4061971;0.1315926;0;
23807.33;19027.94;-1372.785;27031.08;-11.99017;-7.68211;25151;15419.76;0.210887;0.06649307;0;
21528.28;16637.77;361.2543;27297.55;-6.217344;-7.942323;23112.21;13413.38;-0.179129;-0.2584105;0;
18449.82;13798.72;1656.459;23867.49;-3.398057;-6.460718;19919.63;10610.26;-0.373851;-0.1931835;0;
19888.05;15063.09;3040.567;24506.64;-12.90549;-12.28162;21257.4;11577.26;-0.113606;0.1318474;0;
2626.814;2273.3;3055.581;3232.793;-15.37174;-13.54189;2313.944;1250.436;0.01644282;0.06674755;0;
-32845.18;-27940.39;2166.534;-34800.42;-7.585789;-16.00665;-34286.84;-24198.84;-0.2434431;-0.06325422;0;
-31611.75;-26500.04;1482.215;-35879.28;-6.50644;-18.60278;-32839.76;-21807.14;-0.1782311;0.001776679;0;
-15541.18;-10626.49;-211.3923;-20820.56;-8.241214;-15.03412;-16729.44;-6185.536;0.01685;0.1317096;0;
-15836.08;-10898.94;-3819.975;-21285.13;-4.549238;-15.62186;-17077.33;-7345.531;0.08180042;0.1965446;0;
4501.168;4631.323;-4266.286;929.6791;-16.66846;-15.13728;4222.94;3599.289;0.01675088;0.1963471;0;
23981.71;19180.85;-1249.419;27278.39;-19.26368;-15.05509;25335.83;15583.26;0.3415708;-0.06371957;0;
21638.92;16750.31;414.9688;27454.55;0.3805818;-13.43237;23224.64;13516.89;0.2762602;-0.1286229;0;
18477.3;13832.79;1696.673;23940.95;3.126866;-11.2085;19955.53;10652.39;-0.4386581;0.001441039;0;
19979.35;15134.61;3092.11;24787.35;13.84099;-19.77087;21348.38;11648.41;-0.2433154;-0.06352775;0;
2902.064;2453.862;3096.171;3780.348;20.59224;-21.35853;2582.802;1393.184;0.3416352;0.06647078;0;
-32433.09;-27581.46;2203.335;-34361.16;10.45652;-16.17951;-33881.07;-23865.46;0.1463899;-0.128498;0;
-31597.41;-26467.76;1527.335;-35899.04;12.32202;-16.76609;-32806.15;-21748.86;-0.1136266;0.001565749;0;
-16233.16;-11294.39;-190.5401;-21458.09;-0.6848071;-10.85487;-17381.81;-6815.281;-0.1784797;0.4563356;0;
-16181.95;-11252.45;-3660.229;-21674;-8.521;-9.035548;-17415.71;-7790.236;-0.0483657;-0.06386169;0;
4763.434;4837.653;-3929.961;1183.175;9.171056;-10.43299;4483.508;3655.857;-0.0483171;-0.1287649;0;
23973.91;19150.28;-1045.398;27301.33;9.027143;-8.346157;25333.44;15533.12;0.3415355;0.1312339;0;
21478.21;16598.52;444.4669;27270.74;-0.09063025;-16.64341;23059.16;13383.55;0.4061597;-0.06380001;0;
18436.05;13784.95;1695.219;23898.8;-0.5600297;-18.7031;19917.41;10590.78;0.0159475;-0.0637359;0;
19838.45;15000.48;3030.984;24483.39;-12.14739;-12.72301;21180.22;11518.48;0.08089881;0.001295484;0;
2486.572;2055.967;2991.192;3098.21;-16.82326;-12.91117;2114.195;1038.873;0.01585019;0.3261309;0;
-32876.57;-28018.45;2117.28;-34871.51;-10.37599;-11.08966;-34336.95;-24274.48;-0.04913308;0.2608359;0;
-31484.1;-26353.06;1496.839;-35766.73;-11.90679;-10.27472;-32688.87;-21691.61;-0.2439857;0.1306391;0;
-15396.89;-10454.95;-69.50392;-20646.32;-8.411222;-9.594566;-16561.08;-6039.778;-0.4386426;0.3903772;0;
-15194.42;-10277.09;-3315.349;-20650.73;-6.99625;-8.446338;-16427.89;-6870.04;-0.1133651;0.1950829;0;
5178.285;5226.856;-3490.678;1713.727;-12.14678;-10.5142;4934.354;3993.391;-0.5030553;0.2598542;0;
24066.38;19230.94;-763.0714;27466.31;-12.87151;-9.967772;25451.06;15614.33;-0.3726151;0.1946258;0;
21601.52;16720.79;518.8014;27403.31;-11.8542;-13.77572;23181.56;13510.08;0.2124653;-0.3253085;0;
18415.48;13762.89;1700.498;23888.49;-12.37815;-15.70432;19892.33;10567.62;-0.0476175;-0.1300796;0;
19913.25;15074.53;3029.48;24699.07;-12.90158;-9.794168;21287.05;11595.42;-0.04756966;-1.423219E-05;0;
2655.326;2230.787;2971.37;3497.976;-12.2854;-9.85131;2352.543;1222.694;-0.1124892;-0.1949162;0;
-32713.02;-27847.35;2084.219;-34655.16;-18.70342;-9.372531;-34140.24;-24081.54;0.01755851;-0.1297531;0;
-31192.77;-26075.4;1465.295;-35508.58;-20.69436;-8.894355;-32389.68;-21427.25;-0.04742647;-0.1296227;0;
-15476.94;-10537.99;-200.388;-20680.98;-12.70199;-14.84672;-16619.73;-6139.397;-0.1773135;0.0004422568;0;
-15550.34;-10644.37;-3734.847;-20968.88;-11.14898;-17.64502;-16758.84;-7235.752;0.1477014;0.2603112;0;
5174.109;5175.583;-4071.627;1716.418;-9.128048;-14.2782;4947.625;3927.926;-0.1772837;0.0001802505;0;
24093.62;19246.98;-1107.758;27495.83;-5.769973;-14.66576;25479.53;15628.91;-0.04717093;-0.194722;0;
21469.12;16588.06;445.138;27256.15;-8.242422;-23.15767;23050.11;13380.05;0.5375825;0.1952778;0;
18376.86;13734.07;1659.486;23813.54;-6.225384;-25.14383;19858.06;10540.58;0.4071077;0.3250162;0;
20029.24;15154.08;2993.476;24718.55;-5.213775;-27.8648;21406.81;11674.11;0.3417313;-0.06511441;0;
2842.868;2261.809;2961.357;3572.506;-5.343234;-30.85091;2545.666;1235.991;-0.1783508;-8.163966E-05;0;
-32425.53;-27637.95;2087.335;-34385.98;6.920621;-21.30858;-33841.49;-23883.44;-0.1132043;0.4546899;0;
-30787.94;-25649.01;1470.469;-35078.14;11.40067;-18.94283;-31968.91;-21016.29;0.2117462;0.259331;0;
-15071.37;-10141.93;-108.6219;-20270.56;3.887126;-21.73702;-16217.27;-5772.793;-0.43814;-0.5855051;0;
-15031.45;-10142.45;-3326.052;-20452.49;4.285362;-19.30385;-16261.07;-6786.917;-0.4376997;-0.3900147;0;
5500.829;5467.761;-3544.411;2083.747;1.802809;-20.62405;5265.394;4168.071;-0.04745589;0.3899853;0;
24052.29;19183.73;-874.7676;27505.58;-2.418561;-19.06278;25442.79;15551.44;-0.1773429;0.2596587;0;
21472.17;16609.46;479.3687;27246.55;9.640309;-17.9719;23054.31;13413.18;-0.3070994;-0.2603409;0;
18382.53;13719.37;1699.445;23809.64;11.57301;-18.02082;19861.46;10512.87;-0.2418235;-0.2600794;0;
19846.28;15021.17;3028.491;24565.5;-4.045036;-8.156532;21221.45;11551.5;0.08325623;-0.3897527;0;
2358.618;1979.204;2992.136;3117.005;-6.117076;-5.402036;2054.518;1061.267;0.1481399;-0.1944591;0;
-33324.85;-28437.42;2109.775;-35270.35;-11.13477;-9.013564;-34758.48;-24619.5;0.08302372;0.2605078;0;
-31857.22;-26745.37;1490.418;-36145.17;-14.40611;-8.937525;-33056.58;-22022.07;-0.04699438;-0.2594928;0;
-15887.41;-10930.12;-92.64358;-21095.37;-7.961277;-9.598373;-17021.92;-6407.766;-0.04694716;-0.1942647;0;
-15297.75;-10421.34;-3322.13;-20749.29;-7.551136;-9.990626;-16512.38;-7076.909;-0.241802;0.0008325501;0;
5654.375;5555.779;-3444.073;2162.166;-3.926226;-16.54479;5389.086;4208.923;-0.1116244;-0.129103;0;
24133.53;19256.4;-706.674;27541.11;-3.386417;-19.20742;25496.42;15646.71;0.1483572;0.1958635;0;
21483.55;16613.67;584.7935;27284.18;9.610455;-18.98718;23066.98;13403.26;-0.3065633;-0.1941374;0;
18398.77;13756.64;1793.848;23855.8;16.70172;-20.84356;19872.1;10557.28;-0.5011573;-0.323877;0;
20045.18;15154.76;3141.617;24829.83;-2.405075;-16.93773;21427.26;11680.68;-0.3057517;0.001285136;0;
3148.818;2495.341;3108.616;3981.517;-3.474385;-15.51407;2865.581;1441.632;0.01939223;-0.1286508;0;
-32611.79;-27857.41;2217.314;-34554.54;-3.873036;-16.90512;-34040;-24127.2;0.08434008;0.001413113;0;
-31533.11;-26375.4;1567.599;-35835.19;-8.088703;-15.68244;-32732.08;-21671.2;-0.1106467;0.3912158;0;
-15845.61;-10925.68;67.76116;-21047.67;5.583455;-14.05915;-16985.45;-6460.007;-0.1105355;0.260888;0;
-15941.55;-11026.79;-2995.595;-21360.96;6.783293;-13.24123;-17148.55;-7533.458;0.01951024;0.3255932;0;
5052.95;5094.006;-3068.938;1634.623;5.839448;-9.008063;4830.451;3954.388;0.01949064;0.325266;0;
24123.42;19284.6;-455.3223;27570.69;7.842337;-7.324561;25510.9;15674.9;0.08443839;0.0001024701;0;
21402.32;16528.34;679.5806;27143.5;0.8018589;-9.125618;22983.18;13308.5;0.3442229;0.2599717;0;
18234.1;13578.05;1864.911;23594.89;1.203195;-8.714551;19712.1;10389.81;0.2139424;0.0648085;0;
19880.26;15041.45;3253.292;24616.48;-8.108764;-11.85399;21255.18;11561.32;-0.1111093;-0.5199627;0;
2459.87;2032.119;3206.872;3318.833;-12.58859;-13.65056;2165.764;1052.526;-0.04603034;-0.1296362;0;
-33202.19;-28335.04;2350.267;-35113.29;2.29451;-11.82837;-34623.63;-24555.02;-0.1109514;0.1303634;0;
-31458.46;-26348.11;1711.053;-35750.33;4.30096;-12.82116;-32654.01;-21650.69;-0.2407746;0.3251345;0;
-15540.41;-10602.93;343.0363;-20753.65;5.167295;-13.94699;-16704.23;-6124.974;-0.04563067;0.6496445;0;
-15138.93;-10322.19;-2148.868;-20579.62;8.980495;-14.33487;-16365.2;-6992.192;0.01938252;0.4540897;0;
5938.776;5750.248;-2024.786;2623.56;0.7324491;-17.87044;5752.07;4372.203;-0.1105716;0.3236988;0;
24280.6;19368.17;50.4562;27821.76;-1.813882;-19.25913;25695.14;15734.33;-0.1754279;0.2584062;0;
21388.6;16543.18;878.8953;27165.52;10.17801;-16.6275;22957.04;13350.26;-0.1102843;-0.001722879;0;
18411.83;13738.82;2117.764;23887.1;11.10579;-16.27588;19900.13;10529.33;-0.1101734;-0.001721148;0;
19840.38;15014.43;3487.962;24457.98;5.534921;-17.80007;21180.3;11548.98;-0.2399974;0.1282153;0;
2362.033;1957.943;3408.37;2932.777;5.797779;-17.64822;1979.725;992.181;-0.1747889;0.1280864;0;
-32957.24;-28096.43;2589.496;-34926.16;-7.202491;-15.0852;-34399.5;-24296.07;0.1502234;0.1929251;0;
-31131.45;-25997.74;1901.739;-35408.12;-12.48752;-13.39553;-32295.61;-21281.41;-0.04482957;0.4526006;0;
-15749.04;-10810.99;616.7071;-20931.86;-5.508743;-16.39624;-16861.34;-6316.573;0.08515016;0.1273091;0;
-16288.16;-11357;-1490.494;-21657.34;-7.04345;-16.6477;-17480.84;-7796.198;0.4099013;-0.06772084;0;
4836.021;4933.693;-1400.401;1384.708;-7.371165;-11.80832;4592.198;3848.833;0.08465273;0.3221513;0;
24177.78;19367.15;309.5072;27601.69;-7.698551;-11.19361;25551.67;15766.97;-0.04536701;0.3867949;0;
21527.62;16628.6;1074.655;27326.76;-4.341913;-11.11538;23115.74;13407.25;-0.1752561;-0.003397806;0;
18317.15;13681.82;2327.523;23726.24;-1.189718;-11.50611;19790.39;10495.43;0.01982201;0.06157297;0;
20091.5;15207.02;3705.069;24988.86;-11.03514;-11.22661;21496.28;11726.39;0.2147041;-0.0684236;0;
3144.261;2529.962;3636.769;4218.947;-12.09577;-11.28232;2916.367;1476.768;0.3444231;-0.4581589;0;
-32615.75;-27833.6;2793.787;-34475.19;-7.26085;-18.90685;-34008;-24100.27;0.4090443;-0.1978292;0;
-31630.9;-26472.99;2062.315;-35909.7;-8.726446;-21.63409;-32808.36;-21745.1;0.2786986;0.1921737;0;
-16402.6;-11481.82;807.6377;-21559.47;3.137691;-22.68402;-17518.45;-7014.609;0.3433859;0.3868826;0;
-16707.36;-11782.72;-1040.136;-22131.62;6.952931;-25.34048;-17912.92;-8178.535;-0.1117305;0.1266245;0;
4737.298;4833.15;-956.1795;1270.589;0.1134418;-21.76505;4496.932;3852.905;-0.1116182;-0.5231761;0;
24144.92;19340.5;470.8457;27563.83;2.926367;-21.20732;25522.75;15736.01;0.6031347;-0.3927158;0;
21482.14;16577.77;1217.95;27263.38;-10.40581;-23.93225;23069.29;13344.24;0.472594;-0.06748449;0;
18523.28;13903.39;2530.644;23905.22;-15.35185;-23.30535;20002.08;10719.16;0.2772171;-0.06741668;0;
20384.24;15457.82;3890.369;25214.58;0.7394812;-22.27719;21780.76;11968.97;0.4068732;0.1275531;0;
3401.411;2584.093;3793.851;4383.279;1.139904;-21.25012;3146.313;1589.985;0.2765297;-0.002509764;0;
-32259.87;-27585.93;2928.971;-34187.57;3.951797;-18.81745;-33670.39;-23830.49;0.1463172;-0.06747458;0;
-31801.71;-26614.16;2156.556;-36051.96;6.627144;-17.45888;-32963.8;-21874.55;0.2111375;0.1924626;0;
-17167.75;-12222.01;878.2803;-22267.51;2.735719;-15.63286;-18255.95;-7698.137;0.01602331;-0.1975349;0;
-16717.27;-11833.73;-802.3361;-22128.43;6.417641;-14.74637;-17887.22;-8396.922;-0.3088295;-0.7170751;0;
5375.435;5310.827;-655.8531;1985.697;-9.664711;-12.52118;5192.367;4108.296;-0.04864981;-0.5214525;0;
24435.79;19550.58;636.2974;27918.42;-13.87456;-11.63788;25838.1;15946.4;0.1463011;-0.1311246;0;
21509.95;16645.7;1341.022;27314.81;3.152316;-14.97521;23087.46;13427.34;-0.1137153;-0.1959601;0;
18572.63;13912.9;2648.626;24018.22;3.952455;-16.03189;20054.19;10724.42;-0.1785684;-0.06582855;0;
20158.79;15307.45;4002.361;24983.66;15.06789;-16.48466;21540.64;11825.74;0.08148044;0.194107;0;
2741.056;2251.871;3887.598;3704.517;20.00925;-16.93692;2462.346;1272.392;0.2763006;-0.0009901067;0;
-32312.16;-27482.53;3053.25;-34215.43;13.62613;-20.93882;-33724.44;-23698.04;0.4059576;-0.06595645;0;
-31025.52;-25905.6;2282.849;-35257.93;14.48309;-21.92252;-32186.62;-21160.35;-0.114189;0.2589465;0;
-15759.18;-10802.05;1067.899;-20926.09;8.171902;-20.22592;-16863.86;-6254.164;-0.2440089;0.388621;0;
-14648.39;-9846.265;-268.5494;-20104.02;5.083208;-20.13861;-15821.9;-6560.488;0.01610561;0.3232632;0;
6565.168;6307.342;-171.4532;3406.048;1.327056;-15.16176;6438.836;4863.068;0.1460241;0.06306902;0;
24486.12;19551.64;756.5183;28141.74;-2.492671;-13.20408;25926.88;15929.13;0.6006488;-0.2618311;0;
21521.45;16673.67;1448.145;27304.3;-3.829337;-9.908713;23086.01;13477.62;0.2752085;-0.3915027;0;
18472.19;13811.76;2760.045;23981.31;-5.968943;-6.817665;19963.18;10611.01;-0.3097741;-0.5860113;0;
19933.59;15072.84;4064.615;24658.01;-6.833601;-9.891907;21291.99;11602.31;0.08034123;-0.5204551;0;
2881.074;2340.774;3984.521;3586.911;-8.233254;-9.346104;2546.103;1351.347;0.4050972;-0.2600628;0;
-31693.22;-26887.96;3176.922;-33672.9;-2.531554;-6.791483;-33112.83;-23093.37;0.2097881;-0.4547035;0;
-30417.54;-25294.3;2407.068;-34633.93;-0.9214205;-5.712933;-31581.79;-20586.69;0.2095774;-0.2593446;0;
-15633.87;-10678.92;1202.363;-20755.8;-0.8541217;-6.444005;-16748.78;-6188.809;0.2093668;0.3905894;0;
-14820.75;-10005.3;-35.59824;-20233.08;1.692332;-5.633734;-15988.33;-6746.76;-0.05071297;0.2602623;0;
6442.897;6204.326;50.0976;3225.378;-6.012528;-5.293159;6303.588;4715.089;-0.245564;0.000131362;0;
24451.59;19533.65;881.0046;28077.75;-7.680449;-5.153874;25882.11;15901.79;0.01455207;0.06509858;0;
21474.55;16626.12;1588.638;27269.23;-1.51079;-0.7949271;23047.92;13435.78;0.3393742;0.3249025;0;
18369.29;13713.6;2920.481;23819.53;-1.576621;-0.191282;19851.99;10510.72;0.01419644;0.3895434;0;
20048.74;15188.78;4236.337;24888.07;0.9032093;3.090952;21439.73;11715.74;-0.1807199;-0.00065206;0;
2788.199;2242.594;4150.574;3781.124;2.509892;4.762419;2536.085;1260.982;-0.05060358;0.1292833;0;
-32263.58;-27446.42;3315.228;-34187.27;-3.051359;-1.069759;-33656.15;-23641;-0.1155201;0.1941207;0;
-30117.04;-25016.62;2582.045;-34433.36;-4.454813;-1.470582;-31297.81;-20383.86;-0.2453387;-0.3907804;0;
-14317.68;-9359.759;1403.604;-19548.01;-1.503576;-4.014333;-15457.89;-4978.5;-0.1151575;-0.06555104;0;
-13596.59;-8833.551;152.7902;-18997.53;-2.17165;-4.747112;-14757.95;-5709.019;-0.05007442;0.2593516;0;
7212.307;6789.18;243.5753;4291.599;-2.236817;-6.416915;7152.015;5176.827;-0.1149914;0.1291563;0;
24716.85;19733.16;1077.583;28519.9;-1.899777;-8.218884;26189.69;16098.84;0.2099608;0.06405915;0;
21587.97;16763.11;1780.662;27350.19;-5.849983;0.9657912;23151.02;13587.2;0.07981515;0.3238641;0;
18584.13;13923.34;3105.019;24070.58;-5.643034;2.505306;20073.42;10713.98;-0.2451018;0.5184407;0;
20111.79;15234.7;4399.934;24951.36;-8.181983;4.914175;21491.33;11768.02;0.1449486;0.1281158;0;
3181.146;2553.59;4313.554;4079.707;-9.044418;8.124295;2895.749;1566.321;0.339705;-0.261817;0;
-31103.37;-26338.38;3480.792;-33122.46;-1.466869;0.3463559;-32517.52;-22549.01;0.2094289;-0.1316193;0;
-29859.35;-24744.39;2698.593;-34154.63;-0.1262242;-0.2568385;-31036.7;-20045.22;0.01431647;-0.2614217;0;
-15368.41;-10412.87;1486.223;-20542.04;5.166164;0.2123001;-16497.55;-5918.343;0.07926942;-0.1961917;0;
-13868.59;-9158.971;256.8159;-19373.24;8.509876;-0.9266231;-15052.74;-6140.672;-0.2456469;-0.1959946;0;
7559.535;7081.667;352.4472;4497.892;2.606827;1.887591;7469.726;5299.157;-0.5052695;-0.3257323;0;
24651.14;19670.22;1164.388;28422.66;1.666203;2.086643;26117.25;16038.96;-0.1799251;-0.06553563;0;
21505.64;16685.18;1854.667;27280.08;5.415573;3.3571;23064.32;13511.12;-0.1797443;0.06446492;0;
18592.32;13925.31;3182.698;24062.69;6.079716;4.55942;20080.11;10715.34;0.145273;-0.0005672151;0;
20098.87;15235.67;4490.06;24974.14;-3.905751;2.880265;21462.52;11769.38;0.3400291;-0.3254034;0;
2949.798;2350.733;4409.336;3937.45;-7.4518;2.676422;2632.989;1397.355;-0.05011662;-0.3900437;0;
-31024.42;-26233.21;3607.666;-33043.3;-3.224754;6.893658;-32431.71;-22393.42;-0.374903;0.0001522394;0;
-28570.99;-23457.13;2891.04;-32911.84;-5.163897;8.4942;-29737.74;-19015.82;-0.4394936;-0.1297826;0;
-13511.01;-8548.885;1709.743;-18776.89;-0.269564;1.921581;-14685.42;-4384.733;-0.3740847;-0.1946195;0;
-12430.96;-7779.583;471.0686;-17879.89;2.477373;-0.1568207;-13585.17;-4925.085;-0.4386761;-0.1294566;0;
8316.001;7703.377;568.0307;5609.589;-10.11742;6.206594;8350.997;5772.895;-0.2433333;-0.1942939;0;
24979.03;19962.27;1394.138;28929.53;-12.7202;6.602254;26489.53;16312.17;0.2116826;-0.06416399;0;
21823.9;17012.48;2074.816;27562.13;-4.401045;1.97392;23374.26;13864.75;-0.04839949;-0.1290669;0;
18753.05;14093.16;3369.97;24246.63;-4.531321;0.6992612;20240.04;10874.58;-0.1782855;0.0009975125;0;
20183.15;15293.93;4653.734;25114.13;-0.5746525;1.63632;21580.7;11835.48;0.4065997;0.3258332;0;
3587.402;2890.604;4560.79;4668.633;1.569379;1.634676;3358.44;1891.328;0.6660604;0.3255058;0;
-29928.98;-25182.91;3738.415;-31908.58;-4.996282;-1.917063;-31316.94;-21378.41;0.2755872;-0.3244947;0;
-27962.41;-22841.75;2968.934;-32231.71;-5.527125;-2.049102;-29144.16;-18349.88;-0.04952643;-0.2592013;0;
-13588.86;-8568.435;1742.862;-18706.58;-7.999817;-3.721494;-14733.64;-4340.501;0.2103927;0.2607979;0;
-12174.02;-7674.255;513.0566;-17602.73;-11.00589;-4.990431;-13321.61;-4867.311;0.1452139;-0.5190722;0;
8955.414;7989.743;606.7593;6222.86;-1.75143;4.927814;8981.286;5982.66;-0.3746707;-0.583518;0;
25160.73;20074.17;1402.593;29141.15;1.331789;7.869989;26670.54;16433.78;-0.1793922;-0.1281603;0;
21812.17;17043.29;2083.388;27562;-9.052026;5.852715;23359.38;13901.72;0.1456248;-0.2579662;0;
18824.32;14152.19;3375.925;24306.54;-7.903854;7.722235;20315.78;10927.24;-0.3742603;0.2620317;0;
20266;15366.01;4649.703;25244.04;-9.704574;7.647492;21656.09;11917.17;-0.2439495;0.3917031;0;
3831.998;2993.327;4569.21;4995.341;-11.36976;8.845501;3576.499;1975.073;0.405969;0.06647284;0;
-29706.12;-25031.5;3746.374;-31674.83;7.062091;6.693281;-31105.6;-21221.14;0.3405937;0.1313734;0;
-27952.92;-22786.61;2986.583;-32202.34;11.07348;5.882761;-29129.81;-18314.4;-0.04955256;-0.2585627;0;
-14208.06;-9199.232;1773.331;-19268.72;16.28727;8.823977;-15352.56;-5026.664;0.01546458;-0.3232702;0;
-13258.66;-8646.887;540.7618;-18620.88;22.43285;7.944332;-14399.87;-5737.44;0.01544904;-0.06307603;0;
8471.828;7714.285;666.5612;5872.888;9.348511;11.08455;8512.107;5837.681;-0.3094032;-0.3878494;0;
25194.11;20149.83;1470.893;29236.32;9.004325;11.60927;26708.75;16501.34;-0.1791576;-0.1275903;0;
21803.98;17016.71;2131.957;27523.27;7.990899;6.57401;23348.32;13863.17;0.2757938;0.3273093;0;
18850.04;14186.3;3437.954;24334.81;6.174209;5.56266;20333.74;10973.8;0.08061465;0.1320784;0;
20207.29;15321;4722.977;25139.53;10.12012;0.8014048;21605.44;11857.38;0.145501;0.06697837;0;
3586.598;2857.756;4653.654;4667.698;9.64046;-1.811735;3355.969;1868.923;0.7950282;0.001943716;0;
-29766.93;-25029.9;3856.018;-31781.38;13.65024;-1.608966;-31155.38;-21213.37;0.4693927;-0.5177969;0;
-27405.54;-22288.41;3119.152;-31746.49;13.30173;-3.616715;-28600.35;-17938.58;-0.5055891;-0.582244;0;
-12943.05;-7935.606;1931.395;-18148.18;20.58938;-0.1970732;-14132.92;-3879.925;-0.2452117;0.00304709;0;
-11682.86;-7273.321;701.743;-17085.64;22.71215;0.8078688;-12817.74;-4553.015;-0.05006333;0.06801138;0;
9367.71;8241.052;783.8713;6856.332;11.1014;-4.216541;9473.672;6156.789;-0.3748497;-0.2568937;0;
25281.64;20162.01;1563.801;29371.01;8.343579;-5.618946;26817.2;16523.87;0.4701024;-0.1267009;0;
21901.34;17156.08;2231.861;27597.52;0.900456;-0.8576335;23433.75;14015.37;0.5995647;0.06832848;0;
18999.47;14316.98;3518.768;24473.5;-4.660154;-0.655823;20489.42;11096.63;-0.1806459;0.06825983;0;
20326.91;15437.29;4780.877;25304.18;-3.516396;-2.530686;21709.46;11992.4;0.1443724;0.003223883;0;
3932.166;3080.464;4698.597;5083.533;-4.919382;-2.394177;3664.315;2021.78;-0.05067473;-0.126714;0;
-29062.5;-24388.59;3886.656;-31085.99;-11.94801;-7.683301;-30453.63;-20589.34;-0.3104932;0.06831532;0;
-26321.1;-21159.93;3131.285;-30732.29;-13.5436;-9.483998;-27521.47;-16989.5;0.1445902;0.2631487;0;
-12739.7;-7801.357;1898.881;-17937.31;-6.161623;-9.139554;-13967.07;-3980.191;0.07947757;-0.06195243;0;
-13115.47;-8518.029;629.7822;-18500.06;-3.744534;-10.67098;-14299.33;-5534.784;-0.1155043;-0.06189018;0;
8235.423;7538.354;737.548;5600.05;0.2786926;-6.909334;8266.782;5749.437;0.01454643;0.2630087;0;
25307.59;20287.18;1568.451;29316.61;2.488239;-5.361784;26808.95;16624.56;0.3393685;-0.1270596;0;
21996.13;17193.53;2243.457;27725.12;13.67152;-9.174301;23549.29;14050.65;0.3390275;-0.321834;0;
18970.58;14329.21;3522.247;24421.71;20.02177;-8.696202;20446.24;11123.04;-0.05111719;-0.1266086;0;
20445.19;15513.23;4790.318;25500.37;6.537721;-6.410167;21878.98;12055.11;-0.1160332;0.0684207;0;
4368.688;3402.033;4713.307;5686.032;5.459424;-5.867862;4243.256;2326.738;0.1439528;-0.06158275;0;
-28446.9;-23829.37;3904.1;-30454.46;5.923429;-0.6374195;-29804.39;-20060.75;0.01387347;-0.5162923;0;
-26176.19;-20997.49;3136.936;-30553.74;2.233783;1.774607;-27387.97;-16839.89;-0.3109772;-0.3858388;0;
-13247.47;-8241.063;1883.912;-18332.28;9.53158;0.9690283;-14421.6;-4437.324;-0.375632;0.004352937;0;
-13401.68;-8858.124;627.2125;-18732.76;9.187209;2.709489;-14554.07;-5932.783;-0.440222;0.06931592;0;
8512.87;7630.477;757.8757;5937.456;3.484551;1.032315;8564.818;5789.758;-0.504747;0.394083;0;
25400.29;20334.84;1584.323;29452.24;2.744115;1.031278;26915.94;16679.79;-0.1144357;0.393687;0;
21931.27;17152.26;2276.32;27658.88;-5.161896;2.503744;23475.12;14010.18;0.08058127;0.3283241;0;
19121.87;14476.65;3592.495;24575.61;-8.505611;1.630572;20600.41;11270.42;0.405337;0.1980595;0;
20671.14;15732.85;4864.307;25737.82;-5.080814;6.183651;22095.55;12274.2;0.4698971;0.0679258;0;
4422.953;3393.317;4760.313;5785.599;-5.611572;7.182182;4266.913;2293.235;0.01465352;0.3277269;0;
-28515.22;-23926.49;3927.305;-30494.9;-6.075424;2.48616;-29879.17;-20173.06;0.2095408;0.1324956;0;
-26035.91;-20836.27;3148.467;-30416.88;-5.734527;2.148869;-27243.7;-16751.42;-0.05053909;-0.1275069;0;
-12788.58;-7771.528;1867.946;-17882.46;-4.121174;-2.676061;-13977.34;-4065.941;-0.6351944;0.1324906;0;
-12765.14;-8286.207;586.4934;-18126.41;-3.513821;-5.41955;-13924.65;-5421.032;0.01511728;0.1973248;0;
8892.634;7907.515;717.7285;6286.498;-0.830973;-0.8593876;8943.233;6023.15;0.2100041;-0.06274286;0;
25446.11;20371.04;1528.771;29486.31;-0.09320371;-1.126456;26960.06;16710.8;-0.3099456;0.002287524;0;
22004.62;17247.13;2200.147;27726.23;-1.299535;-2.665931;23554.58;14118.57;-0.1796995;0.06725258;0;
19273.65;14617.45;3516.383;24705;-1.699395;-2.663253;20749.43;11409.92;-0.1145516;-0.06274969;0;
20649.5;15739.87;4765.048;25751.78;-6.454085;-3.196318;22082.54;12282.28;-0.5042406;0.002280701;0;
4320.951;3399.667;4621.814;5746.677;-9.528083;-2.992158;4186.057;2357.376;-0.2438645;0.06724577;0;
-28451.47;-23796.08;3767.332;-30446.19;-10.18809;-6.338298;-29806.96;-20020.9;0.600956;0.002210841;0;
-25891.59;-20718.78;2985.719;-30325.13;-12.7908;-8.944141;-27109.27;-16621.51;0.2105481;-0.2576607;0;
-11958.97;-6955.014;1734.861;-17153.5;-16.32792;-0.1606341;-13189.23;-3192.336;-0.2444349;0.1324022;0;
-11400.79;-6999.687;475.6876;-16797.12;-17.91911;1.648067;-12577.97;-4306.051;0.1456148;0.3271712;0;
9481.784;8348.525;599.5378;6993.607;-19.90986;-7.463146;9564.502;6261.638;-0.1793683;0.002005737;0;
25449.51;20335.29;1422.147;29541.01;-19.0192;-7.857423;26969.62;16695.93;-0.179188;-0.127931;0;
22019.82;17283.96;2115.774;27719.23;-24.69351;-11.93543;23556.9;14156.11;0.2757634;-0.1927698;0;
19158.36;14489.23;3429.831;24615.03;-26.20992;-14.06689;20638.56;11279.57;-0.1143177;-0.1276087;0;
20361.85;15479.29;4664.606;25406.89;-9.237022;-9.096076;21764.68;12025.86;-0.1791702;0.002454184;0;
3913.615;3089.08;4532.779;5209.543;-4.271248;-9.287885;3724.618;2044.939;-0.04905549;0.3272884;0;
-28495.09;-23791.37;3712.104;-30546.55;-4.5344;-3.92004;-29864.9;-20008.38;-0.1139735;0.4568942;0;
-25274.86;-20101.79;2944.664;-29732.94;-1.850526;-1.370872;-26495.93;-16230.28;0.01607567;-0.1932383;0;
-11299.13;-6269.586;1683.681;-16554.06;1.96875;-5.455331;-12552.33;-2755.944;0.01605951;-0.1280767;0;
-11032.64;-6722.602;413.4554;-16467.78;4.445018;-5.650798;-12236.23;-4024.083;-0.1788587;0.456758;0;
9712.179;8423.184;532.4799;7283.264;-3.5974;-2.229113;9779.035;6361.992;-0.1786789;0.3263644;0;
25501.71;20369.73;1341.632;29658.27;-4.799234;-0.9541974;27022.26;16720.83;0.276272;0.1311344;0;
21985.48;17272.37;2011.993;27674.17;-9.416112;-7.517444;23521.79;14161.55;0.4059291;0.2609374;0;
19181.53;14503.55;3318.719;24624.76;-12.55448;-8.782444;20659.89;11285.48;-0.1142175;0.0008057863;0;
20427.72;15552.15;4554.809;25516.51;-8.589752;-7.768876;21839.37;12111.53;-0.2440374;-0.3240317;0;
3983.111;3130.756;4407.226;5367.782;-9.519127;-9.100728;3806.075;2090.285;-0.1788249;0.001130565;0;
-28548.76;-23854.73;3556.051;-30559.85;-5.692145;-2.661344;-29908.59;-20080.56;0.01625681;-0.06383792;0;
-25617.64;-20427.66;2751.021;-30084.23;-4.74842;-0.3813722;-26826.33;-16404.88;-0.04872686;-0.3236431;0;
-12184.25;-7187.484;1462.981;-17361.97;-2.331775;-4.667775;-13408.47;-3473.731;-0.1136452;0.001518772;0;
-12332.69;-7815.287;190.7127;-17711.89;0.01411621;-4.261187;-13504.1;-4986.962;0.01640363;-0.1284174;0;
8856.039;7918.771;335.6512;6315.963;-3.803315;-2.113573;8933.545;5965.811;-0.4383842;-0.1932557;0;
25317.19;20231.06;1188.37;29378.63;-2.392974;-1.910501;26838.72;16588.62;-0.2430417;0.1967425;0;
21858.29;17110.9;1898.63;27554.95;-10.22745;-0.5689225;23399.06;14004.22;0.5368105;0.06661014;0;
19079.37;14418.58;3235.924;24539.17;-13.8345;-0.434385;20566.21;11205.27;0.2114345;-0.06339149;0;
20334.71;15462.05;4483.201;25314.38;-2.902255;-0.7688631;21741.63;12039.52;-0.04864733;0.001639543;0;
3425.551;2698.948;4343.654;4645.506;-3.837344;-0.8350735;3250.555;1763.865;0.5361075;-0.06332944;0;
-29282;-24535.39;3518.171;-31299.13;2.128359;-4.65214;-30608.62;-20630.9;0.4706016;-0.1282331;0;
-26435.8;-21283.83;2726.22;-30828.71;5.608844;-6.389021;-27580.26;-16929.68;-0.1145773;0.1317651;0;
-13382.79;-8331.58;1444.374;-18459.44;-9.399992;-5.913721;-14484.41;-4291.651;-0.1794295;0.1966;0;
-12951.85;-8502.274;195.1434;-18294.67;-10.66334;-6.979506;-14039.71;-5591.059;-0.04931458;-0.1284342;0;
8989.314;7881.693;329.2391;6374.764;-14.5374;-7.508356;9048.266;5997.846;-0.4390691;0.1315642;0;
25307.71;20197.1;1152.042;29364.42;-17.3368;-7.634655;26821.78;16586.85;-0.4386279;0.131432;0;
21749.91;17028.06;1854.187;27479.8;-9.951017;-11.24406;23314.41;13916.52;-0.04838311;-0.2585042;0;
18944.17;14259.81;3162.868;24408.04;-9.472504;-12.90728;20441.05;11084.7;-0.2432365;0.06659233;0;
20128.78;15294.54;4397.115;25149.16;-0.6881;-6.732061;21549.03;11868.96;-0.5678288;-0.2583113;0;
3063.215;2443.26;4262.278;4372.396;4.135363;-5.184689;2932.752;1529.322;0.2123498;-0.3879864;0;
-29759.83;-24964.12;3425.757;-31697.37;1.384541;-8.059624;-31018.94;-21021.55;0.5369731;0.002207464;0;
-26212.14;-21073.54;2664.492;-30571.04;3.861396;-6.778972;-27305.08;-16820.92;-0.1132398;0.002205246;0;
-12305.73;-7281.245;1404.791;-17380.75;6.871626;-7.910748;-13389.79;-3336.758;0.08177601;0.06717039;0;
-12141.86;-7652.473;122.4607;-17414.41;9.611388;-7.367057;-13213.58;-4743.961;0.2765959;0.002135537;0;
9028.202;8021.732;239.7786;6571.192;2.903925;-4.680338;9124.367;6116.271;-0.3733555;-0.3876707;0;
25233.84;20141.79;1062.405;29350.28;0.4891337;-4.273737;26766.73;16536.24;-0.2430456;-0.2573465;0;
21804.29;17064.09;1774.136;27515.38;10.13418;2.160796;23363.1;13966.1;-0.04789941;-0.1271532;0;
18941.11;14272.86;3102.45;24437.34;10.19135;4.435923;20444.42;11095.5;-0.4376553;-0.2569601;0;
20133.76;15278.19;4321.75;25098.76;11.11814;2.689909;21541.74;11861.81;-0.4372156;-0.1917346;0;
2992.84;2315.253;4172.87;4153.413;12.71456;3.892899;2810.732;1448.896;-0.0469722;-0.1265746;0;
-29635.03;-24870.04;3347.746;-31636.9;2.788796;0.740912;-30921.34;-20881.52;0.3428791;-0.1914147;0;
-25931.26;-20787.37;2570.225;-30312.41;1.178404;0.1373211;-27041.8;-16597.51;0.2775672;0.1336143;0;
-12815.85;-7789.658;1284.397;-17907.66;-3.578202;-0.1977316;-13940.08;-3904.629;-0.04754843;0.1984474;0;
-12894.2;-8453.743;15.7118;-18181.82;-8.598449;-1.001328;-13960.49;-5546.503;-0.1774353;-0.191556;0;
9032.425;7943.311;167.5259;6548.858;5.743806;1.879944;9167.796;6012.685;-0.3071917;-0.1263962;0;
25310.4;20192.65;1006.889;29422.93;8.149909;3.016643;26846.87;16576.77;-0.111981;0.1985675;0;
21650.03;16940.5;1716.395;27349.13;-2.508201;1.808041;23197.47;13847.83;0.4728375;0.3283027;0;
18942.65;14246.5;3049.858;24429.79;-3.9122;2.074156;20448.22;11063.31;0.6022971;0.3929401;0;
19990.57;15206.69;4274.505;24865.76;0.1775678;7.631533;21369.11;11791.06;0.2768552;0.3275779;0;
2369.001;1966.655;4110.15;3371.944;1.51656;9.566248;2133.235;1087.382;-0.1781943;-0.1275226;0;
-30345.86;-25446.53;3283.543;-32400.59;-7.393572;9.42267;-31646.18;-21497.53;-0.1780153;0.002540216;0;
-26133.19;-21012.91;2533.26;-30551.51;-9.529596;10.88683;-27236.69;-16856.44;-0.04790174;0.1974397;0;
-12212.12;-7169.898;1268.536;-17382.52;-2.017933;8.263554;-13342.84;-3314.426;0.01711373;-0.2575301;0;
-12274.93;-7768.343;-3.756057;-17592.44;-0.7431074;7.719387;-13366.62;-4851.056;0.08206388;-0.0623693;0;
8903.965;7909.727;121.591;6413.878;2.004306;8.113527;9009.806;6037.536;0.08198141;-0.2572086;0;
25145.96;20043.82;936.7153;29244.05;5.75236;6.765839;26677.52;16441.72;-0.3728724;-0.4518522;0;
21640.41;16921.24;1635.844;27340;3.335682;7.830645;23191.61;13824.04;-0.5673997;-0.06159416;0;
18778.13;14090.13;2951.179;24275.19;5.475784;6.282291;20280.67;10904.44;-0.04709085;-0.191467;0;
19812.46;15026.18;4157.137;24633.3;8.886534;8.084396;21199.38;11620.16;0.2777932;-0.1912746;0;
2162.4;1764.791;4001.786;3084.426;9.212398;8.813085;1948.338;935.944;0.1475794;0.1337543;0;
-30502.89;-25606.77;3181.722;-32578.79;20.72372;-1.443915;-31803.58;-21606.15;-0.04747095;0.003685253;0;
-26357.57;-21232.54;2409.318;-30774.31;24.18552;-3.786745;-27462.1;-17017.13;-0.2423253;0.00368155;0;
-13183.05;-8154.831;1129.336;-18246.9;18.46779;-4.050871;-14258.29;-4216.297;0.01778758;0.1985799;0;
-13887.1;-9242.789;-151.7802;-19175.97;18.9851;-6.324221;-14959.91;-6164.111;0.08273705;0.06844568;0;
7974.009;7274.435;-25.28498;5163.045;12.40194;-0.758405;8004.195;5527.646;-0.3721175;0.003409542;0;
25129.1;20115.67;822.6423;29034.76;9.643785;-0.4897112;26626.33;16504.7;-0.04690687;0.1983082;0;
21795.11;17019.84;1551.262;27548.48;7.825433;1.051388;23362.91;13918.44;0.277977;0.1331415;0;
19025.29;14383.97;2891.044;24457.1;4.267597;1.988093;20515.23;11207.18;-0.2420411;0.2629425;0;
20455.12;15587.93;4128.563;25489.13;9.420873;0.6464366;21880.53;12178.33;-0.3067652;0.3276456;0;
3061.817;2354.615;3970.913;4451.789;9.746199;1.583548;2935.446;1491.087;0.08334708;0.1324143;0;
-30105.53;-25352.4;3127.252;-32025.65;7.124438;-5.652078;-31378.09;-21372.89;-0.04667135;0.262216;0;
-26525;-21348.41;2355.714;-30908.36;8.255379;-7.387955;-27628.08;-17128.77;-0.1765591;0.3918872;0;
-13536.72;-8480.622;1088.967;-18512.63;4.831809;-7.112599;-14590.61;-4586.12;-0.2413491;0.2615587;0;
-14273.57;-9621.258;-177.7252;-19509.42;4.02267;-8.91387;-15323.46;-6440.843;-0.1761392;0.06639389;0;
7845.271;7086.173;-33.86879;5113.926;10.44899;-2.675622;7894.878;5533.91;-0.1109949;-0.06360752;0;
25168.61;20111.63;808.976;29099.92;11.51022;-1.065466;26666.22;16516.78;-0.04591602;0.1313584;0;
21655.53;16909.21;1509.639;27399.64;13.44104;-1.131378;23216.21;13787.91;0.0840648;0.001291747;0;
18876.3;14209.41;2828.724;24345.35;15.50363;1.214161;20372.85;11055.21;0.213915;-0.1936116;0;
20144.57;15339.87;4039.74;25068.34;12.2065;-1.533359;21542.09;11910.7;0.2786674;-0.1284497;0;
2099.846;1671.176;3849.524;3265.753;13.26596;-1.732767;1911.055;874.2131;0.08348538;0.001614057;0;
-30598.25;-25707.73;3005.985;-32620.23;8.496236;3.225589;-31886.49;-21703.19;-0.1764679;0.1315471;0;
-25980.29;-20859.51;2240.457;-30399.35;5.94308;3.825195;-27085.58;-16705.48;-0.3062252;-0.3233564;0;
-12536.56;-7477.763;953.4763;-17599.02;14.97944;5.027044;-13639.12;-3599.992;-0.04604818;-0.3879989;0;
-12564.01;-8122.546;-327.4633;-17894.83;15.36653;6.361651;-13625.83;-5288.992;0.4737368;0.3919991;0;
9110.777;8005.903;-214.9719;6451.656;15.0163;0.3939;9212.3;6017.267;0.3433261;0.001801147;0;
25139.36;20024.61;568.2255;29168.1;15.73716;-0.8791715;26657.04;16417.04;-0.1117902;-0.3880047;0;
21574.41;16869.72;1251.139;27281.25;10.96593;2.805651;23123.17;13788.74;0.08322411;0.002189206;0;
18864.16;14174.65;2561.176;24354.97;10.62012;4.209474;20364.76;10977.61;0.4079772;-0.1277477;0;
19770.76;14984.21;3757.078;24517.79;5.117091;-1.756115;21155.44;11594.73;0.2776326;-0.1925867;0;
1911.763;1494.395;3600.864;2717.634;2.767425;-3.428802;1701.482;765.7363;-0.1124504;-0.2573605;0;
-30739.34;-25838.55;2766.273;-32826.32;4.372234;6.487874;-32017.08;-21757.31;-0.3722068;-0.1271672;0;
-26415.22;-21288.65;1982.714;-30821.18;1.755873;7.28515;-27516.59;-17005.35;-0.3718328;0.522634;0;
-12678.95;-7685.037;721.0268;-17838.14;10.72909;10.02401;-13814.42;-3669.242;-0.3714592;0.06733747;0;
-12816.91;-8223.822;-547.9039;-18118.94;12.19218;11.42058;-13909.33;-5218.837;-0.371086;-0.7773057;0;
8467.572;7678.421;-427.6948;5928.203;6.084358;4.376016;8579.831;5861.902;-0.04587638;-0.5166552;0;
24984.96;19924.09;388.8403;29039.64;5.677079;2.764028;26516.11;16319.02;0.0841044;0.1335373;0;
21461.75;16731.84;1064.906;27152.79;1.65191;-3.199986;23001.41;13632.09;0.01905255;0.4582399;0;
18546.25;13859.37;2357.999;24056.92;0.9806651;-6.277986;20057.25;10680.52;0.08400074;0.003008007;0;
19529.6;14798.06;3567.286;24220.39;-6.72348;-9.888634;20855.14;11396.66;-0.1109857;-0.191897;0;
853.806;679.7627;3429.862;1586.089;-9.597112;-13.02683;514.397;17.28323;-0.04590682;0.1980998;0;
-31928.65;-26935.82;2650.259;-34030.27;-4.094136;-8.325001;-33249.34;-22842.73;0.278976;0.5877048;0;
-26634.79;-21543.73;1931.659;-31061.93;-5.229098;-7.646806;-27726.54;-17286.99;0.2786957;0.2622776;0;
-12693.13;-7623.432;698.8526;-17837.15;5.828218;-5.830706;-13806.83;-3582.644;-0.04642105;-0.2577247;0;
-12527.72;-8031.047;-541.5389;-17873.23;9.639779;-3.547427;-13589.32;-5189.61;-0.1763091;-0.0625637;0;
9021.774;8008.229;-401.0652;6372.863;4.807322;-2.874033;9128.72;6001.138;-0.1111646;0.1324012;0;
24990.44;19887.47;430.7637;29029.43;6.544779;-1.464626;26515.88;16288.93;-0.1110529;0.06730083;0;
21424.63;16725.45;1153.233;27136.04;0.04049271;3.02458;22967.41;13643.15;0.08396072;0.1322006;0;
18747.01;14042.28;2471.13;24260;-2.571516;5.231978;20253.24;10846.03;0.08387636;0.06710037;0;
19543.21;14828.83;3661.829;24189.26;3.927802;0.5380374;20878.39;11449.09;-0.1760773;-0.06290175;0;
928.0242;800.3764;3514.487;1594.392;5.732516;-0.7351789;615.319;188.1322;-0.2408677;-0.4526426;0;
-31767.77;-26747.75;2718.526;-33858.02;-5.660098;2.480741;-33071.49;-22598.76;-0.2406257;-0.2572857;0;
-26847.88;-21761.45;1961.783;-31260.36;-8.266379;2.210316;-27936.56;-17431.56;-0.1754166;0.1327768;0;
-13216.4;-8187.815;704.333;-18373.32;0.583186;-3.485332;-14327.35;-4056.634;-0.110273;0.06767607;0;
-13231.19;-8617.009;-541.0928;-18503.88;-0.355405;-5.893216;-14294.8;-5580.399;0.1497072;0.2625101;0;
8438.237;7665.032;-393.1388;5901.036;11.09916;-5.217464;8542.837;5853.292;0.2145241;0.392181;0;
24882.99;19828.35;436.2926;28957.17;15.77705;-6.953778;26407.22;16235.28;0.01940655;0.06695024;0;
21369.66;16636.05;1145.701;27072.01;4.641788;-6.477911;22908.92;13536.44;-0.04558029;-0.3229211;0;
18668.47;13980.49;2491.31;24170.02;5.842573;-6.270453;20176.43;10800.91;-0.3054039;-0.5174986;0;
19690.6;14966.77;3710.692;24387.03;-3.606793;-11.42172;21016.93;11576.7;-0.3700643;-0.192142;0;
809.1375;670.6456;3531.849;1567.797;-7.622633;-12.54889;473.8151;25.91071;0.02011156;0.1328878;0;
-32306.5;-27302.54;2713.6;-34386.25;2.499084;-9.455125;-33617.55;-23177.37;0.0850587;-0.06214773;0;
-27358.48;-22282.61;1966.154;-31782.99;2.295501;-8.909761;-28437.74;-17875.43;-0.1099288;0.002882054;0;
-13497.41;-8443.927;711.6362;-18638.79;9.193048;-8.632877;-14594.73;-4278.212;-0.3696877;0.2627485;0;
-13021.14;-8472.58;-523.5521;-18360.1;13.60444;-8.490236;-14064.17;-5588.144;-0.2393816;0.2624845;0;
8778.226;7861.508;-389.3901;6139.373;2.404986;-4.462852;8903.329;5924.188;0.02072834;-0.257518;0;
24794.22;19705.43;415.5343;28825.67;-0.210375;-3.453624;26321.31;16115.28;0.08567485;-0.3222266;0;
21298.48;16581.66;1150.934;27001.96;10.70818;-4.454897;22831.73;13487.81;0.5403601;0.5226727;0;
18731.31;14039.63;2508.845;24253.6;10.429;-3.579643;20239.98;10858.3;0.4748498;0.3272455;0;
19559.47;14826.79;3694.898;24112.52;9.615211;-9.805337;20875.4;11434.55;-0.045366;-0.1928221;0;
620.8722;451.9709;3506.763;1138.655;11.48058;-11.53698;261.5523;-114.6698;0.01964692;-0.127661;0;
-31938.84;-26942.63;2702.782;-34084.11;-7.61999;-10.9226;-33257.79;-22767.31;0.1495619;-0.3224348;0;
-26296.8;-21214.96;1959.361;-30720.65;-12.63618;-12.58614;-27381.91;-16989.93;0.3443136;-0.3221108;0;
-12518.04;-7464.481;688.592;-17711.68;-7.533264;-8.956475;-13655.25;-3442.289;0.5388696;-0.1918524;0;
-12446.85;-7931.477;-564.7671;-17733.77;-10.27138;-8.612561;-13516.06;-5084.768;0.2784588;0.2631117;0;
9106.047;8132.063;-405.2795;6649.835;-1.687248;-10.61339;9250.595;6130.269;-0.3714944;0.2628474;0;
25020.17;19922.12;431.3168;29146.65;0.390552;-11.74138;26560;16335.21;-0.3061537;0.06768124;0;
21496;16788.48;1158.408;27167.63;0.1217398;-8.447478;23027.7;13697.76;0.473762;0.1975479;0;
18848.79;14150.43;2512.688;24337.82;1.796557;-8.037093;20352.85;10964.75;0.4083186;-0.1924547;0;
19703.29;14983.84;3710.919;24442.64;1.326237;-15.19607;21040.99;11603.86;0.1480389;0.06760812;0;
777.606;665.7428;3519.347;1596.928;1.927141;-16.78833;468.0267;114.4054;0.2128575;0.4573442;0;
-31618.42;-26589.82;2712.355;-33747.63;-0.6867639;-18.11112;-32934.42;-22403.42;-0.1771604;0.06708064;0;
-25809.1;-20728.74;1983.245;-30296.83;-0.6187249;-18.22689;-26915.13;-16645.84;-0.2419497;-0.06292146;0;
-12328.23;-7253.157;728.1168;-17513.67;-8.789777;-20.82085;-13470.66;-3406.73;0.2130648;0.2619785;0;
-12209.47;-7800.544;-503.2775;-17517.02;-12.73306;-20.19708;-13279.5;-5045.685;0.277818;0.4566173;0;
9575.006;8430.499;-317.8804;7200.013;-3.410492;-15.82302;9732.021;6340.446;0.2125715;0.2612564;0;
25117.38;20004.91;525.1873;29320.08;-3.205994;-14.80237;26661.23;16402.5;0.08242326;-0.1288101;0;
21490.75;16791.02;1260.071;27164.69;-2.599561;-0.05162013;23015.63;13715.28;-0.1775289;-0.1936481;0;
19044.7;14350.98;2623.354;24548.99;-0.9893582;5.306944;20548.83;11155.2;-0.2423179;0.1963506;0;
19805.89;15052.43;3807.215;24460.43;-5.677413;4.899714;21130.35;11660.62;0.1477297;0.2611206;0;
1012.396;726.1736;3616.562;1678.793;-6.140223;8.511747;664.5952;81.89377;0.08261386;0.06595624;0;
-31361.77;-26407.54;2813.017;-33516.14;-3.924227;1.403248;-32708.84;-22312.26;-0.2423058;0.3907267;0;
-25987.35;-20883.08;2056.444;-30445.87;-2.982279;0.4640768;-27112.59;-16670.9;-0.3719971;0.4553014;0;
-12211.79;-7167.266;797.3537;-17426.62;-5.59125;-0.4071676;-13387.85;-3145.626;-0.3066559;0.06503987;0;
-11734.39;-7274.226;-427.1605;-17061.14;-5.117118;-0.9426219;-12819.06;-4554.427;-0.1764131;-0.06496017;0;
9528.903;8474.749;-267.5926;7108.739;-4.375042;-6.300187;9702.963;6327.837;-0.1762359;-0.1948296;0;
24912.23;19806.08;550.0623;29068.9;-5.173953;-9.040035;26461.25;16218.99;0.1487779;-0.1296665;0;
21338.79;16637.84;1282.907;27017.6;5.949681;3.293542;22855.31;13559.33;0.2135958;0.0003984922;0;
18824.39;14132.84;2667.515;24319.76;9.226233;5.500669;20324.7;10930.63;0.01847913;0.06536545;0;
19743.47;14994.9;3863.982;24506.25;4.728983;9.647962;21073.23;11616.31;-0.04650678;-0.1296023;0;
853.1182;582.0426;3646.909;1711.523;6.063402;14.19299;520.3309;-8.988825;0.08347463;-0.06450471;0;
-31679.7;-26730.85;2816.489;-33803.52;1.100816;6.207999;-33022.3;-22577;0.2782928;0.1304622;0;
-26008.44;-20902.14;2050.948;-30533.74;-0.3068092;5.063051;-27144.59;-16730.02;-0.2417256;0.1952984;0;
-12158.63;-7124.346;780.6811;-17365.84;-0.5739446;10.55044;-13331.96;-3142.78;-0.6312867;0.06516748;0;
-12381.85;-7841.417;-456.5756;-17719.84;-2.85152;10.07096;-13496.13;-4896.208;-0.3707831;0.0001346455;0;
8770.431;7874.676;-295.0571;6247.724;1.840395;5.975005;8875.331;5961.429;-0.5653125;0.3899386;0;
24787.17;19708.48;549.0652;28878.32;1.771197;3.423649;26311.1;16103.71;-0.04500576;0.3245794;0;
21292.09;16581.15;1306.476;26981.93;0.4302463;4.090039;22811.41;13499.83;0.4747782;0.1293513;0;
18815.37;14115.63;2696.152;24328.49;0.6972577;4.085929;20314.13;10919.82;-0.1104049;0.1941886;0;
19696.15;15002.25;3885.422;24261.82;-2.652345;-6.501236;20981.22;11627.35;0.1495754;0.2589608;0;
139.1153;68.5223;3662.706;710.1896;-2.917124;-9.106915;-268.7996;-487.3907;0.539229;0.323668;0;
-32646.65;-27620.6;2833.675;-34793.41;-5.660859;-5.547792;-33998.04;-23457.68;0.08391591;0.1284407;0;
-27029.55;-21960.24;2055.795;-31495.2;-6.392106;-6.279029;-28141.53;-17555.22;0.08383159;-0.06659036;0;
-13580.99;-8543.593;773.4198;-18764.7;-5.581399;2.903697;-14734.21;-4350.229;0.1487147;0.06341124;0;
-13228.36;-8690.789;-450.6487;-18567.05;-6.848589;6.919755;-14305.46;-5873.371;-0.4361408;-0.1315545;0;
8840.546;7942.791;-272.8007;6234.01;1.933179;4.099519;8974.285;5921.652;-0.3707352;-0.3263243;0;
24756.06;19675.61;567.2701;28826.95;4.007341;5.435059;26286.44;16079.64;-0.1754607;-0.001159748;0;
21088.21;16381.83;1308.14;26786.28;-0.1498712;9.716383;22604.19;13303.46;-0.5001211;0.5835475;0;
18683.89;13975.24;2686.304;24169.02;-0.5508862;10.24248;20186.15;10768.38;-0.1747819;0.5179938;0;
19519.61;14849.85;3876.646;24200.82;-1.82313;11.30392;20808.48;11490.27;0.08526313;-0.002265417;0;
-247.72;-252.5678;3645.911;512.1309;-2.759304;12.29731;-650.2618;-710.6803;-0.1746919;-0.3270999;0;
-33258.08;-28216.05;2805.856;-35367.66;-7.645675;2.17077;-34598.17;-23976.6;-0.109549;-0.001934469;0;
-27214.36;-22154.72;2055.912;-31742.19;-8.978139;0.1591004;-28331.85;-17777.03;-0.04447162;0.3229042;0;
-13522.08;-8511.571;791.0747;-18710.54;-12.72016;-3.859913;-14680.06;-4311.993;0.2154424;0.06271037;0;
-13950.04;-9318.39;-449.2065;-19289.89;-13.98018;-8.075838;-15056.41;-6205.644;0.2152259;-0.002319992;0;
8025.625;7330.531;-269.892;5340.795;-12.09012;2.38137;8100.496;5621.853;-0.3696964;0.1925844;0;
24664.22;19625.26;571.5814;28662.94;-13.41812;2.579926;26172.36;16028.72;-0.2393902;0.3223256;0;
21013.88;16280;1304.42;26715.18;3.273503;5.457478;22535.3;13175.96;-0.04424766;0.5169037;0;
18604.01;13917.49;2668.188;24113.38;9.634202;8.131189;20119.95;10727.82;0.02076414;0.1265803;0;
19482.72;14800.44;3829.454;23939.07;0.5821921;1.090056;20689.85;11425.36;0.4755147;-0.458253;0;
-383.0193;-399.2787;3606.856;0.1772575;3.327297;1.892756;-942.1423;-854.6894;0.2801349;-0.3278579;0;
-32820.61;-27797.25;2808.132;-35040.24;-1.967332;-4.740335;-34205.13;-23585.54;-0.04498334;-0.002691733;0;
-27056.11;-21991.48;2051.095;-31489.99;-4.979465;-6.946008;-28135.87;-17528.85;0.4098333;0.1272457;0;
-13738.82;-8654.581;776.4868;-18905.7;6.613464;0.3619887;-14858.56;-4386.644;0.6043234;0.06215047;0;
-12856.94;-8336.603;-438.0115;-18240.62;7.142682;1.031454;-13950.44;-5519.103;0.2788795;-0.1977814;0;
9059.27;8119.288;-287.147;6470.167;9.412681;6.321948;9121.833;6114.192;-0.3061067;-0.26255;0;
24496.26;19414.78;511.1779;28624.76;14.15864;9.19574;26009.78;15824.43;-0.1758645;-0.3922209;0;
20840.26;16143.34;1238.986;26533.24;1.753186;8.248738;22357.75;13049.37;-0.1107204;-0.2618921;0;
18382.95;13663.19;2605.319;23865.92;5.032978;8.642347;19874.66;10453.26;-0.1755765;0.06320782;0;
19357.07;14721.18;3803.238;23946.79;-2.942682;14.19312;20637.5;11355.44;0.1494366;-0.001823047;0;
-696.3733;-594.6984;3597.862;-75.14249;-6.958213;16.45628;-1118.416;-1097.687;-0.1105829;-0.001821215;0;
-33834.55;-28738.19;2776.002;-36023.28;35.44739;6.258586;-35194.98;-24544.33;-0.3053738;-0.1967214;0;
-27250.92;-22186.44;2043.017;-31846.96;46.59755;4.845656;-28388.53;-17842.1;-0.1751323;-0.3914258;0;
-13911.06;-8887.409;780.5976;-19134.97;44.94314;0.7549503;-15084.71;-4751.698;-0.3698584;-0.1311631;0;
-14635.49;-9958.639;-461.4847;-19990.28;53.4718;-3.264662;-15752.69;-6812.697;-0.1745847;-0.001096619;0;
7824.605;7218.488;-272.3189;5116.684;43.10294;5.245206;7881.825;5588.184;0.2153948;-0.06606286;0;
24596.64;19585.34;572.9674;28609.82;41.38567;4.838038;26097.11;15982.95;-0.04469103;-0.001029137;0;
20971.67;16220.92;1299.714;26679.91;45.63099;7.981253;22490.53;13104.99;0.02032122;0.1289066;0;
18642.62;13974.17;2684.976;24104.99;44.245;10.92048;20139.6;10786.05;0.4101048;-0.001157629;0;
19842.76;15118.31;3896.34;24483.14;32.01038;-0.008464381;21107.6;11730.36;0.01988872;-0.1310911;0;
-2.389592;-142.3588;3684.655;708.5919;27.15544;-1.549063;-459.9675;-656.4861;-0.1100659;0.3887793;0;
-33017.56;-28022.92;2852.79;-35205.46;27.06081;1.265776;-34405.16;-23859.83;0.149914;0.1934866;0;
-27415.74;-22297.71;2083.606;-31904.91;23.61736;0.728641;-28527.21;-17902.05;0.08479604;-0.5863159;0;
-14854.85;-9772.256;812.244;-19947.41;28.08161;2.536448;-15962.85;-5565.797;-0.1101912;-0.3908247;0;
-14591.69;-9982.654;-387.9225;-19953.14;27.25009;2.868692;-15686.26;-7000.574;-0.4998845;-0.1305626;0;
8455.563;7682.923;-179.153;5785.485;33.98786;5.344178;8490.673;5847.787;-0.6942843;-0.0004967827;0;
24698.94;19649.89;657.8251;28754.94;37.10154;6.477518;26192.54;16034.8;-0.3687499;0.1944057;0;
20908.32;16194.46;1389.156;26606.26;30.03069;5.80118;22431.35;13100.99;-0.2384447;-0.06565896;0;
18616.09;13903.23;2779.748;24091.38;31.27331;5.661385;20110.6;10699.13;0.08663157;-0.455397;0;
19476.52;14854.4;3974.556;24059.08;22.06584;5.990611;20753.11;11487.2;0.4113812;-0.3899721;0;
-1070.154;-893.2312;3741.177;-406.2334;17.8241;5.113814;-1493.213;-1325.284;0.4759352;-0.1297109;0;
-34175.47;-29061.38;2914.816;-36347.07;27.71918;3.032204;-35544.63;-24850.21;0.4104896;-0.06461322;0;
-27653.98;-22616.37;2171.993;-32179.67;26.6196;1.354706;-28773.47;-18146.79;0.02027315;-0.2594503;0;
-13663.26;-8588.591;928.2476;-18885.26;31.14721;-3.268355;-14804.8;-4284.926;0.08522011;-0.324157;0;
-12910.4;-8353.856;-262.9306;-18271.72;34.19737;-6.145337;-14006.79;-5426.873;0.4099712;0.001005451;0;
9027.5;8144.608;-80.64856;6660.071;21.30228;-7.411838;9144.378;6264.612;0.08472255;0.1959065;0;
24610.22;19534.23;724.2935;28832.26;19.60691;-9.212808;26143.3;15947.17;-0.1102646;0.455579;0;
20868.83;16164.69;1435.224;26525.94;20.92638;-10.54321;22378.06;13059.26;-0.1101538;0.6500233;0;
18453.34;13735.52;2798.814;23963.74;19.23139;-10.93451;19962.67;10544.05;-0.04507579;0.5844027;0;
19307.03;14698.96;3985.232;23772.17;22.22618;-11.59329;20542.29;11327.04;0.08490419;0.4538809;0;
-1219.981;-1015.527;3780.548;-752.1339;20.32784;-11.58165;-1708.781;-1460.622;0.01985153;-0.1312813;0;
-33974.57;-28855.73;2979.04;-36178.7;27.94322;-7.2163;-35335.64;-24629.27;-0.1101031;-0.1961167;0;
-27159.03;-22134.22;2239.23;-31695.22;29.45636;-5.266544;-28275.87;-17721.19;-0.3698618;0.06394973;0;
-13582.1;-8530.983;990.4034;-18837.85;20.18336;-4.993321;-14748.92;-4302.697;-0.1745882;-0.001081879;0;
-12874.72;-8417.214;-205.7254;-18229.59;18.89029;-4.050542;-13963.67;-5596.939;0.2803586;0.1938213;0;
9318.004;8330.907;-25.31242;6977.454;13.44532;1.178074;9446.473;6311.139;0.02020758;-0.001275545;0;
24687.1;19604.83;785.9459;28938.81;12.6285;4.458932;26220.56;16003.69;-0.3046494;-0.1961763;0;
20877.45;16175.61;1504.17;26531.66;0.6930968;-5.257829;22390.53;13096.7;0.08546073;-0.06604449;0;
18522.36;13814.35;2866.145;24012.24;-6.072754;-7.529844;20026.84;10604.15;0.2802769;0.1289239;0;
19474.78;14812.17;4056.447;24088.68;19.11795;-0.2213823;20738.22;11452.79;0.2150279;-0.131075;0;
-900.6852;-866.828;3853.236;-198.1841;23.98886;-0.8909892;-1329.318;-1345.38;0.3447465;-0.5207474;0;
-33991.5;-28935.22;3026.622;-36139.03;17.06491;0.8514623;-35338.76;-24727.54;0.2794328;-0.3253221;0;
-27829.03;-22757.68;2250.157;-32326.43;19.79443;1.721385;-28928.36;-18148.3;0.01928265;-0.3249952;0;
-14596.29;-9516.36;987.9355;-19725.12;18.83653;-4.375669;-15695.67;-5086.59;0.2141653;-0.389636;0;
-13710.27;-9147.51;-202.4906;-19093.55;20.15775;-4.974119;-14787.91;-6205.695;0.1489828;-0.2593098;0;
8888.28;8014.278;-16.8647;6397.819;18.12777;-8.653061;8975.374;6138.292;-0.5008404;0.1307548;0;
24495.58;19418.41;792.308;28668.85;18.71276;-10.31894;26016.46;15832.11;-0.4353698;0.2605581;0;
20608.34;15915.7;1510.182;26273.08;17.95703;-8.299083;22121.48;12820.66;0.01983909;-0.3893771;0;
18252.81;13514.81;2892.5;23757.99;17.93898;-9.831351;19757.91;10316.33;0.2147212;-0.06414916;0;
19054.71;14507.18;4086.055;23408.38;22.8101;-2.587438;20292.13;11152.67;0.1495381;0.5855888;0;
-1965.954;-1561.829;3859.92;-1615.766;22.98825;-1.245301;-2437.475;-1924.979;-0.1104815;0.0652616;0;
-34971.57;-29789.07;3046.964;-37184.07;35.42374;-3.521348;-36320.07;-25508.31;-0.1753379;-0.06473868;0;
-28229.4;-23217.46;2298.59;-32739.13;41.0152;-2.647032;-29312.77;-18633.56;0.08470768;0.2601631;0;
-14792.98;-9688.402;1041.255;-19983.69;30.18937;-9.208577;-15886.25;-5265.864;0.08462257;0.2599017;0;
-13445.58;-8954.094;-132.4367;-18871.01;30.76225;-10.73993;-14530.12;-6100.182;0.0195702;0.3895752;0;
9254.775;8293.426;56.74194;6726.942;28.92267;-13.47538;9326.824;6302.045;0.2144526;-0.06558763;0;
24473.87;19395.35;849.0991;28671.35;26.68281;-15.53825;25993.38;15803.11;0.01933505;-0.4553258;0;
20638.52;15945.6;1575.099;26312.04;32.95264;-14.58488;22152.82;12856.18;-0.04565172;0.1948052;0;
18436.25;13696.31;2958.477;23920.25;32.98687;-16.17781;19934.78;10491.9;0.2792309;0.3895114;0;
19216.83;14669.02;4138.05;23667.03;32.01572;-9.262435;20468.41;11311.52;0.01908092;0.1292507;0;
-1832.473;-1463.193;3906.913;-1357.638;31.78248;-7.712521;-2280.799;-1870.319;0.01906175;-0.0008138717;0;
-34802.46;-29632.3;3084.273;-37010.99;27.93216;-7.43684;-36153.57;-25390.74;0.4088466;-0.1957151;0;
-27814.37;-22791.1;2325.882;-32353.42;24.88998;-4.415257;-28907.31;-18258.64;-0.1113029;-0.1305511;0;
-14215.46;-9144.846;1055.479;-19453.51;29.01816;-15.46276;-15322.65;-4766.134;-0.3710604;-0.06545256;0;
-13250.57;-8681.62;-139.4341;-18680.48;28.65421;-18.0595;-14346.33;-5767.542;0.2789858;-0.2602888;0;
9070.872;8289.858;45.06641;6595.064;18.37764;-10.80738;9146.701;6367.032;0.1487708;-0.3249946;0;
24463.03;19423.3;848.6797;28677.93;15.6125;-11.26534;25987.48;15828.72;-0.30615;0.065136;0;
20717.1;15991.25;1577.429;26388.54;11.17619;-7.703983;22232.77;12896.51;0.08396161;0.06507055;0;
18412.43;13708.87;2969.034;23885.06;7.681356;-5.485927;19909.56;10508.59;0.3437466;3.78102E-05;0;
19617.88;14976.14;4166.198;24230.43;11.75947;-10.90591;20900.71;11615.22;0.3434012;0.1299725;0;
-1201.954;-1066.447;3918.165;-445.8347;11.34649;-10.694;-1593.474;-1506.968;0.6029255;-0.1949949;0;
-34609.63;-29512.79;3060.782;-36734.93;12.40682;-9.745497;-35929.64;-25278.07;0.277483;-0.584603;0;
-28091.19;-23038.43;2282.471;-32605.48;12.72915;-10.27157;-29178.4;-18425.47;0.2122369;-0.3891135;0;
-15536.85;-10467.26;985.3601;-20607;15.1946;-6.17541;-16622.69;-6002.82;0.471893;0.1959835;0;
-14843.19;-10299.76;-208.1555;-20264.09;16.31743;-5.767307;-15926.41;-7292.075;-0.1782546;-0.1290501;0;
8780.968;7917.208;9.397498;6059.625;12.75106;-4.622803;8811.074;6081.377;-0.3729775;-0.5187244;0;
24567.55;19502.44;815.6703;28662.56;12.33709;-3.546431;26058.08;15911.68;0.01720128;0.06650282;0;
20584.87;15884.01;1542.094;26287.68;9.31058;-8.499482;22109.87;12782.07;-0.04778334;0.3263054;0;
18511.42;13780.73;2939.498;23976.07;8.028427;-9.495686;20009.43;10585.83;0.08219936;0.06610812;0;
19379.17;14821.88;4111.188;23899.72;6.14435;-11.09367;20631.88;11453.86;0.2120515;-0.258795;0;
-1788.984;-1435.551;3852.311;-1183.277;4.665284;-12.95805;-2224.33;-1854.453;0.08190369;-0.3235023;0;
-34774.21;-29611.38;3013.391;-36957.37;4.593247;-9.127063;-36110.5;-25370.41;0.2767234;0.06662679;0;
-27917.97;-22896.08;2234.394;-32409.68;2.177734;-8.180131;-29000.11;-18294.85;-0.1133587;-0.06337485;0;
-14660.69;-9539.045;941.469;-19834.12;12.22225;-11.38703;-15750.34;-5104.667;-0.5030488;-0.3231805;0;
-13249.07;-8778.666;-238.6031;-18641;15.3578;-10.63884;-14308.34;-5963.854;-0.3726087;-0.2578885;0;
9593.082;8574.405;-11.38367;7252.337;6.702185;-11.56585;9695.526;6555.255;-0.2422996;0.002240031;0;
24602.21;19519.27;814.775;28898.92;9.106348;-12.69294;26126.49;15935.7;0.1477479;-0.06272956;0;
20721.1;16023.81;1555.256;26372.9;-2.289657;-3.771636;22234.48;12929.1;0.08263212;-0.3875032;0;
18431.29;13712.02;2955.722;23918.21;-6.172122;-2.428187;19930.75;10518.98;-0.3722223;-0.06227716;0;
19370.46;14757.32;4138.375;23941.08;6.36001;-1.28716;20640.09;11387.88;0.2778251;0.5224915;0;
-1292.641;-1092.255;3879.736;-616.4581;3.272161;1.393451;-1703.114;-1532.545;0.6673499;0.06719511;0;
-34353.66;-29229.48;3020.377;-36514.59;18.54049;-9.124025;-35688.48;-25008.03;-0.1129286;-0.6475132;0;
-27373.45;-22352.51;2252.492;-31916.41;19.66094;-10.05262;-28477.38;-17871.15;-0.3077172;-0.3220259;0;
-13793.28;-8678.565;986.5825;-18985.4;13.0771;-11.58306;-14908.01;-4364.365;0.3422654;0.1980365;0;
-12622.12;-8261.598;-181.6971;-17989.55;15.67593;-13.64783;-13676.78;-5545.149;0.4718562;0.1328701;0;
9979.682;8720.984;59.31749;7692.56;-21.38077;-2.31425;10122.23;6610.971;0.08157802;0.197704;0;
24764.97;19625.61;887.4041;29086.35;-30.20055;1.0371;26303.12;16046.43;0.1464634;0.06757063;0;
20735.8;16075.92;1628.015;26391.31;-36.73429;1.370972;22243.87;12993.83;-0.04858581;-0.1273993;0;
18543.57;13801.66;3029.08;24051.83;-48.55275;4.450687;20045.71;10595.3;-0.3733737;0.1975654;0;
19345.06;14751.79;4204.366;23836.34;-10.86077;6.924584;20601.4;11395;0.2117075;0.2623343;0;
-1482.672;-1241.387;3956.373;-956.2875;-3.080326;8.525094;-1921.267;-1637.955;0.1465275;0.002201286;0;
-34360.7;-29228.37;3109.915;-36559.85;-6.426134;14.47789;-35711.82;-24989.35;-0.1134891;-0.2576703;0;
-27419.74;-22404.24;2337.786;-31936.73;2.891073;18.01344;-28517.91;-17920.16;0.2114616;-0.1274767;0;
-13852.51;-8748.865;1082.833;-19090.57;-6.355233;8.149088;-14972.1;-4405.951;0.1462818;0.3274228;0;
-12343.84;-8018.453;-72.1599;-17798.9;-5.54554;7.00219;-13441.13;-5288.282;-0.1787019;0.1971591;0;
10165.58;8891.608;156.5633;7834.763;4.373994;8.401674;10267.36;6782.842;-0.4383917;-0.06290837;0;
24721.73;19589.36;973.8545;29056.7;5.240255;6.182917;26251.91;16012.62;0.08178753;0.4568936;0;
20680.63;16021.71;1711.302;26342.03;3.225258;16.89373;22187.64;12938.97;0.5364767;0.4564345;0;
18467.07;13719.27;3113.22;23952.4;1.346007;20.1588;19963.39;10505;-0.04876838;0.06617182;0;
19334.21;14755.15;4289.562;23929.8;4.627184;13.37339;20602.44;11408.27;0.01624796;0.19604;0;
-1398.379;-1130.109;4025.554;-695.561;6.497569;14.83357;-1807.714;-1544.254;0.4060357;0.06590835;0;
-34254.8;-29110.85;3165.97;-36453.23;-13.46865;11.00076;-35591.15;-24851.88;0.080791;-0.3239619;0;
-27466.26;-22432.45;2382.01;-32044.08;-19.2159;8.444359;-28554.5;-17858.91;-0.1791596;-0.3886038;0;
-14637.46;-9544.973;1089.281;-19810.89;-10.22063;19.68876;-15725.01;-5127.432;0.2108245;-0.1283439;0;
-13921.73;-9456.75;-91.89264;-19345.52;-13.62661;20.47277;-15009.39;-6436.729;0.01571066;0.1966218;0;
9157.621;8165.196;146.3612;6734.488;0.5196239;21.79186;9232.906;6348.238;-0.6339785;0.001522151;0;
24652.06;19584.76;976.906;28918.6;5.542943;25.25296;26169.31;15981.69;-0.4384395;-0.2583487;0;
20592.87;15896.07;1726.391;26257.24;-8.327726;7.946473;22101.69;12798.08;0.1467071;-0.1281545;0;
18384.43;13659.68;3136.603;23874.8;-7.515076;4.120461;19880.29;10458.09;0.4064291;-0.192993;0;
19240.66;14653.25;4315.326;23707.28;-12.46499;8.671038;20485.46;11289.39;0.276086;-0.3227338;0;
-1790.111;-1505.128;4077.654;-1282.634;-14.99709;4.84442;-2243.48;-1851.755;0.4057433;0.002427186;0;
-34451.29;-29287.28;3255.562;-36670.14;-7.078765;16.76227;-35798;-25032.21;0.4053356;0.0673921;0;
-27672.12;-22650.53;2483.63;-32182.01;-7.004303;18.62083;-28745.6;-17994.97;-0.1148104;0.1322917;0;
-14525.29;-9381.271;1211.194;-19733.07;-1.170116;11.70312;-15614.9;-4867.372;0.01523962;0.1971262;0;
-12550.88;-8191.578;62.8978;-17978.51;2.31466;12.16024;-13605.3;-5517.559;0.08019165;-0.1279086;0;
10270.41;8984.977;295.5614;7968.042;-2.577786;2.569707;10414.33;6841.214;-0.309693;-0.4526168;0;
24679.23;19535.08;1113.853;29013.53;-0.8338836;-0.9159879;26220.31;15965.91;-0.04951243;-0.7120314;0;
20684.91;16028.05;1859.53;26332.82;-3.713434;0.8934717;22189.35;12931.29;-0.3742994;-0.3215119;0;
18475.92;13734.45;3245.37;23963.15;-4.847802;-0.8489823;19969.66;10530.4;-0.7637274;0.2635172;0;
19307.42;14718.22;4411.6;23888.08;1.452732;-0.8481293;20590.54;11360.71;-0.1782539;0.003383071;0;
-1312.355;-1062.924;4167.209;-630.0487;0.8490363;-1.383141;-1681.954;-1479.102;0.341664;0.263249;0;
-33985.47;-28839.03;3322.882;-36170.18;8.818786;0.3598055;-35308.58;-24592.75;0.406288;0.3279519;0;
-27129.74;-22119.03;2550.68;-31679.68;12.96311;0.3594439;-28241.26;-17552;0.3409124;-0.1921164;0;
-13870.39;-8760.569;1277.974;-19060.21;-1.853021;4.310954;-14973.15;-4340.527;0.2756025;0.1978807;0;
-12659.56;-8271.446;107.9335;-18038.18;-3.3914;5.847229;-13717.01;-5420.652;0.4052603;0.5225186;0;
9877.716;8664.372;340.0209;7568.297;-2.182544;1.755517;9987.866;6697.691;0.08001637;0.1971568;0;
24751.23;19631.68;1158.205;29065.87;-3.85529;1.820736;26273.92;16054.96;-0.5047701;0.1319914;0;
20733.74;16061.38;1897.794;26405.84;0.3017696;-3.271674;22247.39;12958.22;-0.1794262;0.06689144;0;
18520.81;13796.57;3303.945;23997.15;-0.8376094;-5.344858;20014.26;10610.23;-0.04931122;-0.4529145;0;
19507.72;14887.3;4484.78;24120.38;10.75116;-4.334743;20796.04;11508.56;-0.309131;-0.5174268;0;
-1169.79;-991.516;4225.121;-424.2142;16.09899;-6.138927;-1540.483;-1375.935;0.08098362;-0.1271028;0;
-33471.5;-28342.32;3376.19;-35685.75;0.6101215;-2.448697;-34797.05;-24117.46;0.3407716;-0.4518118;0;
-26388.48;-21373.41;2620.52;-30940.2;-0.5295674;-2.245288;-27490.92;-16960.25;0.1455272;-0.7112272;0;
-13192.5;-8061.205;1362.346;-18405.64;1.749117;-2.778895;-14330.54;-3807.299;-0.04952107;-0.3207085;0;
-11172.69;-7019.843;217.7082;-16566.02;-0.1286512;-2.039412;-12223.04;-4601.557;0.2103981;-0.06051688;0;
11220.96;9619.335;450.4192;9099.921;5.498532;-6.592081;11429.77;7245.833;0.5350233;0.134446;0;
24850.09;19672.49;1234.291;29277.85;5.626729;-7.924994;26406.82;16115.12;0.1446817;0.2642456;0;
20734.71;16104.08;1957.093;26363.6;6.424383;-7.046374;22229.39;13023.68;0.01460165;0.4588821;0;
18613.41;13871.56;3339.962;24098.55;7.489655;-7.90995;20109.47;10654.85;-0.1153477;0.5883557;0;
19470.41;14841.42;4493.852;24120.31;1.922423;-8.236917;20752.65;11488.05;-0.2451665;0.1329931;0;
-929.5498;-838.2078;4249.973;-155.7519;0.8487648;-8.764503;-1313.496;-1212.832;0.2748186;-0.1919773;0;
-32977.99;-27878.13;3409.857;-35201.51;-3.103227;-10.56424;-34327.14;-23631.08;0.3395098;-0.126817;0;
-26091.38;-21063.59;2605.505;-30633.95;-6.918502;-12.3621;-27216.01;-16650.44;-0.1156027;-0.2566243;0;
-13456.87;-8330.663;1292.53;-18645.62;1.461194;-7.995849;-14607.15;-4082.222;-0.1154866;-0.1264317;0;
-11531.5;-7311.66;120.195;-16949.16;2.732524;-7.384968;-12604.54;-4889.259;-0.3102725;-0.06133736;0;
11130.09;9601.377;334.7476;8986.122;-6.446273;-13.7408;11309.81;7252.006;-0.3099608;-0.3211451;0;
24869.11;19696.76;1104.087;29297.38;-7.311429;-14.86571;26414.46;16157.46;0.0801547;-0.1908877;0;
20791.61;16145.06;1802.454;26416.17;-8.911673;-16.19037;22287.45;13042.53;0.2100088;-0.3855979;0;
18574.93;13853.15;3159.038;24035.44;-10.8451;-16.77695;20058.9;10660.08;0.1448305;-0.5801125;0;
19644.59;14967.1;4308.769;24394.92;-4.872356;-18.36768;20953.18;11583.97;0.07971762;0.005176457;0;
-449.9297;-482.5247;4057.782;513.3846;-4.66639;-19.08597;-773.6558;-950.9092;-0.05029716;0.07013861;0;
-32514.38;-27461.38;3213.768;-34701.13;-0.4421425;-13.5074;-33847.11;-23293.24;0.2745901;-0.1898012;0;
-25392.27;-20340.59;2443.018;-29949.46;3.376695;-12.15417;-26527.28;-16179.13;0.3392815;0.005291493;0;
-12534.06;-7393.12;1154.756;-17718.77;-8.415694;-7.453208;-13705.04;-3389.061;-0.1807981;0.005286176;0;
-10629.25;-6628.259;-23.92136;-16067.15;-9.747385;-3.694797;-11690.54;-4316.891;-0.5054532;0.1352156;0;
11789.23;9941.669;192.8375;9705.504;-5.517056;-9.250546;12026.69;7474.272;-0.4399779;0.2650144;0;
25050.81;19843.54;980.3884;29521.27;-7.05273;-8.839354;26610.12;16293.84;0.3400722;0.1997807;0;
20833.48;16227.5;1696.871;26451.99;3.269485;-3.940839;22319.88;13152.99;0.7295346;-0.06028937;0;
18682.21;13933.37;3061.276;24170.61;6.146587;-1.994375;20176.82;10718.26;0.07912813;-0.3850655;0;
19490.79;14850.11;4219.257;24135.08;1.652433;-5.475483;20766.49;11496.94;0.2739506;-0.05984187;0;
-735.189;-720.9303;3998.814;31.71446;3.727854;-6.474725;-1132.757;-1084.408;0.6634794;0.3949897;0;
-32336.31;-27259.1;3195.947;-34577.39;-7.395303;-0.7747921;-33689.04;-23025.13;0.3379761;0.2646581;0;
-24963;-19921.82;2452.108;-29531.15;-12.81288;-1.912723;-26089.78;-15762.04;0.01279975;0.1994248;0;
-12305.64;-7208.779;1183.047;-17574.85;3.141201;3.246762;-13514.41;-3184.925;0.01278689;0.1992244;0;
-10514.92;-6450.194;36.65216;-15856.31;4.209771;4.38221;-11564.68;-4136.885;0.3376108;-0.06084513;0;
11815.22;10103.49;297.7185;9996.903;-4.368274;-8.214619;12125.12;7615.132;0.2073368;-0.1907187;0;
25052.26;19867.28;1106.919;29619.79;-4.76505;-11.01959;26630.73;16323.16;-0.1826756;-0.5803311;0;
20915.37;16290.31;1836.33;26504.64;-12.53077;-18.64439;22392.79;13215.36;-0.2474593;-0.4498133;0;
18733.35;14007.28;3227.285;24211.08;-15.39857;-23.24741;20221.94;10791.56;-0.5720474;-0.1245246;0;
19753.2;15070.49;4389.659;24523.09;-13.30601;-20.87971;21064.34;11710.28;-0.3116032;-0.2543342;0;
-45.70358;-141.7601;4149.96;925.0133;-14.09693;-22.3323;-348.1205;-660.6801;0.4033506;0.005790759;0;
-31903.19;-26864.79;3310.148;-34128.84;-8.991572;-18.291;-33228.71;-22701.56;0.01314128;-0.0591824;0;
-25690.76;-20629.09;2502.351;-30220.37;-5.700984;-16.3971;-26812.27;-16203.19;-0.376676;-0.1890576;0;
-14484.28;-9355.99;1173.347;-19519.86;-10.65175;-14.84008;-15599.71;-5084.884;-0.05146078;0.2009364;0;
-12642.02;-8462.955;16.45247;-18011.15;-11.17691;-13.35154;-13674.2;-5960.52;0.2084603;0.1357672;0;
11232.58;9619.323;292.2036;9087.995;4.173291;-6.305163;11451.65;7313.738;0.3381855;-0.189206;0;
25065.94;19883.46;1092.96;29510.64;8.254935;-2.748733;26616.76;16337.01;0.5327477;-0.1890159;0;
20766.4;16141.59;1807.331;26390.65;5.634672;-9.779057;22257.48;13054.11;0.662147;-0.4486953;0;
18660.01;13932.72;3181.729;24126.73;9.245357;-10.17113;20147.7;10732.35;0.531547;-0.2533424;0;
19585.89;14913.3;4329.829;24313.8;-1.748646;-11.76844;20887.63;11549.86;0.01127426;0.5914876;0;
-428.4558;-512.3763;4098.764;462.33;-3.689272;-13.83302;-757.753;-947.4722;-0.5084758;0.7208279;0;
-32247.56;-27208.88;3265.281;-34485.88;1.203579;-13.28326;-33582.79;-22992.08;-0.1181608;0.3302996;0;
-25546.37;-20472.44;2461.48;-30079.71;0.1979916;-15.07845;-26664.18;-16179.28;0.01189258;0.2650004;0;
-14061.06;-8940.112;1142.762;-19144.93;6.962947;-12.65198;-15181.3;-4762.27;-0.3779234;0.5246035;0;
-12799.34;-8491.163;-17.58437;-18133.59;8.429819;-12.1034;-13833.25;-5857.65;0.2721297;0.1342723;0;
10785.46;9393.134;273.9899;8681.15;10.69852;-15.64127;11009.3;7197.536;0.07695428;-0.3856014;0;
25077.62;19928.64;1097.191;29497.47;12.49644;-14.95573;26631.33;16376.53;-0.3129271;-0.06037721;0;
20887.25;16227.22;1807.481;26504.98;11.41215;-18.28972;22375.65;13133.45;0.2720934;0.06961816;0;
18821.79;14129.27;3204.009;24271.91;13.40944;-19.41006;20306.07;10943.89;-0.0530167;-0.1903212;0;
19985.23;15260.36;4358.848;24732.59;3.616703;-11.82166;21292.8;11878.54;-0.3128328;0.1347068;0;
-61.60788;-255.6185;4066.457;907.266;1.134822;-10.93901;-388.3462;-670.3557;0.01231825;0.3294735;0;
-31600.83;-26619.47;3193.729;-33865.26;5.019424;-6.976084;-32953.87;-22420.13;0.2721752;0.1992077;0;
-24507.38;-19429.73;2391.406;-29122.19;2.803578;-4.624794;-25657.58;-15406.09;0.1419671;0.3289422;0;
-12928;-7773.851;1068.948;-18114.15;13.18324;-9.241847;-14100.63;-3905.45;-0.3779143;0.3286117;0;
-11286.83;-7273.272;-92.93296;-16668.64;16.0494;-8.696698;-12310.58;-5000.755;-0.5074693;0.1983468;0;
12028.39;10193.99;173.3547;10095.85;10.00506;-14.64932;12334.72;7693.142;-0.636894;0.06821285;0;
25331.11;20132.61;967.6874;29862.11;11.00036;-17.24687;26905.29;16592.86;-0.24645;-0.3216597;0;
20929.31;16322.5;1687.072;26517.8;6.300255;-12.87577;22402.24;13245;0.5983731;-0.4512712;0;
18980.63;14246.34;3074.413;24443.58;4.485263;-13.39864;20463.85;11048.9;0.2079677;-0.1259811;0;
19754.67;15087.75;4202.083;24451.55;5.150342;-12.44748;21056.98;11711.63;-0.05211059;0.1989822;0;
-329.2949;-394.9137;3927.856;485.4343;2.465849;-11.69816;-672.2997;-779.6954;0.07787645;0.3936843;0;
-31093.56;-26039.94;3103.775;-33470.48;10.83612;-14.09773;-32453.05;-21870.94;-0.3120058;0.3283214;0;
-23235.41;-18158.21;2336.946;-27908.55;13.43817;-15.22227;-24409.82;-14421.52;-0.3766597;0.06812213;0;
-10701.96;-5608.135;1028.317;-16070.12;0.9660883;-9.178633;-12003.45;-1949.713;-0.05144451;0.003086323;0;
-9061.214;-5201.936;-139.1298;-14409.16;-0.7098218;-7.360871;-10122.67;-3071.908;-0.1813275;-0.3217535;0;
12632.96;10702.02;122.9252;11083.32;1.635416;-14.31958;13057.48;8049.418;-0.1811453;-0.5163322;0;
25312.03;20124.73;905.6426;29980.81;0.2946022;-14.50614;26915.59;16605.62;0.07890608;-0.1260093;0;
21053.91;16443.78;1586.812;26599.37;6.723691;-17.50573;22508.23;13374.44;0.2087615;0.3288887;0;
18877.49;14160.95;2950.125;24370.15;8.995088;-19.69852;20373.55;10956.51;0.01364969;0.2635909;0;
19754.32;15059.65;4072.954;24500.65;4.430722;-11.84191;21041.71;11698.7;-0.05133137;-0.1264781;0;
35.06446;-109.3666;3794.109;933.9139;4.62734;-10.55733;-313.922;-487.7193;0.5983936;-0.2562857;0;
-30213.53;-25197.13;2959.933;-32582.62;8.507457;-10.68069;-31557.57;-20989.27;0.922629;-0.06112612;0;
-22540.27;-17443.24;2150.208;-27176.09;9.771707;-9.062428;-23693.21;-13754.16;0.2070612;0.1338373;0;
-10770.37;-5618.183;805.238;-16040;8.690161;-9.723151;-12023.08;-2017.876;-0.05301618;0.2636375;0;
-8893.309;-5257.42;-335.4201;-14240.7;9.485712;-8.172774;-9930.767;-3070.068;0.01200444;0.2633726;0;
13117.72;10849.14;-41.52747;11579.31;8.002313;-11.44666;13508.75;8240.552;-0.05297497;0.1981407;0;
25336.27;20137.68;744.9783;30049.97;7.123615;-12.30594;26931.76;16614.11;0.2069476;0.1329742;0;
21082.14;16508.85;1463.321;26618.22;13.81426;-6.533105;22552.13;13452.3;0.271707;-0.1270288;0;
19113.08;14370.74;2873.641;24582.04;16.27863;-5.923816;20599.79;11167.79;-0.05340269;-0.1918685;0;
19845.81;15167.79;3999.109;24579.75;10.97099;-3.305529;21173.95;11818.14;0.141553;-0.06174099;0;
177.2261;-12.43284;3704.674;1067.486;11.6969;-1.359703;-98.01675;-341.9402;0.4662475;-0.06167896;0;
-30272.6;-25259.96;2854.595;-32613.19;10.61342;-6.381935;-31593.95;-21020.14;0.01100759;0.003350359;0;
-22800.3;-17695.71;2052.004;-27408.46;9.196233;-6.844402;-23946.76;-13947.22;-0.3138402;-0.191555;0;
-10809.09;-5720.789;724.3899;-16112.21;18.29569;-6.301784;-12081.4;-2026.815;0.3361486;-0.1263952;0;
-9271.919;-5432.917;-426.8222;-14571.39;19.61746;-7.300074;-10313.49;-3220.99;0.01097411;-0.1912356;0;
12665.14;10720.74;-115.2997;11212.47;21.40641;-6.221134;13105.98;8103.759;-0.768645;-0.3209781;0;
25486.7;20310.45;710.6979;30174.81;24.93487;-7.085539;27092.04;16791.74;-0.3780686;-0.2556882;0;
21160.42;16552.3;1426.983;26692.41;10.84365;-5.00207;22618.54;13491.65;-0.05285203;-0.2554313;0;
18995.29;14283.25;2832.732;24485.78;7.684917;-4.461181;20484.15;11086.92;0.01216841;-0.12524;0;
19867.66;15163.37;3970.422;24644.93;12.76741;-8.743484;21189.46;11807.29;0.2070582;-0.1900815;0;
174.6138;-20.92724;3677.89;1161.361;9.33833;-9.270562;-100.6281;-351.3167;0.2718175;-0.4497598;0;
-30007.63;-25006.35;2828.026;-32349.63;22.25604;-12.07447;-31328.96;-20787.77;0.01167501;-0.1244712;0;
-22312.12;-17203.99;2019.386;-26959.13;26.25314;-13.40193;-23470.58;-13593.32;-0.1832387;-0.0593788;0;
-10570.59;-5449.915;681.966;-15869.37;7.2041;-9.905478;-11855.2;-1865.623;-0.1180873;-0.1892538;0;
-8846.99;-5224.221;-468.61;-14198.12;3.111024;-9.024746;-9909.604;-3012.608;-0.4428053;0.005838375;0;
13117.79;10873.89;-176.3171;11659.72;8.064391;-7.073173;13535.51;8252.992;-0.5073277;0.1357672;0;
25362.26;20170.08;628.5338;30097.78;5.44432;-4.051956;26962.19;16655.55;0.1428554;0.3305328;0;
21008.57;16433.75;1355.083;26527.66;5.572571;-7.597857;22463.81;13381.04;0.4025812;0.2652333;0;
18981.5;14247.01;2754.408;24481.74;5.43325;-7.724189;20476.82;11043.14;-0.05259465;0.1350322;0;
19668.28;14990.4;3869.22;24340.37;-3.882959;1.92887;20955.45;11643.26;-0.3124112;0.06992914;0;
-131.0118;-322.3525;3583.271;620.7586;-6.893167;3.266591;-489.7148;-672.8526;0.07770679;-0.06007583;0;
-30335.1;-25325.13;2742.154;-32769.05;-1.326535;8.420873;-31692.01;-21106.9;0.07762872;0.1998539;0;
-22520.38;-17420.41;1933.319;-27193.79;-0.9904099;11.96238;-23678.33;-13747.96;0.07755071;0.004751064;0;
-10845.48;-5711.613;610.6497;-16145.39;-3.26659;0.7644589;-12115.2;-2112.288;0.2074075;-0.3850577;0;
-9502.661;-5625.976;-526.4708;-14757.19;-4.067591;0.09386145;-10541.56;-3381.136;0.01229704;-0.05983415;0;
12651.72;10664.37;-225.0149;11228.82;4.442962;-6.202507;13070.98;8104.068;0.1422194;0.07016068;0;
25423.54;20229.12;575.4652;30129.77;8.524335;-11.01886;27021.98;16704.3;0.07710913;0.005122822;0;
20991.69;16403.33;1273.083;26514.98;-2.736387;0.9818494;22443.31;13357.14;-0.2478051;0.3299544;0;
18869.59;14145.74;2665.4;24363.14;-3.470572;1.114829;20354.53;10939.15;-0.1825887;0.1347208;0;
19607.11;14938.14;3796.824;24302.34;2.561135;3.190179;20905.7;11604.21;0.01249677;-0.1902513;0;
-418.2362;-522.0316;3506.075;421.9714;3.361869;6.33505;-752.2311;-803.0169;-0.05248313;0.06980929;0;
-30675.15;-25637.84;2660.944;-33064.75;6.908464;-3.785495;-32031.63;-21375.79;-0.3772671;0.1347065;0;
-22963.64;-17871.65;1858.078;-27633.38;8.509113;-4.45152;-24133.02;-14023.68;-0.4418554;0.004636434;0;
-11278.53;-6155.841;534.282;-16570.23;10.10815;-3.308337;-12545.85;-2368.898;0.07832734;0.2645012;0;
-9327.544;-5622.03;-590.6428;-14684.95;11.23707;-4.242774;-10367.86;-3407.275;0.2081833;0.1343007;0;
12888.62;10747.22;-282.1728;11313.09;12.16379;2.861558;13293.59;8142.391;0.01307212;-0.190671;0;
25207.39;20030.17;518.5053;29894.11;13.02222;5.336929;26799.01;16518.73;0.402863;-0.3204141;0;
20897;16315.39;1244.494;26425.24;9.995026;1.848576;22350.25;13266.52;0.4024582;-0.1901574;0;
18975.14;14256.18;2660.797;24440.11;10.1187;0.9759403;20461.55;11054.74;-0.1176849;0.004935669;0;
19879.08;15185.24;3785.666;24606.93;4.548832;10.28534;21178.05;11849.61;0.2722374;0.004930709;0;
-19.88433;-287.8435;3484.824;895.764;1.663873;12.01656;-342.9581;-647.6735;0.07706184;-0.1250089;0;
-30653.97;-25661.89;2619.099;-32996.54;11.0403;6.311063;-31999;-21427.25;-0.05295028;0.1999534;0;
-23326.29;-18200.83;1776.734;-27972.5;12.70317;6.572653;-24478.33;-14247.55;0.2069723;0.5245892;0;
-12583.89;-7455.527;409.8531;-17741.45;11.35123;-2.811317;-13786.89;-3569.955;-0.1180724;0.0692907;0;
-11548.39;-7409.618;-751.7563;-16841.4;13.68435;-5.621776;-12594.1;-4957.637;-0.0529864;-0.125681;0;
11684.51;10027.74;-438.2987;9964.083;9.651139;-4.745348;12008.27;7645.527;0.01203418;-0.1255547;0;
25139.71;19966.12;395.1761;29748.34;8.703437;-6.348049;26714.34;16425.6;-0.05294525;-0.2553632;0;
20608.95;16012.44;1119.352;26166.8;16.79999;-0.8493139;22065.99;12973.15;0.2069773;0.3295995;0;
18585.09;13870.01;2503.328;24083.49;18.05591;-0.04466532;20080.73;10656.1;0.2717367;0.5241703;0;
19377.43;14746.47;3607.616;23942.18;18.70735;6.720534;20613.82;11442.93;0.2064963;0.003904878;0;
-1298.55;-1274.881;3302.393;-669.6907;20.83201;9.794874;-1747.506;-1429.447;0.1413215;-0.1910011;0;
-32275.58;-27189.57;2439.272;-34678.78;11.7014;9.115203;-33635.5;-22821.3;0.3360815;-0.1908091;0;
-24733.13;-19658.31;1619.56;-29364.9;9.278743;11.58441;-25860.8;-15393.06;0.1408418;0.3291213;0;
-13456.62;-8326.286;296.7374;-18670.13;11.94874;3.200149;-14654.96;-4128.61;-0.2491038;0.58866;0;
-11472.92;-7416.686;-827.4802;-16851.32;8.922621;1.187446;-12513.92;-5054.167;0.01101587;0.1982644;0;
11926.15;10209.5;-517.8352;10168.16;16.28105;2.793843;12248.39;7737.844;-0.1838972;0.003163191;0;
25028.64;19863.45;279.722;29651.29;17.93963;0.714565;26609.87;16340.58;-0.05377776;0.1330947;0;
20497.72;15906.8;983.6026;26042.46;5.328321;4.062871;21952.05;12856.28;0.5959497;0.2628957;0;
18474.06;13742.07;2365.513;23984.32;2.710999;4.259738;19972.67;10535.12;0.4654162;0.1976642;0;
18981.96;14411.93;3466.05;23354.9;2.038689;1.710228;20178.72;11114.44;0.2050792;0.2624329;0;
-2096.507;-1889.52;3172.682;-1783.822;-0.7763985;1.239629;-2614.53;-1979.526;-0.05499625;-0.1276349;0;
-32613.03;-27464.19;2342.676;-35099.69;1.635279;3.515804;-33980.93;-23073.78;0.01002635;-0.3224086;0;
-24205.59;-19159.7;1554.591;-28859.66;1.0314;5.119739;-25331.59;-15049.47;-0.1199184;0.3275887;0;
-12660.81;-7510.267;251.6367;-17935.35;-1.582581;-1.985352;-13875.57;-3440.945;-0.2497326;0.3922269;0;
-10805.77;-6820.829;-866.4449;-16177.9;-3.254954;-3.65793;-11848.37;-4479.995;0.07535505;-0.2578406;0;
12193.82;10368.87;-545.3759;10451.99;1.503739;2.775985;12512.72;7880.968;-0.1196227;-0.1926142;0;
25137.36;19961.02;282.0534;29763;3.24354;2.907161;26713.25;16440.43;-0.05453516;0.06744872;0;
20651.82;16072.19;1003.392;26193.28;-7.677083;5.047572;22103.62;13015.83;0.205389;0.1973156;0;
18597.18;13856.1;2401.274;24090.67;-10.75083;5.980261;20088.44;10659.47;0.07524794;0.3270521;0;
19141.34;14599.93;3524.467;23680.57;-3.57273;4.902525;20350.72;11275.63;0.2700744;0.06685406;0;
-2016.005;-1728.943;3238.193;-1439.675;-2.899555;5.768377;-2505.871;-1895.315;0.2048357;0.06678689;0;
-32342.59;-27170.28;2432.155;-34811.16;-8.79114;0.3370856;-33708.01;-22845.16;-0.1202069;0.06671978;0;
-23437.34;-18409.87;1678.776;-28174.68;-10.0551;-0.6010141;-24593.55;-14491.55;-0.2500208;0.1316201;0;
-11705.52;-6542.62;388.6122;-16997.37;-7.633127;-0.06454679;-12962.39;-2695.628;-0.1198349;0.3913572;0;
-10001.68;-6144.977;-733.6987;-15383.41;-8.764533;-0.6003454;-11072.2;-3943.869;-0.05474712;0.1960619;0;
12610.41;10597.58;-434.9238;10897.54;-2.593784;1.476729;12921.85;8022.956;-0.3145615;-0.1939391;0;
25176.84;19982.85;366.2982;29816.09;0.1554883;1.006364;26748.95;16473.44;-0.2492781;-0.2587116;0;
20643.84;16077.94;1067.093;26180.94;-10.29352;7.83749;22094.33;13037.28;-0.1190929;0.001417711;0;
18603.8;13858.3;2430.835;24112.55;-11.15383;9.370101;20101.61;10646.48;-0.1189732;0.326253;0;
19016.47;14450.78;3528.636;23391.66;-10.0709;7.083388;20186.17;11158.1;0.01108099;0.001088466;0;
-1988.889;-1813.779;3266.533;-1674.962;-10.86506;7.478168;-2563.363;-1926.993;-0.1188648;-0.258782;0;
-32004.71;-26866.52;2473.695;-34492.67;-6.098721;0.1026533;-33398.32;-22485.52;-0.1187454;0.06631476;0;
-23541.82;-18490.24;1671.424;-28180.73;-5.221937;-2.442679;-24678.89;-14491;0.1412433;0.3910848;0;
-12633.23;-7485.054;327.8094;-17913.55;1.950606;-4.717645;-13889.99;-3551.114;0.01116669;0.3257245;0;
-10961.4;-6958.606;-799.6566;-16236.76;7.038861;-7.124168;-12016.83;-4638.403;-0.2487139;0.1954626;0;
12195.54;10386.01;-470.7055;10653.57;-2.211612;-7.451924;12538.21;7901.675;-0.443366;-0.1945379;0;
25080.55;19906.82;348.4341;29778.13;-2.142041;-8.784095;26663.22;16390.92;-0.3779532;-0.3892445;0;
20588.69;16006.27;1065.286;26113.99;7.170861;-4.287534;22037.17;12959.48;-0.1826714;0.0009506968;0;
18712.89;13985.1;2477.896;24179.35;9.842973;-2.742619;20197.95;10791.73;0.07738153;0.2608191;0;
19419.89;14838.55;3605.025;24063.06;10.36895;-2.137017;20664.01;11519.5;0.01233643;-0.129247;0;
-1768.384;-1607.463;3294.245;-975.533;12.70208;0.1424285;-2204.695;-1814.133;-0.182578;-0.3889865;0;
-32230.33;-27093.49;2457.963;-34637.29;11.68493;0.2092683;-33602.32;-22781.75;-0.05245985;-0.258661;0;
-23575.17;-18521.65;1685.693;-28314.57;10.60147;2.285529;-24737.93;-14518.29;-0.05240713;-0.1284664;0;
-12180.93;-7030.357;377.718;-17453.95;20.10263;2.417198;-13426.59;-3107.286;-0.3771912;-0.06336996;0;
-10516.13;-6559.573;-747.3149;-15867.44;21.62268;3.888272;-11582.37;-4275.669;-0.3118448;0.06662841;0;
12318.53;10428.98;-440.7646;10661.57;14.63473;3.951348;12651.13;7924.856;-0.1166295;0.1964961;0;
25087.46;19897.55;373.7847;29723.57;13.68202;2.741807;26663.1;16379.78;0.0134224;0.06636402;0;
20608.6;16046.92;1113.834;26129.46;6.903113;14.12578;22052.1;13011.04;0.1433436;-0.06363736;0;
18547.9;13804.02;2507.654;24057.58;4.351558;16.79091;20049.84;10590.19;0.07823222;0.06636129;0;
18904.38;14369.25;3593.072;23294.65;-0.9441003;10.20983;20064.13;11090.62;-0.1167484;0.3911313;0;
-2445.039;-2170.315;3290.409;-2088.18;-5.297408;10.80242;-3011.675;-2279.153;0.2082056;0.06590159;0;
-32713.18;-27528.37;2464.36;-35215.1;5.290486;2.15101;-34090.26;-23120.12;0.5978004;-0.194034;0;
-24285.34;-19239.41;1652.197;-28952.08;6.491595;-1.133315;-25416.57;-15009.56;0.4672651;-0.06390436;0;
-13608.09;-8451.835;318.3001;-18840.11;4.810133;2.618868;-14831.09;-4302.84;0.01202419;-0.3886769;0;
-11855.51;-7744.194;-793.4298;-17215.64;6.211819;1.410544;-12936.47;-5300.232;-0.2478573;-0.323319;0;
11755.2;10091.38;-477.4629;9999.677;6.139205;1.275161;12016.47;7712.134;-0.3125755;0.06680997;0;
24914.79;19762.82;335.3898;29542.46;7.874348;0.001203514;26481.08;16238.67;-0.3122615;0.1966775;0;
20506.64;15912.2;1069.184;26043.36;2.976316;7.034288;21959.35;12849.65;-0.182013;0.1964799;0;
18529.44;13817.6;2475.964;23996.71;2.371089;9.237535;20012.58;10633.04;0.01307189;0.001380434;0;
19304.48;14696.04;3599.286;23875.97;5.449189;5.477331;20524.24;11377.39;0.2079608;-0.1285556;0;
-1802.722;-1743.943;3292.134;-1142.752;5.242643;8.218127;-2290.458;-1906.608;0.1427845;0.1964103;0;
-32176.74;-27077.33;2452.497;-34633.91;7.78297;-3.444916;-33560.47;-22733.8;0.01270632;0.2611803;0;
-23164.42;-18076.51;1682.043;-27899.77;6.703423;-6.388704;-24325.47;-14265.62;-0.05227379;0.1309831;0;
-12781.76;-7649.296;344.2278;-17982.04;14.13143;3.263136;-14020.79;-3858.061;0.1426808;0.06588417;0;
-12350.94;-8161.693;-809.0229;-17668.54;16.5291;1.987181;-13430.19;-5588.938;0.4024068;0.000850618;0;
11358.53;9850.692;-483.2639;9582.242;1.106174;16.25218;11626.54;7562.633;0.2071004;0.1307845;0;
25060.87;19928.24;349.8031;29651.46;-3.114496;21.99626;26621.37;16374.94;-0.2478791;0.3905224;0;
20724.1;16111.51;1121.86;26246.27;-0.1636293;8.042077;22180.15;13069.24;-0.3125974;0.8449014;0;
18904.29;14208.27;2558.292;24360.03;-1.10147;7.833047;20387;11014.85;-0.3772506;0.6491504;0;
19449.69;14824.42;3634.757;24017.9;-10.81228;4.208098;20676.38;11505.06;-0.4418389;0.06379208;0;
-1757.599;-1691.171;3277.517;-1113.922;-14.28502;0.2519991;-2223.679;-1873.623;0.2082785;-0.1311741;0;
-31833.87;-26734.66;2407.987;-34315.3;-6.300058;6.815951;-33211.9;-22430.72;0.3380039;-0.06607492;0;
-23121.17;-18058.4;1581.497;-27867.95;-6.360101;5.737376;-24286.36;-14081.27;0.2077296;-0.1309759;0;
-12429.69;-7276.819;224.7144;-17695.56;-1.598288;4.391952;-13671.26;-3347.417;0.1425535;-0.3257463;0;
-10927.73;-6967.847;-905.1311;-16318.51;-0.2575112;4.789436;-12001.48;-4674.307;-0.3773285;-0.1305169;0;
12206.08;10325.33;-594.9865;10469.12;4.700217;-1.645493;12496.74;7822.204;0.01285474;-0.0004511198;0;
24945.31;19763.2;217.5627;29582.36;9.986779;-2.246686;26510.33;16255.87;0.4026459;-0.065418;0;
20626.69;16067.36;986.5511;26162.24;-10.05127;-3.18219;22077.21;13020.54;0.2073393;0.3244518;0;
18687.55;13945.82;2397.569;24172.3;-13.32273;-3.714856;20180.81;10750.86;0.07719625;0.3890931;0;
18871.66;14346.02;3457.313;23350.57;-6.677909;3.321963;20037.28;11041.28;-0.052816;-0.06606925;0;
-2729.693;-2424.25;3114.51;-2235.745;-9.083073;5.729888;-3297.304;-2531.264;0.2071064;-0.1959375;0;
-32516.51;-27337.38;2279.674;-35039.24;3.786777;8.738363;-33911.43;-22982.14;0.2068983;0.1290961;0;
-22778.03;-17744.29;1504.443;-27541.26;7.199224;11.20783;-23936.18;-13931.98;-0.1831136;-0.2608377;0;
-11263.7;-6106.094;179.5188;-16607.77;1.498562;13.8089;-12543.39;-2331.147;-0.3778316;-0.8452817;0;
-9812.539;-5934.948;-944.5186;-15122.86;1.094915;15.67043;-10888.21;-3687.184;-0.4424193;0.0001430758;0;
12621.13;10664;-613.0013;11157;3.572061;14.71692;12963.14;8117.433;0.1427313;0.195045;0;
25030;19853.35;212.4813;29763.73;3.367401;15.37196;26613.62;16344.15;0.2725225;-0.1299877;0;
20698.48;16138.68;973.7756;26189.81;-1.659824;9.663089;22139.8;13104.8;0.2072814;0.3249143;0;
18800.47;14059.24;2394.114;24300.28;-0.8538731;7.57703;20292.38;10854.12;0.1421058;-0.0002489132;0;
19069.53;14539.08;3465.044;23546.8;-18.67023;7.301485;20270.59;11244.82;-0.1828737;-0.1301833;0;
-2386.482;-2095.144;3137.35;-1879.714;-25.55035;4.81578;-2881.856;-2205.267;0.07717938;0.3247189;0;
-32112.59;-26927.77;2305.302;-34610.29;-6.234566;10.10247;-33480.05;-22565.85;0.2720039;0.3243926;0;
-23146.16;-18101.61;1483.663;-27885.29;-5.089225;10.82913;-24300.85;-14117.66;-0.1830408;0.1291646;0;
-12467.79;-7305.275;135.3492;-17722.33;2.886491;6.19655;-13704.96;-3370.586;-0.1178896;0.1290348;0;
-10708.84;-6763.672;-959.2679;-16094.97;9.917165;5.18558;-11786.51;-4519.011;-0.1177711;0.2588398;0;
12329.95;10433.33;-615.3671;10614;-2.015518;7.055892;12610.83;7889.873;-0.4424895;-0.1312243;0;
24831.76;19649.27;211.6796;29487.67;-0.674322;7.383717;26394.42;16149.91;-0.1821755;-0.5858638;0;
20465.28;15921.83;989.0292;25999.2;0.7328751;1.013041;21916.59;12890.79;-0.05205778;-0.06553642;0;
18603.86;13834.31;2402.512;24099.29;-0.8081027;-1.734155;20097.07;10623.65;-0.1819402;0.1943988;0;
18627.04;14212.26;3449.945;23031.38;9.641559;5.702448;19792.06;10940.52;0.2080467;-0.000698556;0;
-3518.898;-2950.265;3106.212;-3078.98;10.97104;7.237326;-4059.921;-3000.255;0.07790297;-0.0006978541;0;
-33495.87;-28246.12;2265.965;-35996.46;8.81754;0.1969681;-34867.65;-23815.31;-0.1170773;0.1292375;0;
-23948.79;-18929.87;1474.553;-28715.06;8.875052;0.2637531;-25086.44;-14811.78;0.2728444;-0.06579436;0;
-13020.69;-7822.205;158.8887;-18278.64;3.30643;-0.07142656;-14216.27;-3769.505;0.07766818;-0.2606303;0;
-11561.88;-7417.529;-942.9828;-16933.58;1.428073;-0.6742012;-12637.04;-4992.476;-0.1173119;0.06446834;0;
11718.77;10097.05;-591.0555;10009.97;-4.870001;7.699221;11960.69;7725.932;-0.05222667;0.2593056;0;
24728.58;19573.51;250.6781;29382.1;-8.280383;10.50465;26285.96;16054.2;-0.1821089;0.06414301;0;
20353.09;15787.25;1033.611;25872.4;-8.20569;10.09219;21804.82;12746.6;-0.3118606;-0.1308235;0;
18634.58;13871.5;2472.083;24125.85;-10.07248;12.02456;20127.87;10671.9;-0.6363839;0.1941447;0;
18545.07;14193;3505.672;22775.32;-5.038517;13.28515;19681.03;10916.79;-0.1809731;0.3238843;0;
-4351.037;-3554.754;3120.857;-4123.854;-2.154042;14.54436;-4938.301;-3530.272;0.2739801;-0.06624521;0;
-34017.39;-28701.63;2296.993;-36561.36;-7.979026;12.98926;-35386.8;-24265.82;-0.2460339;-0.001211302;0;
-23682.36;-18718.19;1527.024;-28489.64;-8.774316;12.37336;-24834.04;-14667.85;-0.3757213;-0.1311448;0;
-12537.71;-7354.708;207.0271;-17866.69;4.362667;15.24107;-13787.71;-3367.164;-0.2454091;-0.4558497;0;
-10688.21;-6812.462;-902.6545;-16136.02;7.037601;16.16352;-11795.57;-4555.323;-0.05026053;-0.06558761;0;
12307.63;10370.48;-590.9194;10550.39;8.369699;11.52557;12541.7;7868.262;-0.1801447;0.1293803;0;
24637.78;19463.63;224.5148;29301.4;12.6482;10.7102;26194.49;15954.85;-0.244931;-0.2605537;0;
20308.47;15769.96;998.3064;25815.59;-4.377444;10.90038;21756.72;12735.65;-0.1797176;-0.0004225633;0;
18581.92;13798.55;2396.725;24068.62;-8.861024;8.879945;20072.58;10586.75;-0.5043737;0.3893819;0;
18472.28;14117.05;3427.25;22705.31;0.6587239;16.17204;19616.56;10858.44;-0.5688342;0.06415396;0;
-4345.509;-3598.311;3080.183;-4144.203;-0.6137596;16.75864;-4939.946;-3558.494;-0.04852396;-0.2607472;0;
-34308.06;-28987.71;2261.982;-36840.2;-0.4120721;13.19182;-35692.27;-24537.36;0.01649214;-0.06558319;0;
-24082.71;-19108.37;1486.754;-28860.61;-0.7474268;13.24555;-25236.66;-14971.93;-0.3733285;0.4542215;0;
-13052.2;-7891.247;159.2545;-18335.51;-0.1434633;5.194412;-14308.69;-3781.663;-0.2430187;0.5187324;0;
-11625.92;-7490.25;-962.623;-16992.94;0.9957567;2.576981;-12721.06;-5084.597;-0.1128398;0.1284071;0;
11721.18;10096.27;-626.012;9971.559;-3.828015;1.234733;11980.71;7715.284;-0.1127264;-0.06662395;0;
24636.27;19467.67;196.2197;29270.46;-3.423003;-0.842979;26192.56;15954.28;0.08228887;0.1933124;0;
20188.94;15631;949.9717;25720.1;-7.30433;1.837185;21635.23;12591.44;0.1471735;0.5179548;0;
18564.45;13788.34;2369.787;24053.14;-10.3111;2.505169;20058.99;10585.76;0.0820583;-0.002304348;0;
