Fp1;Fp2;O1;O2;POLY3;POLY4;A1;A2;Video;Audio;event;
-1089.996;1728.543;-4755.365;-6643.01;5.273381;-7.737543;-2279.764;1481.987;-0.1819085;0.2576605;0;13:28:02 Рука;
11797.9;8808.497;-4751.586;11376.75;3.99626;1.513693;12501.16;6850.455;-0.5065625;-0.1324025;0;
23884.62;19031.1;-3927.833;28835.16;2.986891;7.205599;25500.79;15923.23;-0.3111514;-0.1972368;0;
21492.83;17322.28;-3225.143;27080.76;2.850168;4.184127;22916.02;14664.4;0.4038019;-0.1320713;0;
18467.73;14143.13;-1913.154;23993.99;3.98638;7.060189;19879.37;11446.82;0.4033962;-0.002003866;0;
19737.43;15156.48;-525.1942;25477.44;-13.90219;-2.190367;21247.44;12174.92;0.07815416;0.06296549;0;
8313.813;6492.523;-530.4916;11480.17;-20.25123;-5.604234;8722.021;5231.057;-0.05185905;-0.06703246;0;
-20297.24;-16141.83;-1418.606;-21916.6;-8.107097;-0.90992;-21588.09;-12395.04;-0.246709;-0.001997765;0;
-19587.6;-14851.06;-2256.977;-24747.29;-8.501093;-2.784467;-21069.6;-12377.7;-0.05155905;0.1279389;0;
-3725.693;541.7695;-3473.924;-9984.494;-9.698;-2.781669;-5297.442;171.4333;0.1433948;0.3227124;0;
-2587.16;447.2879;-4764.861;-8294.399;-9.018669;-3.314737;-3874.659;928.2087;0.598022;0.1924535;0;
11234.02;8417.91;-4737.46;10376.04;-8.272674;-5.789714;11790.75;6483.452;0.7273558;-0.1325766;0;
23711.74;18880.05;-3898.916;28553.28;-6.4557;-6.453726;25320.64;15747.48;0.07695161;-0.1974108;0;
21264.26;17080.85;-3183.809;26877.98;-9.128531;-4.437753;22699.41;14458.95;-0.05306039;-0.3271471;0;
18151.04;13851.16;-1866.051;23672.38;-8.181353;-3.294645;19554;11140.16;0.01196026;-0.001981661;0;
19288.24;14706.41;-485.1508;25010.95;-4.288366;-5.836625;20798.36;11749.22;-0.0530191;0.3878244;0;
7650.398;5867.384;-464.7983;10659.56;-0.3329182;-5.093948;8036.803;4734.389;0.01200152;0.1925327;0;
-21341.38;-17175.95;-1298.506;-23001.72;-7.968394;-4.419001;-22643.17;-13276.83;0.2718588;0.2573066;0;
-20653.35;-15752.18;-2099.267;-25735.77;-10.50501;-4.682492;-22111.48;-13139.91;0.336553;0.3869827;0;
-4803.159;-285.0222;-3298.163;-10977.94;12.34563;1.886418;-6332.374;-187.1213;-0.05358922;0.06175714;0;
-3691.061;-522.3508;-4589.417;-9508.655;16.15162;2.956128;-5073.203;453.5416;-0.1834701;-0.003272254;0;
10714.44;7991.333;-4570.547;9522.135;16.33646;6.034372;11103.27;6138.994;-0.3132204;0.3215677;0;
23523.17;18705.45;-3734.263;28265.61;20.74067;8.84147;25106.81;15553.28;-0.1180036;0.2562773;0;
21017.47;16823.84;-3033.236;26664.67;3.639553;-3.224037;22466.11;14215.64;0.661723;-0.3286863;0;
17915.94;13632.48;-1739.509;23398.99;1.023928;-5.833071;19306.12;10929.05;0.5311235;-0.2633887;0;
19114.13;14533.34;-360.9535;24843.96;-3.598802;-4.956431;20631.58;11578.91;0.2057531;0.2566147;0;
7797.443;5972.171;-339.7731;10810.93;-8.083164;-8.300537;8187.016;4789.571;0.335481;-0.003512515;0;
-21088.33;-16958.51;-1197.781;-22757.68;1.234732;-2.799718;-22391.16;-13120.09;0.4001113;-0.393313;0;
-20766.06;-15782.88;-2037.312;-25864.1;1.836703;-3.332768;-22239.18;-13144.88;0.3347419;-0.003113783;0;
-5482.69;-878.1931;-3280.436;-11658.92;7.996799;-6.075659;-7011.004;-471.6015;0.07453617;0.5166281;0;
-4532.813;-1314.076;-4583.42;-10364.02;12.00823;-6.538435;-5875.73;-0.3799217;0.009493927;0.321207;0;
10428.54;7761.168;-4535.586;9160.472;10.99081;-11.08658;10842.29;5947.755;-0.05548295;0.06101483;0;
23527.66;18712.6;-3680.191;28239.36;12.05149;-12.14711;25110.34;15546.98;0.07450748;-0.004013823;0;
20990.26;16800.54;-2949.905;26645.62;18.33602;-17.49342;22433.52;14213.43;0.334302;0.1259249;0;
18007.6;13732.33;-1598.853;23484.67;20.72849;-20.49001;19397.76;11019.61;0.009129364;0.3207004;0;
19140.71;14564.22;-187.1743;24866.11;10.86203;-16.11565;20654.86;11625.97;-0.05584715;0.1904435;0;
7798.291;5999.025;-164.1071;10754.44;9.243526;-16.90319;8165.61;4813.74;-0.1857257;0.06031742;0;
-21254.73;-17110.36;-1029.648;-22978.46;3.540811;-15.27868;-22572.16;-13251.27;-0.2505064;-0.06967787;0;
-21260.03;-16214.48;-1871.346;-26344.5;-0.749655;-15.12936;-22724.3;-13477.94;0.3344513;-0.1345752;0;
-5569.527;-896.2257;-3087.416;-11745.85;4.542384;-14.24338;-7104.87;-481.4101;-0.1206561;0.1903967;0;
-4224.916;-1013.235;-4365.888;-10104.76;2.796507;-12.42059;-5626.424;212.6;-0.3154369;-0.004696604;0;
10439.13;7766.074;-4326.175;9132.139;6.1426;-22.05341;10794.62;5945.317;-0.1851853;-0.1346266;0;
23436.09;18638.27;-3464.556;28141.59;7.208155;-24.04074;25014.49;15488.2;-0.1849992;0.1903454;0;
20976.03;16786.11;-2714.169;26621.81;2.914004;-21.40431;22427.99;14187.92;0.3349254;-0.1346826;0;
17875.08;13603.16;-1364.135;23349.76;3.514289;-23.05731;19262.83;10913.29;0.2046542;-0.3944166;0;
19105.26;14537.22;50.63502;24816.05;-3.455467;-16.00112;20621.88;11588.62;-0.05542079;-0.4589876;0;
7856.033;6003.625;82.77109;10798.97;-6.265034;-14.10952;8244.773;4814.407;0.1395369;-0.1986571;0;
-21250.36;-17129.17;-769.3525;-22959.48;0.6401368;-17.57839;-22554.08;-13302.65;0.009462035;0.3862486;0;
-21088.55;-16102.72;-1583.217;-26174.75;1.041635;-17.09185;-22562.23;-13360.75;-0.1204822;0.06102381;0;
-6316.661;-1768.985;-2812.289;-12384.63;-1.303936;-17.87847;-7841.792;-829.5881;0.009573589;-0.06897219;0;
-6050.632;-2619.389;-4109.044;-11812.3;-1.57007;-18.53034;-7453.057;-746.702;0.2694333;0.3209012;0;
9674.031;7301.055;-4020.27;8286.537;0.7750566;-18.10982;10005.22;5590.551;0.33413;0.3855461;0;
23557.5;18751.27;-3119.681;28208.71;1.644934;-18.42654;25136.03;15569.96;-0.05600984;0.1902567;0;
20895.17;16699.98;-2358.115;26558.18;-0.09803114;-20.41745;22346.79;14137.87;-0.3158229;0.06013079;0;
17935.31;13676.04;-993.868;23412.11;0.7063506;-20.5309;19323.7;10972.8;-0.5104076;-0.004896976;0;
18980.88;14412.5;403.2101;24705.23;-3.246474;-21.84987;20494.01;11491.05;0.009843986;-0.06985939;0;
7624.488;5835.34;421.2644;10534.1;-4.783453;-21.96188;7973.5;4681.501;0.5945401;-0.1347566;0;
-21404.71;-17234.05;-432.4019;-23104.3;0.3115677;-17.98794;-22732.19;-13352.09;0.3990408;-0.004686456;0;
-21265.79;-16263.31;-1252.227;-26333.22;-0.1572598;-15.96044;-22725.7;-13574.12;0.3336724;-0.3295185;0;
-5859.346;-1311.306;-2466.514;-11974.29;2.72231;-15.14061;-7375.196;-728.4635;0.3333372;-0.6540241;0;
-5722.04;-2120.081;-3780.077;-11610.28;3.523858;-13.71881;-7160.936;-530.0652;0.07313287;-0.3934975;0;
9164.62;7009.649;-3728.49;7532.788;-1.569898;-8.145567;9440.216;5315.248;0.00809204;-0.003298091;0;
23247.55;18451.18;-2823.916;27787.75;-2.640047;-5.79304;24815.59;15286.05;0.2029859;0.06167256;0;
20847.88;16639.23;-2076.109;26537.01;-6.857929;-5.385322;22308.81;14069.98;0.202782;-0.1982588;0;
17825.97;13579.74;-732.5408;23274.13;-8.994492;-3.571433;19207.52;10899.27;0.007676192;-0.3929616;0;
19214.4;14640.65;686.2793;24917.76;-12.46808;-7.787647;20733.68;11711.33;-0.05729886;-0.3925667;0;
7738.198;5876.884;695.1474;10705.45;-15.8718;-8.449651;8147.019;4719.103;0.2675954;-0.002368232;0;
-22090.32;-17999.49;-202.7563;-23702.38;-9.291771;-9.646792;-23379.5;-14173.91;0.5271959;0.3874382;0;
-22428.96;-17244.79;-1046.628;-27469.25;-8.478151;-12.11541;-23924.48;-14342.39;0.5266662;0.1921469;0;
-7531.744;-2738.996;-2274.428;-13529.67;-10.07722;-5.137191;-9036.135;-1325.03;0.5911043;-0.1328829;0;
-7383.044;-3644.163;-3590.261;-13257.71;-7.455129;-3.725388;-8810.508;-1360.602;0.135739;-0.1977167;0;
8566.799;6537.742;-3551.39;6635.059;-13.47586;-12.09433;8774.775;4917.454;-0.4491035;-0.1325507;0;
23086.51;18308.66;-2669.95;27487.36;-13.12752;-13.95764;24628.34;15116.77;-0.05884817;-0.002482846;0;
20537.44;16321.85;-1916.801;26262.55;-7.823048;-11.66625;21997.28;13770.27;0.136113;0.1274543;0;
17542.43;13314.75;-562.0238;22983.15;-7.546768;-13.19514;18916.42;10613.81;-0.0589258;-0.1975104;0;
18880.17;14306.25;857.7026;24560.96;7.999879;-11.64127;20388.68;11388.36;-0.1238339;-0.7170507;0;
7138.667;5360.554;867.6166;9958.543;14.82434;-11.42863;7476.298;4237.178;0.1361599;-0.2615588;0;
-22864.35;-18699.79;-11.32946;-24597.83;3.221523;-16.9766;-24192.42;-14831.98;0.3958924;0.2584427;0;
-22748.27;-17560.89;-822.8789;-27827.73;3.285635;-18.16524;-24228.6;-14698.18;0.2655599;-0.06665368;0;
-7327.477;-2525.34;-2039.862;-13418.7;5.55951;-19.0177;-8838.667;-1297.191;0.3302604;0.1283153;0;
-7176.109;-3445.838;-3362.896;-13096.53;2.338742;-20.20429;-8621.875;-1303.322;-0.1898101;0.1931538;0;
8565.225;6525.083;-3344.79;6700.248;13.6559;-15.96418;8755.714;4909.225;-0.5794235;-0.06690972;0;
22991.16;18208.74;-2496.823;27450.1;17.52792;-13.73771;24534.95;15014.79;-0.05910253;0.1280596;0;
20359.53;16163.42;-1781.516;26047.05;-5.19703;-17.20695;21813.23;13615.21;-0.05904314;0.06296352;0;
17166.24;12924.55;-475.3188;22643.87;-8.808154;-15.98403;18549.69;10229.21;0.005983525;-0.06703442;0;
18358.6;13806.71;909.5098;23967.41;-4.177603;-13.15475;19847.09;10884.53;0.3957816;-0.1969018;0;
6359.615;4715.286;929.4293;8789.182;-5.446203;-13.2755;6561.226;3669.28;0.1355145;-0.06676922;0;
-24034.41;-19788;72.89417;-25973.79;0.05162578;-1.674354;-25436.05;-15889;0.005443664;0.3231019;0;
-24132.23;-18718.59;-730.1817;-29159.87;-0.4179167;1.81038;-25599.3;-15605.65;0.2003402;0.0629079;0;
-8826.862;-3722.033;-1931.063;-14802.85;14.11817;-3.817884;-10329.9;-1842.32;0.07020424;0.127812;0;
-8589.983;-4608.018;-3238.542;-14554.64;18.32354;-2.675399;-10037.34;-2033.7;0.00516635;0.192651;0;
7675.086;5921.619;-3208.583;5429.162;13.01384;-10.37556;7811.486;4368.064;-0.2547082;-0.1323793;0;
22498.31;17747.75;-2349.976;26795.79;15.61273;-12.97741;24021.69;14548.85;-0.3194196;-0.262181;0;
19876.76;15659.19;-1632.069;25608.2;-3.090827;-11.35678;21334.64;13121.4;0.005738046;-0.1969502;0;
16761.11;12526.29;-323.4918;22261.48;-9.249662;-12.68503;18150.15;9827.065;0.2006343;0.2580191;0;
17959.45;13417.69;1059.248;23464.81;-4.953461;-10.26096;19422.98;10506.64;0.2654001;0.3227272;0;
5185.539;3693.167;1093.541;7240.189;-8.766877;-9.58082;5275.96;2705.953;0.07023135;-0.06740118;0;
-26480.07;-22130.89;258.6422;-28496.67;-5.610236;-6.95892;-27908.88;-18204.58;0.005193437;0.06260123;0;
-26627.81;-21027.56;-535.4999;-31518.43;-5.336179;-5.076466;-28064.23;-17478.91;0.005188219;0.192473;0;
-10867.4;-5575.64;-1726.55;-16686.53;-7.942786;-3.329809;-12333.13;-2901.748;-0.3196537;0.1273123;0;
-11065.67;-6591.587;-3064.751;-17031.38;-8.671739;-1.718934;-12505.67;-3570.854;-0.1893978;-0.002750337;0;
5820.18;4806.607;-3089.236;3043.782;-0.8934935;-0.7794455;5846.844;3396.312;-0.3191422;-0.2626169;0;
22003.32;17341.63;-2248.272;26010.83;1.786722;0.5609354;23485.27;14152.71;-0.2538542;-0.4572551;0;
19290.03;15005.5;-1563.996;25090.9;-6.319398;0.1584741;20760.52;12464.1;0.2011723;-0.326861;0;
15768.94;11562.02;-300.4498;21315.15;-7.653195;1.832888;17167.4;8866.594;-0.2538013;-0.2615652;0;
17148.11;12618.13;1087.967;22530.22;-7.779227;-1.384073;18570.08;9712.91;-0.1236115;-0.586139;0;
3667.9;2549.457;1122.387;5326.264;-10.11594;-0.7798361;3616.602;1664.707;0.6561208;-0.1957461;0;
-28944.71;-24341.63;281.2752;-31045.59;-10.57429;1.230374;-30391.44;-20343;0.1357228;0.4541241;0;
-28490.49;-22923.25;-490.2291;-33339.99;-12.37232;0.5593088;-29897.67;-18971.28;-0.3841524;-0.1310383;0;
-12257.81;-7004.303;-1679.779;-18031.7;-15.64242;13.15129;-13706.03;-3827.698;-0.1888643;-0.390776;0;
-12776.52;-8067.181;-3019.089;-18758.69;-17.50174;15.81728;-14225.9;-4958.454;-0.2536419;-0.1954814;0;
4658.966;4056.46;-3030.97;1391.866;-18.8243;17.00707;4540.628;2699.822;-0.3833217;-0.2602523;0;
21468.82;16850;-2203.448;25204.06;-19.14017;20.94186;22892.56;13670.98;0.006867486;-0.1300561;0;
18723.04;14417.73;-1519.296;24578.77;-22.46984;5.515106;20212.81;11877.83;0.26673;-0.1948927;0;
15349.33;11136.92;-234.0392;20945.54;-23.11685;2.696403;16760.51;8429.075;0.006592574;-0.1297296;0;
16677.95;12200.14;1141.864;21686.8;-18.06978;2.090847;18059.38;9305.036;0.00658595;-0.3245012;0;
1969.188;1240.294;1159.051;2840.91;-16.10924;-2.332066;1767.931;436.2644;0.331416;-0.4541098;0;
-32203.66;-27380.68;321.3538;-34441.52;-14.35174;7.114687;-33697.46;-23396.66;0.3960504;0.001117806;0;
-32333.46;-26812.34;-445.9586;-37061.02;-12.59601;6.504692;-33707.61;-22065.28;0.2007504;0.3259534;0;
-16522.45;-11352.02;-1623.434;-22284.11;-8.497518;9.043386;-17868.68;-7036.418;-0.1892554;0.0007891637;0;
-17126.56;-11990.5;-2950.9;-23079.83;-6.881389;11.11077;-18494.42;-8341.376;-0.3839672;-0.3240483;0;
2176.249;2412.171;-2945.655;-1512.255;-6.003819;-0.8230513;1932.64;1491.896;-0.1886794;-0.1937881;0;
20996.01;16546.64;-2090.717;24429.93;-5.193503;-3.300593;22348.22;13435.64;-0.3833918;-0.06365865;0;
18396.21;14007;-1402.196;24290.69;-8.939328;-6.244403;19907.26;11395.02;-0.5129413;0.1962747;0;
14940.64;10756.38;-116.0578;20507.84;-9.064068;-10.19006;16346.42;8082.808;-0.1226218;0.4559468;0;
16386.63;11939.37;1282.262;21304.15;-17.69613;-5.156224;17744.45;9025.286;0.1373708;0.1956193;0;
824.0524;442.3756;1304.462;1589.474;-21.96525;-4.682162;554.6065;-265.9291;-0.0576693;0.2603901;0;
-34474.72;-29478.72;452.3289;-36653.82;-11.29326;-10.83977;-35987.61;-25461.09;-0.3174807;0.2601285;0;
-35094.95;-29612.23;-327.4994;-39746.4;-9.740695;-11.43166;-36434.24;-24470.91;-0.1222597;-0.06496961;0;
-19376.29;-14175.8;-1511.06;-25046.23;-15.55903;-7.401319;-20632.45;-9316.103;0.007797838;-0.194839;0;
-19692;-14439.12;-2817.087;-25616.68;-16.34671;-6.389138;-21029.21;-10444.42;-0.2520794;0.1301935;0;
691.0525;1216.823;-2789.16;-3270.927;-9.766197;-0.6223688;324.3383;693.7466;-0.1218914;0.4548994;0;
20601.16;16243.87;-1942.078;23851.48;-8.282516;3.330128;21891;13189.16;0.07313311;0.1296056;0;
18121.25;13702.52;-1259.516;23965.97;-9.949133;-0.8259773;19641.33;11031.83;-0.05687506;-0.06542669;0;
14600.72;10403.5;14.42227;20121.77;-8.598989;0.2465186;16023.84;7748.966;-0.1867526;-0.0003936087;0;
15861.3;11475.02;1375.349;20376.71;-15.55657;4.533057;17139.45;8549.117;-0.6413363;-0.2602626;0;
-470.5476;-541.0391;1385.961;-412.8603;-17.81812;5.198331;-948.5339;-1160.847;-0.7706266;-0.1300664;0;
-36120.83;-30988.97;545.9584;-38394.45;-11.4372;10.41765;-37690.05;-26914.88;-0.05521151;0.06496634;0;
-36761.3;-31285.26;-258.7173;-41288.68;-11.02357;12.75159;-38061.71;-26087.81;0.139746;0.4547051;0;
-21976.62;-16807.53;-1492.993;-27574.9;-9.807043;8.719801;-23206.66;-11933.21;0.07463823;0.9090196;0;
-23335.69;-17936.58;-2836.52;-29177.21;-7.185221;9.849749;-24673.28;-13534.41;0.1395306;0.4533348;0;
-1905.484;-796.9893;-2804.965;-6288.332;-11.46491;4.749271;-2432.452;-640.9758;-0.05551165;0.1280426;0;
20060.22;15951.5;-1892.151;23015.18;-10.51538;2.66815;21241.88;12976.64;-0.1204232;0.0629466;0;
17936.57;13430.19;-1158.977;23557.69;-6.21791;11.23904;19480.54;10681.15;-0.3152042;-0.1320187;0;
14132.17;9948.826;116.5314;19158.83;-4.872491;12.29947;15544.24;7326.849;-0.4448222;0.2579181;0;
15595.04;11229.31;1505.935;19986.67;10.20393;12.62203;16891.42;8276.771;-0.05457119;0.3875936;0;
-1137.695;-1085.887;1536.405;-1048.896;20.24039;13.54699;-1568.254;-1573.708;0.07541832;-0.3274367;0;
-37720.02;-32554.76;669.8276;-40014.5;5.283219;12.86367;-39287.22;-28375.58;0.0103752;-0.06723828;0;
-38835.26;-33388.69;-146.6072;-43388.04;8.292021;12.44884;-40132.83;-28213.71;-0.1195699;0.7124374;0;
-23501.52;-18330.4;-1364.145;-29179.92;13.44125;11.63254;-24701.54;-13506.86;-0.3143518;0.2569501;0;
-24066.47;-18669.11;-2690.325;-30004.79;8.739674;11.08499;-25413.78;-14198.34;0.2057028;-0.3280141;0;
-2351.455;-1146.572;-2666.008;-6827.53;52.00016;5.112491;-2900.737;-829.9447;0.4653655;-0.2627172;0;
19712.27;15637.66;-1789.8;22645.08;63.06732;2.629107;20883.77;12670.71;0.1400612;-0.1974859;0;
17552.74;13053.77;-1075.078;22901.36;35.00533;1.554739;19087.44;10283.36;0.009985758;0.257484;0;
13926.89;9692.96;208.5916;18571.75;36.04188;-1.193063;15378.99;7064.892;-0.314861;0.4521273;0;
15096.19;10875.75;1571.806;18991.93;12.22758;3.161844;16190.77;7924.732;-0.2495773;-0.1980005;0;
-2612.022;-2051.861;1574.225;-3140.54;3.105613;3.69453;-3413.047;-2416.302;0.07551022;-0.1978015;0;
-39217.45;-33887.33;720.1964;-41595.61;4.509012;-1.399702;-40826.67;-29613.73;-0.2494024;0.1922013;0;
-39910.08;-34520.83;-82.1712;-44403.46;-3.466121;-2.603988;-41121.41;-29357.9;-0.5739885;-0.002893856;0;
-24676.13;-19504.64;-1296.759;-30374.07;14.89044;-0.9267984;-25848.08;-14715.76;-0.248575;0.1270438;0;
-25761.22;-20304.78;-2641.077;-31600.76;16.88424;-1.327765;-27074.93;-15687.28;-0.3132926;0.3218181;0;
-4045.642;-2419.04;-2611.249;-8677.527;19.48021;-1.192465;-4667.992;-1835.987;-0.3779451;0.06162538;0;
19264.65;15433.46;-1704.049;22040.24;23.81392;-0.3205495;20388.06;12510.65;-0.05272866;0.1265308;0;
17717.18;13128.48;-1015.104;23013.69;18.49871;-5.343825;19271.48;10321.05;0.4020957;-0.003531027;0;
13769.57;9572.275;234.2417;18292.16;20.62357;-6.14219;15204.78;6954.44;0.466659;0.06143986;0;
15226.12;10920.79;1588.201;19217.37;7.876825;-4.595472;16423.16;7957.07;0.07638607;0.1913128;0;
-2286.052;-1964.824;1565.053;-2639.356;2.911442;-5.930513;-2914.174;-2303.553;0.01134198;-0.1337161;0;
-39547.6;-34290.62;689.6073;-41887.5;10.67902;1.97931;-41136.61;-30006.53;0.01133058;-0.06861443;0;
-40484.92;-35085.65;-124.3175;-44959.16;9.328147;4.05367;-41725.24;-29939.74;-0.2485502;-0.2634475;0;
-24597.86;-19433.53;-1324.402;-30303.15;7.175321;-1.44282;-25762.46;-14668.26;0.2714383;-0.3931175;0;
-25207.41;-19762.57;-2639.925;-31095.42;5.895313;-1.843268;-26527.35;-15171.09;0.3361329;0.1270163;0;
-3605.174;-2107.769;-2638.475;-8238.137;11.44909;-3.448946;-4203.29;-1510.53;0.1408931;0.191856;0;
19323.21;15388.88;-1755.141;22114.29;14.25063;-4.316258;20456.9;12471.66;0.2706862;-0.1331735;0;
17601.13;13046.95;-1047.404;22787.88;4.99291;-8.531724;19144.21;10226.3;-0.2493245;0.06186233;0;
13770.74;9526.681;193.2126;18147.27;3.916166;-10.86755;15226.59;6901.192;-0.5739107;0.3866369;0;
14990.3;10804.51;1554.615;18741.12;10.87846;-7.105651;16049.9;7832.192;-0.1835299;0.4512157;0;
-3043.288;-2353.068;1580.446;-3692.74;12.67619;-7.031528;-3892.834;-2685.176;0.2064585;0.06095829;0;
-40155.32;-34784.32;751.8358;-42528.29;9.58199;-6.421617;-41765.13;-30498.82;-0.183553;-0.328907;0;
-40754.11;-35385.35;-17.00228;-45186.7;8.701707;-4.606686;-41952.36;-30256.72;-0.4432379;-0.06870716;0;
-25194.66;-20024.07;-1192.566;-30855.05;16.39612;-8.955826;-26358.5;-15273.74;0.01197885;0.4511006;0;
-26060.05;-20612.29;-2501.116;-31860.73;17.18295;-10.2195;-27365.32;-15973.49;0.2068688;0.190778;0;
-4186.569;-2530.25;-2494.933;-8851.111;15.5581;-2.238448;-4804.51;-1844.33;0.3365957;-0.4590871;0;
19127.34;15282.15;-1635.497;21916.43;15.47609;-1.499386;20253.35;12379.13;0.2712901;-0.5235932;0;
17522.67;12928.88;-943.6694;22493.37;11.50843;-2.770555;19077.77;10093.02;0.2060502;-0.3931324;0;
13712.45;9485.144;333.7778;17712.62;11.69793;-3.035703;15153.86;6854.779;0.2708105;-0.002933318;0;
15277.68;11029.02;1738.143;19157.08;0.09825497;-7.319439;16450.86;8053.02;0.1406037;0.451841;0;
-2773.465;-2216.254;1753.731;-3122.976;-3.183397;-8.651682;-3444.457;-2521.385;0.2703971;0.1265503;0;
-41017.55;-35698.98;870.6932;-43303.64;1.776294;-15.20719;-42603.31;-31396.77;0.205158;0.1264232;0;
-42464.46;-37059.52;77.31046;-46836.08;-0.703737;-17.53625;-43655.64;-31938.92;-0.1848522;0.1912635;0;
-26603.15;-21440.13;-1079.405;-32202.85;17.85014;-18.9922;-27707.66;-16722.49;-0.2496338;-0.6535041;0;
-27416.96;-21951.58;-2372.95;-33229.12;24.39629;-20.64769;-28717.89;-17212.14;0.1404211;-0.3929782;0;
-5432.733;-3598.112;-2359.337;-10270.52;14.92731;-15.06748;-6072.731;-2678.516;-0.05462199;0.3870248;0;
18645.28;14895.49;-1497.024;21276.01;18.06112;-13.98061;19743.29;12046.06;-0.3144365;0.06179921;0;
17352.97;12744.35;-801.9933;22086.75;11.88005;-8.942967;18901.19;9872.945;-0.1841858;-0.4580016;0;
13536.82;9279.995;466.4097;17200;9.859357;-6.388691;15000.96;6648.515;-0.1190334;-0.06773736;0;
14933.1;10776.63;1841.75;18554.43;16.81568;-4.774742;15960.54;7791.976;-0.3787832;0.2571674;0;
-3397.011;-2570.695;1859.951;-3985.982;15.6597;-2.224654;-4294.652;-2835.875;-0.5733046;-0.2628297;0;
-41841.35;-36458.64;988.1759;-44111.98;19.06022;-9.724324;-43445.55;-32143.18;-0.5727286;-0.1975983;0;
-44154.77;-38775.12;169.672;-48399.7;19.17479;-11.99191;-45320.36;-33638.66;-0.05241434;0.127437;0;
-29541.1;-24432.05;-1010.093;-35021.32;16.20876;-9.83647;-30655.96;-19727.01;0.3374424;-0.06759311;0;
-31078.5;-25555.52;-2321.184;-36754;16.39257;-11.63506;-32335.65;-20689.53;-0.1826354;0.1923442;0;
-8109.318;-5749.83;-2314.432;-13061.6;9.076056;-12.62812;-8736.382;-4448.607;-0.5072886;0.06221622;0;
18027.37;14587.15;-1425.334;20476.89;8.798517;-13.01733;19104.08;11875.66;-0.1819422;-0.457585;0;
17351.3;12670.92;-695.174;21801.94;0.1494882;-18.29578;18870.01;9750.929;-0.2467267;-0.2622232;0;
13402.8;9131.63;600.0145;16693.71;-4.33864;-19.88492;14823.12;6496.356;-0.1815115;-0.132025;0;
14596.74;10521.41;1993.149;17956.19;14.62103;-16.98474;15510.2;7558.526;0.4683443;-0.3267944;0;
-4377.6;-3344.934;2031.563;-5195.648;17.6878;-17.30258;-5399.353;-3357.523;0.5978084;-0.001629347;0;
-42729.39;-37282.89;1206.717;-45050.83;19.41134;-11.92669;-44340.41;-32790.11;0.2074037;0.323209;0;
-44227.09;-38902.67;455.709;-48478.99;22.87544;-9.436394;-45369.18;-33830.66;-0.1176414;0.06301487;0;
-28368.22;-23220.21;-661.2502;-33988.58;18.96671;-11.50332;-29473.06;-18512.26;-0.3124252;-0.1319505;0;
-29126.62;-23644.42;-1934.274;-34898.57;18.74756;-9.683286;-30396.19;-18851.42;-0.3121113;-0.3267199;0;
-6942.941;-4735.528;-1908.498;-11834.29;12.16366;-11.81695;-7603.116;-3656.367;-0.2468303;-0.2614243;0;
18265.43;14750.66;-1015.06;20824.02;7.128573;-11.73809;19348.04;11949.93;0.01328704;0.3885118;0;
17411.15;12733.97;-312.221;21859.23;11.67576;-6.970631;18927.91;9824.8;0.2731431;0.4530888;0;
13382.27;9098.398;955.6899;16639.41;11.59668;-5.356098;14784.92;6448.917;-0.05196811;0.1277968;0;
14535.24;10488.8;2368.457;17886.81;-4.4899;-4.412955;15442.9;7509.978;-0.1818506;0.4525051;0;
-4145.721;-3068.146;2460.311;-4981.367;-7.767918;-2.734008;-5168.704;-3118.26;0.2081362;0.5819851;0;
-41666.37;-36210.61;1680.073;-44051.03;-6.487315;-0.7217733;-43279.24;-31751.86;0.1429597;0.1915963;0;
-42312.4;-37015.5;949.2515;-46596.03;-8.757972;1.154413;-43465.7;-31964.91;-0.1820206;-0.003498267;0;
-26217.81;-21033.74;-157.7557;-31864.22;5.651793;2.626878;-27343.56;-16320.43;0.2729337;0.1914073;0;
-26745.68;-21303.03;-1424.585;-32569.49;8.928643;4.499638;-28033.66;-16623.2;0.2726594;0.06128026;0;
-4937.548;-3063.575;-1420.749;-9821.99;16.62185;4.830031;-5592.325;-2245.297;-0.1174186;-0.45852;0;
18915.99;15189.06;-569.1549;21510.15;23.63873;5.695957;20016.57;12304.83;0.1425687;-0.4580593;0;
17694.26;13039.5;121.8044;22582.28;10.15104;8.503516;19249.55;10144.03;-0.3123459;-0.06779501;0;
13899;9630.995;1384.797;17793.74;9.672325;9.365628;15369.66;6972.056;-0.7668034;-0.1326942;0;
15080.59;10896.08;2760.057;18680.03;11.80606;10.76286;16080.1;7889.929;-0.1163595;-0.3924303;0;
-2927.627;-2130.697;2804.885;-3673.935;10.25396;11.42187;-3883.965;-2387.649;0.3385288;-0.1321666;0;
-40044.12;-34638.2;1985.009;-42438.71;13.72628;9.869789;-41661.96;-30325.83;0.3381886;-0.1970011;0;
-40955.89;-35639.27;1209.465;-45293.28;14.04728;9.390992;-42140.61;-30580.84;0.1429468;-0.2617705;0;
-25166.56;-20009.93;44.69446;-30835.13;10.81798;8.309951;-26344.32;-15326.73;0.2077705;0.2582313;0;
-26037.48;-20619.04;-1278.217;-31839.46;9.534314;7.698754;-27347.02;-15969.14;0.5323984;0.06306975;0;
-4410.438;-2748.187;-1308.385;-9206.474;13.81164;4.944718;-5041.677;-1960.771;0.2719941;-0.3267977;0;
19350.72;15502;-465.8685;21981.78;13.46297;3.399143;20472.29;12602.54;0.1417861;-0.1315673;0;
18129.23;13481.54;209.5884;23346.95;17.40156;4.668403;19690.74;10572.73;0.1416436;-0.1964024;0;
14308.63;10059.75;1443.976;18658.21;21.40256;3.725951;15761.06;7402.195;-0.3132701;-0.1312377;0;
15637.21;11324.74;2808.151;19545.97;0.3496351;5.731695;16781.89;8287.559;-0.1180533;0.1937308;0;
-1531.751;-1107.135;2847.714;-1998.99;-6.081078;6.328782;-2274.357;-1563.415;0.2069021;0.06360149;0;
-38295.71;-33019.96;2015.676;-40678.12;13.14877;3.308313;-39902.45;-28840.52;-0.05317521;-0.1963318;0;
-39464.91;-34123.9;1232.2;-43853.84;14.34101;3.10404;-40683.21;-29041.43;0.01184556;-0.1311672;0;
-23663.88;-18542.93;71.16966;-29355.17;10.77662;0.5555698;-24843.85;-13837.02;0.076801;0.06386666;0;
-24881.46;-19450.36;-1267.62;-30656.38;11.7038;-1.521398;-26180.49;-14877.6;0.01175649;-0.1310995;0;
-3850.991;-2228.622;-1377.837;-8584.671;7.940994;3.838582;-4465.551;-1608.53;-0.05322266;-0.001033128;0;
19670.56;15806.71;-601.4199;22259.89;7.062359;4.63852;20789.09;12867.09;-0.2480712;0.388772;0;
18602.34;13935.37;92.10171;24215.5;4.040176;-1.394422;20179.49;11029.72;-0.3127893;0.128512;0;
14931.56;10714.13;1379.206;19848.63;1.290427;-2.665696;16367.67;8052.239;-0.1825403;0.2583175;0;
16593.29;12152.23;2783.207;21014.92;4.839104;-3.466752;17884.91;9094.011;0.2724145;0.45296;0;
228.6929;195.5279;2813.457;387.1154;4.633171;-5.33879;-240.0561;-509.6636;0.6619448;-0.1322012;0;
-36249.78;-31136.79;1949.875;-38493.29;0.610027;-2.118306;-37809.59;-27151.59;0.2714756;-0.3269704;0;
-37615.54;-32224.48;1159.312;-42034.5;1.145278;-1.513332;-38870.62;-27112.31;-0.1835685;-0.2616746;0;
-21952.13;-16837.07;-20.57285;-27572.12;-5.085164;-7.406187;-23138.78;-12100.27;-0.05344939;-0.3263789;0;
-23273.93;-17900.04;-1356.271;-29041.95;-7.558301;-8.336445;-24588.24;-13393.32;-0.05339568;-0.001214298;0;
-2557.257;-1254.086;-1365.622;-7101.733;4.974248;-7.256403;-3117.597;-749.6465;-0.1183094;-0.1311478;0;
20240.46;16204.85;-490.5171;22964.82;7.715916;-7.717992;21398.96;13238.48;-0.2481252;-0.06604864;0;
18861.68;14230.8;211.7949;24653.87;7.439744;-4.696066;20432.16;11328.34;-0.3128432;0.2588544;0;
15272.76;11040.91;1494.297;20480.22;10.51373;-3.753586;16700.52;8379.212;-0.1176268;0.2585943;0;
16788.39;12331.88;2890.343;21346.55;5.613042;-1.941337;18106.49;9259.439;-0.2474433;0.06343247;0;
635.1996;530.5738;2892.655;886.9704;4.736746;0.3379727;237.7738;-175.2831;0.07764202;-0.06656595;0;
-35123.9;-30035.02;2031.742;-37397.77;11.83193;-3.815187;-36666.16;-26048.65;0.272466;-0.1964337;0;
-36039.34;-30707.66;1259.244;-40514.36;13.69606;-4.146268;-37335.77;-25619.65;-0.1825791;0.1286004;0;
-19704.56;-14579.53;90.54975;-25385.02;8.25631;1.283394;-20935.79;-9760.455;0.2074084;0.2584058;0;
-19973.39;-14718.73;-1237.561;-25812.12;8.382711;2.420814;-21302.16;-10677.34;0.5320367;-0.1316579;0;
6.790974;747.0444;-1274.658;-4375.7;5.426551;1.882518;-514.3394;425.0959;0.07673068;-0.06655826;0;
20875.09;16581.12;-434.7829;23735.83;2.072196;2.282524;22062.77;13500.69;-0.1182484;0.0634433;0;
19177.22;14597.26;259.1023;25161.19;14.5287;3.284975;20745.51;11764.91;-0.1181296;-0.001587788;0;
15747.81;11529.06;1516.21;21291.44;15.58582;3.482501;17171.78;8821.985;-0.4428476;0.1933158;0;
17175.7;12603.93;2888.933;22003.52;5.121314;3.67995;18516.19;9543.348;-0.50737;0.06318691;0;
2332.189;1729.804;2917.358;2803.503;-0.1760938;4.814962;1964.987;834.8969;-0.1170561;-0.001843927;0;
-32449.53;-27589.2;2069.008;-34720.05;3.977269;-2.155917;-34010.59;-23741.2;-0.1169385;0.3229946;0;
-33962.79;-28551.71;1262.177;-38432.81;2.164611;-4.833007;-35278.94;-23557.19;-0.2467557;0.3876374;0;
-17699.35;-12611.44;71.67887;-23406.4;-15.7885;3.142696;-18982.69;-7881.855;0.273231;0.2573133;0;
-17904.42;-12663.55;-1264.518;-23780.83;-19.25526;3.139538;-19256.66;-8766.658;0.4028911;-0.002814671;0;
1106.659;1766.176;-1295.763;-2958.737;-38.99551;4.341954;701.9495;1158.26;-0.1172525;0.0621555;0;
21313.81;16984.59;-426.3502;24395.91;-50.20946;5.945182;22577.15;13864.93;0.01280005;0.1270604;0;
19724.9;15144.93;263.5753;25758.96;-18.61042;-1.294766;21291.46;12319.14;0.3376239;-0.06796931;0;
16221.79;12015.95;1501.266;21823.97;-12.96564;-2.164243;17620.33;9304.584;0.20735;-0.06790102;0;
17725.49;13100.9;2886.53;22931.85;-20.78949;-3.434683;19148.81;10035.58;0.3370763;-0.2627348;0;
3831.231;2899.718;2907.929;4981.582;-16.1469;-4.77089;3687.037;1846.483;0.6615743;-0.3924055;0;
-30070.47;-25374.95;2030.822;-32273.68;-15.32639;0.0565525;-31578.26;-21591.95;0.4660075;-0.2620765;0;
-30927.56;-25489.78;1240.553;-35599.66;-13.36861;1.329171;-32311.11;-21067.02;0.07573523;-0.3917479;0;
-13873.92;-8791.951;71.83042;-19728.07;-8.532407;2.265597;-15289.57;-4858.398;0.07565914;-0.2614196;0;
-14353.09;-9349.302;-1290.401;-20266.86;-7.720527;4.138721;-15787.02;-5887.575;0.1405504;0.1286472;0;
3157.26;3274.502;-1362.114;-399.3746;-5.435594;5.474221;2931.774;2172.777;-0.1844275;0.2584526;0;
22029.22;17525.2;-519.325;25442.4;-4.023612;6.674413;23395.71;14306.81;-0.1842422;-0.001676475;0;
20263.44;15727.21;176.9253;26244.78;-14.13363;10.21768;21805.97;12967.8;-0.4439264;-0.6513482;0;
17015.31;12818.55;1427.556;22548.45;-16.26288;12.08294;18407.46;10073.7;-0.573415;-0.520759;0;
18515.48;13831.96;2798.619;23991.06;-16.58133;7.984957;19980.86;10778.67;0.01186722;0.194405;0;
5600.622;4204.319;2815.235;7370.889;-17.6364;6.905207;5598.233;2997.077;0.336692;0.259177;0;
-26783.11;-22395.07;1947.779;-28884.5;-16.68067;10.51522;-28252.05;-18681.16;0.01151698;-0.06592015;0;
-27708.95;-22207.41;1153.376;-32442.66;-17.19977;11.24147;-29111.03;-18429.23;-0.05346193;-0.1308213;0;
-10954.92;-5787.655;-1.078247;-16800.75;-8.608674;6.407527;-12413.41;-2808.883;0.01155913;-0.2606245;0;
-10969.1;-6332.297;-1334.313;-16983.22;-6.590292;5.798242;-12444.68;-3251.289;-0.1833545;-0.1953953;0;
5327.216;4732.272;-1406.779;2114.315;-0.8912193;4.988621;5228.933;3347.303;-0.05323559;0.1296378;0;
22472.84;17827.73;-570.2542;26171.3;3.866074;3.242174;23912.61;14545.22;0.07675259;0.5842789;0;
20652.61;16191.44;124.6417;26596.09;-7.725736;10.53981;22179.68;13499.7;-0.05325922;0.2588551;0;
17410.93;13178.79;1390.115;22922.01;-8.655978;11.73491;18801.77;10395.01;0.271631;-0.5859804;0;
18816.6;14127.41;2806.068;24436.11;-9.316866;10.2495;20310.65;11102.94;0.3363254;-0.2605549;0;
6705.284;5073.88;2839.511;8917.425;-12.59003;11.51188;6847.956;3775.479;0.1410854;0.2594456;0;
-25358.73;-21128.3;1973.373;-27241.77;-4.33836;5.070069;-26741.22;-17468.36;0.205911;-0.1955865;0;
-26919.5;-21398.1;1213.709;-31668.96;-3.529718;3.256435;-28330.33;-17731.87;0.3356388;-0.2603573;0;
-10154.88;-4975.73;89.08533;-15934.61;-6.406559;4.391873;-11618.22;-2261.457;0.4652362;0.1946757;0;
-9996.922;-5478.694;-1220.159;-15923.2;-5.328395;2.779991;-11477.69;-2465.69;0.2698667;0.1295128;0;
5742.748;4907.89;-1240.75;2678.409;-9.275156;3.78182;5681.271;3532.164;-0.3800778;-0.0655194;0;
22469.25;17781.55;-348.2323;26234.69;-9.198487;2.3715;23930.25;14477.64;0.01010811;-0.0004862277;0;
20646.61;16227.08;394.0728;26578.38;-9.725108;5.383228;22162.48;13550.82;0.399902;0.129449;0;
17518.41;13260.16;1697.802;23042.57;-10.51962;6.583511;18910.71;10467.17;-0.1202386;0.3242209;0;
19020.81;14350.55;3146.243;24632.31;-2.002583;-2.063719;20519.55;11333.98;0.204719;-0.06590893;0;
7040.307;5334.28;3218.637;9275.021;0.5450246;-3.669175;7191.683;4006.687;0.8541867;-0.3257121;0;
-25311.71;-21136.29;2353.805;-27107.42;-0.5945989;-1.990976;-26696.57;-17515.63;0.5284917;-0.0005480862;0;
-27282.32;-21707.13;1567.646;-31980.55;0.7461452;-2.055958;-28696.26;-17942.11;-0.05674542;0.1293872;0;
-11089.5;-5965.395;433.7651;-16782.88;1.347632;-2.790704;-12513.35;-3068.904;-0.3165578;0.1942245;0;
-12175.18;-7288.764;-908.7461;-18040.11;1.682046;-2.988849;-13649.49;-3992.167;0.203499;-0.0008727019;0;
3928.321;3796.492;-978.2195;586.5197;2.015149;3.243384;3777.283;2655.192;0.1383272;-0.1957739;0;
22226.41;17669.19;-115.4198;25736.97;2.61536;5.048664;23637.41;14363.93;-0.4465178;-0.0006751106;0;
20591.23;16087.8;578.0196;26557;-3.817629;8.459599;22127.55;13393.34;-0.1212325;-0.1955765;0;
17288.25;13079.6;1827.966;22803.22;-6.559483;11.93421;18673.18;10301.76;0.07379137;-0.2603473;0;
19015.88;14317.66;3267.437;24632.55;1.150267;6.496724;20522.73;11289.16;0.008749886;0.1297184;0;
6777.975;5102.274;3338.834;9138.403;2.488282;7.360974;6997.533;3793.465;0.1386758;-0.065314;0;
-25939.63;-21736.85;2476.474;-27663.07;-1.064192;7.487544;-27288.06;-18111.71;0.008601752;-0.2601504;0;
-27586.77;-22036.41;1717.834;-32287.7;0.07595343;6.877173;-29024.73;-18302.42;-0.1213416;0.2598498;0;
-11009.84;-5862.182;586.4261;-16701.74;-1.196921;12.22878;-12436.51;-3003.855;0.008715034;0.3895233;0;
-11818.02;-7057.047;-763.4067;-17708.79;-1.263067;12.5514;-13278.35;-3806.417;-0.1212284;0.1942299;0;
4435.958;4067.19;-830.0901;1094.575;2.891388;16.95954;4285.497;2893.402;0.07379543;0.3239694;0;
22365.49;17766.11;18.17735;25928.27;2.55369;18.8179;23777.64;14463.4;0.3335907;0.3886113;0;
20595.73;16116.96;717.2921;26565.23;11.32503;14.04333;22127.93;13425.11;0.008418744;0.06338405;0;
17434.88;13217.69;1987.526;22946.94;14.79726;14.29715;18823;10444.55;-0.05655706;-0.1315817;0;
19017.28;14322.44;3409.501;24634.13;1.3858;8.656338;20515.12;11294.5;0.4632385;-0.1314494;0;
6808.642;5122.165;3457.737;9104.983;-1.830773;6.437325;6970.908;3810.781;0.267871;-0.06635003;0;
-25486.41;-21294.06;2597.255;-27272.87;2.726394;9.110052;-26870.57;-17678.98;-0.2521369;-0.196218;0;
-27207.61;-21665.07;1832.747;-31897.83;2.120442;8.565035;-28632.58;-17996.19;-0.3168509;-0.4558902;0;
-10417.32;-5229.906;702.6293;-16174.49;-4.110979;9.896088;-11870.74;-2468.185;-0.3165325;-0.3254975;0;
-10287.29;-5730.678;-631.9219;-16250.59;-5.044853;9.685195;-11768.92;-2671.804;-0.1213124;0.129601;0;
5485.157;4728.42;-724.5057;2307.735;-7.384309;15.03398;5386.979;3371.859;0.008744162;-0.1303986;0;
22366.71;17696.6;94.13925;26059.85;-9.319272;17.09534;23807.13;14399.69;0.07370272;-0.2602023;0;
20642.24;16211.35;800.0179;26575.36;2.278017;11.5187;22164.93;13532.42;0.008661319;-0.0650388;0;
17414.97;13171.38;2063.672;22923.59;5.088768;10.36842;18806.52;10386.44;-0.3811514;-0.1299408;0;
18832.02;14155.4;3486.851;24472.02;6.155381;12.16654;20330.68;11140.87;-0.3158011;-0.5196143;0;
6893.821;5216.143;3566.462;9220.222;9.699169;12.08733;7062.285;3866.686;0.1392876;-0.5840595;0;
-25528.84;-21323.45;2715.304;-27304.44;4.264416;5.176065;-26899.46;-17699.3;0.07418031;-0.1936686;0;
-27346.05;-21801.68;1944.118;-32061.93;4.393853;2.625635;-28759.71;-18183;-0.2507309;-0.1285066;0;
-10197.47;-5036.032;804.7679;-15999.16;5.193721;5.70409;-11657.79;-2444.55;0.009390359;0.1314919;0;
-10301.9;-5675.647;-554.5609;-16265.13;3.982078;5.095512;-11797.32;-2647.99;0.5940869;0.06639238;0;
5216.841;4581.372;-649.7681;2117.14;8.063913;3.616767;5127.441;3269.464;0.1387187;-0.4534131;0;
22380.05;17736.34;180.6552;26100.32;8.457952;2.541528;23827.23;14433.83;-0.7059962;-0.3230228;0;
20690.6;16236.86;888.5084;26605.4;6.038557;6.82576;22215.23;13563.77;-0.5103847;0.002138487;0;
17418.6;13193.85;2167.379;22936.08;5.831418;7.622697;18814.17;10413.22;-0.1850352;0.1970384;0;
18918.7;14229.9;3604.915;24555.63;3.682105;4.533823;20429.21;11220.13;-0.1198819;0.06690569;0;
7044.051;5264.215;3683.938;9337.388;2.606678;4.864182;7237.269;3912.303;0.07514054;0.001871126;0;
-25274.82;-21162;2829.664;-27101.32;1.934474;0.1036281;-26643.2;-17541.66;0.1400324;0.326706;0;
-27109.63;-21586.67;2062.893;-31843.35;0.2575905;-1.570988;-28526.46;-17999.4;-0.2499124;0.06650832;0;
-10004.16;-4818.564;943.3189;-15809.18;2.400785;2.248556;-11448.04;-2290.267;-0.1846939;-0.3233626;0;
-9838.902;-5354.935;-380.6201;-15818.45;2.063581;3.04997;-11309.4;-2338.066;0.2052957;-0.4529723;0;
5677.83;4770;-451.0459;2621.789;0.2528459;-0.436085;5617.023;3465.071;-0.1197473;-0.1276805;0;
22428.44;17732.86;381.7858;26203.89;0.3863137;-1.775244;23885.16;14432.12;-0.1845943;-0.1275522;0;
20676.85;16258.35;1094.934;26608.83;-3.632562;8.87652;22202.17;13587.99;0.1404279;-0.5172281;0;
17498.03;13256.06;2383.248;23009.5;-3.829983;12.21675;18892.07;10477.19;-0.1845499;-0.3867737;0;
18960.33;14281.63;3815.789;24628.24;-6.571825;5.908199;20473.55;11278.47;-0.3142992;-0.1265157;0;
7135.763;5354.415;3878.077;9596.694;-8.708675;7.241921;7365.498;3987.41;0.140788;-0.4512253;0;
-25028.15;-20908.14;3026.888;-26709.52;1.145712;4.62231;-26366.08;-17273.6;0.4654833;-0.2558698;0;
-26665.54;-21145.96;2262.667;-31396.61;2.015217;3.81387;-28075.73;-17707.3;0.07521152;0.264126;0;
-9226.687;-4032.598;1113.188;-15052.04;4.960929;8.967602;-10677.25;-1886.261;-0.2497008;0.2638606;0;
-9027.917;-4559.06;-242.1087;-14954.82;7.902705;9.360489;-10498.87;-1778.669;-0.05454784;-0.1262086;0;
5947.803;4974.2;-324.5895;2992.525;-0.8801215;11.6285;5918.824;3615.111;-0.1844277;-0.1260818;0;
22405.49;17715.58;510.1922;26212.85;-0.4770955;11.81777;23872.38;14407.68;-0.05430772;0.003979607;0;
20725.06;16304.57;1212.108;26651.24;-8.915733;13.34638;22246.61;13646.75;0.2705836;-0.1259591;0;
17526.77;13293.94;2473.599;23037.81;-13.4621;13.39995;18909.95;10508.64;-0.1194924;-0.3207345;0;
19013.56;14327.23;3900.301;24678;-0.9899942;8.295905;20535.93;11331.99;-0.1193723;0.004424448;0;
7545.005;5636.054;3975.811;10038.94;-1.591236;6.814067;7863.596;4265.6;0.2055843;0.4591914;0;
-24165.78;-20123.77;3120.775;-25848.16;7.787486;-1.029661;-25470.99;-16451.4;0.01047575;0.45873;0;
-25632.44;-20247.7;2347.776;-30438.68;14.0763;-5.248429;-27076.94;-16981.56;-0.1194695;-0.06146967;0;
-8024.941;-3022.283;1194.371;-14016.05;-3.822408;-2.36295;-9488.354;-1381.162;0.2054873;0.003559435;0;
-7823.506;-3587.164;-180.9354;-13820.36;-4.15336;-3.432303;-9332.145;-1052.766;0.2052808;0.3933599;0;
6645.617;5341.751;-267.0852;3886.744;-2.005733;-5.438281;6594.076;4020.117;-0.1197622;0.3929647;0;
22570.53;17810.25;580.8976;26507.92;-3.075445;-5.633765;24046.35;14491.75;-0.1846092;0.2626351;0;
20800.69;16438.57;1292.768;26696.16;6.774259;-3.618677;22318.92;13779.24;-0.1194563;0.1974039;0;
17633.95;13375.22;2561.206;23116.21;8.039273;-3.012195;19019.48;10597.72;-0.1843036;-0.2575659;0;
19093.24;14422.94;3974.046;24804.77;16.80608;-0.2629291;20614.56;11427.82;-0.1191511;-0.4522091;0;
8107.396;6117.989;4033.802;10754.64;20.67396;0.6081133;8394.539;4664.422;0.2058053;-0.06195065;0;
-23513.66;-19545.57;3164.59;-25132.77;15.3619;1.411297;-24852.58;-15978.63;0.4005006;0.3279157;0;
-25785.55;-20290.85;2384.801;-30574.71;16.14977;1.811777;-27241.02;-17006.94;0.1402288;0.3925535;0;
-8375.502;-3258.182;1267.715;-14297.7;8.899878;0.4702978;-9842.707;-1591.383;0.07512052;0.197257;0;
-8115.041;-3717.363;-83.47425;-14072.22;6.412688;1.407586;-9617.737;-1212.818;0.0100777;0.2620262;0;
6262.953;5192.005;-208.921;3522.32;0.176954;-8.841972;6215.863;3843.954;-0.4447038;0.1967956;0;
22559.25;17847.55;612.751;26484.21;-5.851444;-12.45011;24024.12;14534;-0.3143223;0.1316305;0;
20926.56;16527.04;1335.959;26833.26;4.268493;-2.993246;22440.71;13876.9;0.2706996;0.1314982;0;
17782.85;13547.11;2622.844;23265.1;3.594618;-2.052478;19166.28;10767.63;0.07552559;0.1963334;0;
19378.64;14699.24;4066.731;25099.12;0.2421038;-1.380586;20898.79;11709.01;-0.3793217;0.1961361;0;
8321.64;6354.186;4121.522;11040.33;0.6430261;0.7641942;8620.338;4877.475;0.2057655;0.06600437;0;
-23210.47;-19214.79;3215.209;-24825.62;-5.051047;-0.5762323;-24532.43;-15663.1;0.5303955;-0.06399664;0;
-25572.29;-20118.13;2419.502;-30341.02;-4.576481;-0.5086704;-27006.18;-16839.22;-0.3147129;0.06600235;0;
-8180.015;-3068.565;1284.577;-14099.71;-12.27504;7.06079;-9651.503;-1521.163;-0.3143967;0.1309034;0;
-7343.165;-3157.154;-72.37572;-13297.53;-15.34417;10.00082;-8816.938;-806.2116;0.2706253;-0.3239996;0;
7042.158;5597.275;-175.017;4505.482;-3.338682;1.015305;7097.379;4197.568;-0.184418;-0.1937393;0;
22744.61;17980.74;638.9217;26784.57;-3.000535;-0.7942548;24247.78;14677.14;0.01066931;0.4561288;0;
21126.93;16763.54;1326.996;26993.27;4.705639;2.488707;22634.49;14116.15;0.5303973;0.06586641;0;
18062.22;13814.28;2568.882;23525.7;7.848743;1.012582;19445.81;11035.96;-0.05484169;-0.1940691;0;
19393.47;14718.09;3959.444;25152.83;2.3485;2.150274;20921.69;11745.4;-0.509558;0.001027886;0;
8807.87;6704.854;4007.939;11726.62;4.02108;2.215096;9186.168;5175.383;-0.3791113;0.0659942;0;
-22056.46;-18154.08;3128.571;-23541.05;-8.709962;-2.140959;-23337.88;-14627.96;-0.05389365;0.06592789;0;
-24383;-19072.54;2346.381;-29194.65;-11.98276;-2.071825;-25826.83;-16005.79;-0.2487415;-0.2589751;0;
-6725.6;-1860.219;1199.005;-12790.61;-11.63593;-5.753743;-8211.317;-1041.351;-0.4433936;-0.1937475;0;
-5913.856;-1956.644;-212.0535;-11953.83;-14.97314;-6.551696;-7449.993;-169.1493;-0.1181114;0.06631654;0;
7630.156;5952.753;-377.0543;5277.838;-3.504869;-1.119617;7662.932;4505.983;-0.1179927;-0.2585868;0;
22895.09;18103.62;414.6924;27045.86;-0.9557521;-0.2477751;24405.84;14821.13;-0.1178741;-0.06342495;0;
21339.77;17007.12;1082.284;27182.61;-0.2852064;5.780816;22850.4;14358.4;0.3370157;0.1965082;0;
18176.15;13913.42;2278.001;23615.77;2.595468;8.052305;19552.85;11151.17;0.2717097;-0.1934934;0;
19644.81;14991.38;3650.458;25457.6;-0.2201788;9.517838;21193.28;12018.63;-0.05340001;-0.1932989;0;
9957.854;7657.682;3677.494;13224.88;-0.6220992;11.04888;10465.82;6050.847;-0.183281;-0.1281374;0;
-20583.65;-16884.37;2718.31;-21811.43;0.4502528;8.29148;-21797.14;-13437.1;-0.05316219;-0.3229106;0;
-23944.72;-18611.43;1846.922;-28736.92;-1.024068;9.019961;-25415.35;-15510.92;0.3366953;0.1321852;0;
-7044.235;-2153.323;683.5872;-13013.88;-3.367564;0.5043093;-8505.892;-1237.159;0.4013243;0.3919218;0;
-6386.906;-2327.555;-674.7454;-12355.05;-4.97177;-1.572607;-7889.494;-401.0699;0.206019;0.3265606;0;
7212.101;5673.029;-794.9285;4801.666;-11.66458;-2.307839;7258.23;4312.277;-0.183992;0.001395777;0;
22682.9;17889.61;22.19426;26786.29;-13.93003;-5.788572;24199.76;14595.07;-0.4436765;0.06636172;0;
21070.44;16743.54;705.3754;26907.8;-18.60509;9.957868;22573.98;14099.96;0.2064427;0.3911318;0;
17971.21;13710.67;1925.366;23428.34;-22.20274;13.76577;19350.66;10960.17;0.2712026;0.0009346834;0;
19351.45;14701.31;3356.429;25124.54;-12.2001;9.2642;20894.23;11715.96;-0.0539066;-0.1290009;0;
9207.107;7021.206;3463.814;12214.09;-10.51387;12.26912;9668.335;5530.451;0.3359516;0.2609327;0;
-21322.85;-17541.21;2579.776;-22769.61;-12.78048;5.089744;-22576.55;-13993.26;0.07574468;-0.3240355;0;
-24543.53;-19161.57;1754.785;-29324.26;-11.76326;3.343074;-26040.85;-15965.94;-0.1192335;-0.1937753;0;
-7839.643;-2873.075;609.7523;-13733.75;-12.15261;8.631244;-9306.659;-1533.643;-0.1191136;0.2611909;0;
-7034.681;-2875.202;-762.0462;-13018.19;-12.40882;8.019725;-8542.484;-636.8958;-0.05402662;0.001059031;0;
6994.386;5570.85;-923.4177;4426.004;-12.329;9.083394;6968.729;4179.901;0.01099501;0.2609273;0;
22627.09;17848.48;-147.8636;26662.28;-12.31661;9.208233;24108.2;14560.42;-0.4437874;0.3256325;0;
21002.44;16671.16;512.8748;26854.84;-17.32808;6.854699;22513.6;14039.21;-0.2484395;0.0004685892;0;
17788.8;13530.69;1733.589;23240.87;-18.51612;6.311948;19165.63;10778.38;-0.1182552;0.1953702;0;
19173.32;14525.79;3158.63;24927.96;-19.90403;5.367845;20708.71;11550.5;-0.3780057;0.3251085;0;
9081.271;6913.775;3219.705;11982.7;-21.42525;4.826588;9479.24;5368.45;0.1421128;0.3247819;0;
-21706.85;-17911.37;2315.704;-23197.57;-14.4375;2.07556;-22998.07;-14457.2;0.2069374;0.3894229;0;
-25158.09;-19669.28;1551.885;-29902.36;-11.87739;0.2649351;-26649.09;-16340.52;0.07679477;0.1941295;0;
-9089.784;-4032.83;467.745;-14878.69;-14.41105;4.618437;-10561.87;-2092.782;0.2066523;0.2589018;0;
-9149.304;-4641.938;-874.8629;-15078.54;-13.52592;5.350609;-10657.75;-1819.269;-0.5081961;0.323609;0;
5552.911;4697.565;-1002.326;2724.511;-6.613451;4.072557;5498.408;3458.079;-1.092391;-0.1964549;0;
22446.06;17775.66;-193.4433;26268.17;-3.525347;5.943987;23901.96;14475.64;-0.3116858;-0.2612248;0;
20952.72;16544.06;472.6352;26847.43;-7.741364;0.9813995;22473.54;13914.79;0.07843143;-0.001092991;0;
17682.6;13476.52;1649.475;23119.98;-7.800934;0.1096353;19052.52;10721.41;-0.05158206;-0.06605923;0;
19155.91;14476.91;3033.121;24910.85;-3.305117;9.754824;20687.22;11508.46;0.2083391;0.2588439;0;
9096.29;6932.193;3123.433;12117.59;-2.297418;12.82611;9542.572;5378.483;-0.1167069;0.7783225;0;
-21375.29;-17570.51;2256.791;-22815.43;-5.175498;12.14352;-22620.73;-14115.94;-0.6363284;0.6476058;0;
-24893.56;-19423.16;1444.18;-29638.13;-5.102949;14.34163;-26374.48;-16119.57;-0.3758196;0.06224896;0;
-8535.353;-3444.495;289.1529;-14427.16;-6.906482;18.34608;-10020.34;-1768.436;0.3391987;-0.2626503;0;
-7428.078;-3273.883;-1068.533;-13440.9;-8.037642;21.20791;-8946.274;-846.6058;0.2089232;-0.06748436;0;
6911.369;5494.844;-1187.306;4367.407;-1.13069;17.16774;6909.297;4086.422;-0.5059274;0.3873549;0;
22551.73;17800.06;-355.5459;26603.34;1.884556;15.60989;24047.97;14521.82;-0.05064769;0.257031;0;
20915.96;16574.61;344.3035;26756.81;-5.820497;24.97157;22424.16;13954.24;0.07933788;-0.06806403;0;
17613.47;13370.58;1562.626;23054.48;-7.087446;26.21915;18988.94;10614.66;-0.5054479;0.1918737;0;
19033.13;14380.57;3014.669;24785.65;1.226047;20.96826;20561.05;11428.53;-0.05016864;0.1916809;0;
9068.609;6891.163;3157.004;12063.97;1.090117;21.48306;9480.642;5316.798;0.07981645;-0.003413698;0;
-21601.4;-17796.86;2315.285;-23031.45;6.782449;11.48126;-22874.17;-14350.99;-0.1151658;0.06155707;0;
-24942.16;-19463.92;1569.332;-29720.29;9.589649;7.919624;-26434.36;-16209.77;0.01488462;-0.003472121;0;
-8334.266;-3272.026;492.6085;-14221.71;-3.682851;11.3278;-9833.188;-1711.978;-0.1800324;0.06149871;0;
-7823.004;-3487.425;-841.9347;-13821.52;-6.023675;8.235198;-9362.353;-987.8083;-0.2448188;0.3862737;0;
6275.727;5120.051;-956.0622;3587.548;-8.093727;17.47045;6252.102;3854.594;-0.3095402;0.2559508;0;
22397.19;17679.73;-131.8903;26321.92;-11.23343;19.06036;23878.66;14391.11;0.01560759;0.1907263;0;
20932.24;16564.33;540.3419;26796.14;-6.332995;12.8789;22444.84;13938.06;0.6002979;0.1255673;0;
17694.7;13469.55;1749.66;23109.63;-5.254905;12.79898;19063.71;10734.53;0.1449234;-0.1993956;0;
19279.85;14625.44;3188.74;25056.1;-7.594149;5.485221;20821.3;11656.53;-0.3099936;-0.4590646;0;
9566.19;7259.986;3288.453;12771.04;-6.581165;2.331511;10071.31;5691.057;0.08012193;-0.393636;0;
-21099.23;-17442.8;2379.916;-22397.17;-0.8811246;1.86041;-22309.01;-14040.46;0.2099761;-0.003436398;0;
-25155.59;-19637.6;1538.571;-29911.13;1.464285;-0.8877594;-26651.9;-16237.54;-0.1800389;0.3214038;0;
-9712.08;-4589.922;373.0792;-15472.51;6.553029;0.65374;-11166.97;-2430.113;-0.2448254;0.1911462;0;
-9440.016;-5017.39;-988.1586;-15389.77;10.09642;0.5191173;-10916.76;-2107.035;-0.1146447;-0.2638173;0;
5743.624;4717.495;-1080.853;2885.418;5.665643;-1.758763;5719.309;3436.781;-0.1145295;-0.3285196;0;
22431.07;17733.13;-236.4095;26245.03;4.855667;-1.355159;23896.11;14458.86;0.01552028;0.06161457;0;
20910.96;16528.16;450.108;26787.12;8.870253;-0.2820706;22435.15;13915.18;0.2753741;-0.1333494;0;
17756.89;13545.54;1669.137;23159.17;7.923334;0.7229568;19124.84;10808.27;0.1451627;-0.003280696;0;
19331.94;14676.34;3109.578;25100.35;5.034985;4.339187;20879.15;11727.38;0.01508212;0.3215593;0;
9716.37;7361.421;3198.813;12942.73;3.690755;6.813195;10264.4;5776.017;0.08003431;-0.1335352;0;
-20934.15;-17318.84;2292.428;-22215.08;-5.221561;8.212869;-22117.72;-13904.74;0.01498655;-0.06843366;0;
-24866.28;-19395.85;1498.71;-29626.76;-9.302152;10.68299;-26351.76;-16166.06;0.2098735;0.3214391;0;
-8866.779;-3827.68;364.305;-14721.29;-7.685215;11.54303;-10311.11;-2108.924;0.1446953;0.06124679;0;
-8436.223;-4155.199;-1013.478;-14406.58;-8.816568;12.737;-9885.742;-1575.041;-0.1153195;-0.06874943;0;
6346.188;5141.649;-1094.825;3691.717;-9.945809;15.53749;6380.833;3774.135;-0.1801709;0.06125433;0;
22717.16;17982.15;-225.4265;26657.65;-9.266231;15.85679;24205.72;14709.53;-0.2449572;0.1911275;0;
21048.92;16692.39;464.7657;26902.4;-9.792783;20.19462;22563.06;14087.9;0.08012561;0.2559028;0;
17843.95;13630.53;1698.397;23252.13;-10.18508;22.31779;19217.65;10884.57;0.1450124;-0.06919108;0;
19240.81;14588.33;3135.655;25029.87;0.2739987;12.78391;20789.34;11654.1;-0.2449373;-0.1340889;0;
9756.938;7425.464;3226.238;12967.88;2.685597;10.62773;10264.84;5833.431;-0.04978918;-0.1989215;0;
-20218.83;-16589.18;2337.754;-21563.69;3.151413;13.22926;-21443.86;-13130.63;0.4699996;-0.1337543;0;
-24235.15;-18799.16;1506.915;-28983.33;5.492771;11.94342;-25717.55;-15527.56;0.1446906;0.4510862;0;
-8409.705;-3354.037;348.7011;-14241.57;-5.162668;13.4719;-9866.903;-1858.475;0.01461054;0.06082888;0;
-7467.396;-3391.678;-1005.703;-13420.12;-8.037868;13.92725;-8927.144;-990.8865;0.3394326;-0.3940036;0;
6965.48;5403.53;-1106.141;4496.306;-8.230864;12.57359;7041.804;4072.424;0.1441895;0.126131;0;
22649.13;17871.38;-270.2466;26704.14;-10.83456;13.16381;24158.17;14597.46;-0.05085742;0.2559389;0;
20969.64;16658.22;404.0612;26786.38;-9.550877;14.02136;22471.07;14053.11;0.07912836;0.5155511;0;
17736.29;13501.64;1600.585;23161.71;-9.273836;14.87805;19113.36;10762.8;0.2089835;0.7099351;0;
19048.91;14412.31;3008.924;24827.48;-13.28301;16.4037;20587.98;11476.59;0.01387152;0.1894831;0;
9536.371;7262.279;3094.419;12676.08;-14.47511;17.05705;10009.49;5669.492;0.1437923;-0.135544;0;
-20511.86;-16799.44;2191.637;-21871.6;-5.083441;18.91531;-21755.61;-13344.7;0.4684845;-0.3952772;0;
-24287.14;-18879.91;1352.574;-29040.12;-3.13595;19.63312;-25769.64;-15636.91;0.2081444;-0.7846841;0;
-8067.331;-3085.749;181.2404;-13962.52;-1.123067;18.60865;-9524.896;-1763.773;0.1429679;-0.2641569;0;
-7292.345;-3161.874;-1205.307;-13230.8;2.025893;17.92012;-8774.917;-906.5873;0.07785691;0.1908799;0;
6835.713;5386.18;-1328.362;4485.955;-6.683679;16.36163;6875.725;4058.844;-0.1171234;-0.004213902;0;
22632.29;17889.37;-516.95;26735.89;-8.351903;14.06777;24130.58;14624.56;0.01292902;-0.3290464;0;
21015.93;16687.85;130.3849;26829.34;-6.26643;13.51777;22528.31;14085.19;-0.1170187;-0.7834871;0;
17741.73;13517.32;1309.583;23152.62;-8.403587;11.49482;19113.88;10792.64;-0.3767704;-0.4578632;0;
19034.93;14399.48;2704.815;24830.38;-5.649453;5.923808;20581.66;11470.31;-0.3763919;-0.002631726;0;
9860.859;7519.117;2788.21;13112.72;-6.112291;3.573453;10391.73;5908.903;-0.1161443;-0.3274658;0;
-19696.12;-16063.28;1888.141;-21025.46;-8.115881;-1.185804;-20898.05;-12610.6;-0.05106025;0.0626673;0;
-23785.64;-18404.59;1057.473;-28587.08;-7.370792;-3.328005;-25251.93;-15165.86;-0.1809436;0.3224737;0;
-8036.126;-3064.19;-77.00439;-13972.87;-14.53068;-3.860524;-9491.638;-1797.225;0.01414021;-0.1326217;0;
-7166.267;-3163.154;-1420.548;-13169.09;-15.58781;-5.196243;-8654.688;-910.5354;0.07909334;0.1923483;0;
7041.031;5397.411;-1513.605;4680.771;-13.29399;1.038269;7117.725;4100.72;-0.5056922;0.4520244;0;
22727.29;17949.18;-672.0844;26837.9;-13.6164;2.309779;24248.15;14688.82;-0.6351188;-0.2630706;0;
21100.52;16801.93;-23.98449;26905.29;-4.827837;6.326434;22604.17;14207.28;-0.2446765;-0.4577083;0;
17802.59;13562.35;1145.811;23222.67;-1.875248;9.200222;19175.21;10839.05;-0.114496;-0.002477001;0;
19045.55;14420.46;2583.155;24844.15;-0.5341936;6.645748;20587.79;11497.36;-0.1793483;-0.06744185;0;
9974.624;7604.652;2728.767;13243.79;1.810868;9.117316;10505.57;5971.231;-0.1142007;-0.06737409;0;
-19840.75;-16240.33;1853.838;-21142.24;1.004765;2.409984;-21051.05;-12802.33;-0.04911866;-0.06730639;0;
-24039.16;-18678.38;1031.325;-28860.61;1.473246;1.938682;-25521.33;-15469.59;-0.0490693;-0.1971734;0;
-7801.434;-2896.657;-84.47872;-13786.88;-0.9401079;4.817;-9256.188;-1764.258;-0.1139873;0.1928287;0;
-7183.933;-3067.128;-1438.448;-13217.41;-1.74247;3.472501;-8700.522;-878.4142;0.01606188;0.5174717;0;
6665.578;5247.104;-1562.595;4265.854;-5.960279;18.74076;6683.507;3986.321;-0.1138889;0.1271477;0;
22653.89;17915.24;-721.6346;26738.71;-8.165092;23.20966;24153.9;14657.87;-0.5035785;-0.1978168;0;
21065.83;16744.27;-51.48044;26854.64;-6.88409;18.89955;22578.55;14146.88;-0.3081705;0.2571534;0;
17763.33;13539.16;1138.895;23157.69;-8.016249;21.29195;19130.04;10830.62;0.01697582;0.3218623;0;
19007.41;14384.83;2566.407;24786.25;-4.189801;15.30919;20555.12;11459.21;0.2768281;-0.06826514;0;
10162.64;7736.958;2693.982;13357.53;-2.444279;13.55225;10737.92;6091.857;0.2115826;0.06173813;0;
-18990.41;-15430.64;1832.925;-20374.18;-5.12114;15.88304;-20161.31;-12008.26;-0.178434;-0.003291242;0;
-23185.99;-17840.45;1008.435;-28026.13;-4.446409;14.9963;-24666.45;-14695.67;-0.2432221;-0.2631573;0;
-8085.536;-3208.792;-150.8403;-13991.98;-1.628902;14.11046;-9537.976;-2018.219;0.1468264;-0.3928276;0;
-8399.25;-4116.5;-1541.49;-14296.25;-0.3544676;14.23024;-9839.313;-1728.18;0.2766135;-0.06759614;0;
6021.023;4786.835;-1682.807;3607.346;2.124135;13.6131;6139.92;3589.603;-0.04850113;0.1273738;0;
22728.15;17976.27;-857.2953;26726.19;4.734945;13.73339;24244.16;14705.5;-0.3732891;-0.4574602;0;
21073.05;16748.16;-208.4158;26874.39;-0.4947253;18.87715;22573.94;14165.52;-0.2429793;-0.1321639;0;
17797.11;13591.81;951.8511;23177.7;-1.833399;21.1356;19171.38;10876.04;-0.1128005;0.452675;0;
19108.61;14477.7;2370.65;24898.52;5.937975;21.44928;20651.22;11564.73;0.08221486;0.3222855;0;
10291.81;7869.221;2499.702;13642.8;5.529867;23.10218;10871.57;6205.314;0.4719363;0.1920269;0;
-18898.81;-15351.91;1615.633;-20178.72;8.940562;24.15069;-20070.61;-11945.49;0.3415274;-0.1979701;0;
-23348.75;-17990.32;784.5828;-28187.15;10.3381;24.9972;-24843.36;-14832.31;-0.0486198;0.1920329;0;
-7630.755;-2747.631;-354.2585;-13578.36;-0.3222094;24.83812;-9093.66;-1749.537;-0.1135383;0.4517093;0;
-7152.684;-3007.847;-1745.094;-13176.6;-2.197896;24.34428;-8681.818;-881.5112;-0.04845687;-0.003515954;0;
6514.746;5161.789;-1900.995;4049.679;-7.353251;24.58775;6513.646;3908.139;0.08152651;0.256357;0;
22589.21;17864.48;-1082.964;26629.01;-10.35997;23.89322;24086.95;14607.61;0.1464119;0.06119733;0;
21105.59;16788.78;-443.369;26898.7;-8.607274;21.99369;22614.48;14210.35;-0.1785719;-0.2637009;0;
17693.53;13483.52;721.7567;23099.78;-10.20622;21.50283;19060.9;10770.92;-0.1134251;0.06140081;0;
18888.84;14272.49;2145.753;24685.78;-3.163363;17.39527;20433.62;11366.8;0.2115256;-0.3284649;0;
10065.16;7675.58;2273.063;13305.2;-1.619943;16.44015;10618.94;6029.434;0.601117;-0.4580696;0;
-18978.61;-15369.62;1406.838;-20312.01;3.204456;16.28966;-20173.46;-11932.12;0.5355457;-0.002837915;0;
-23069.32;-17803.32;591.5212;-27893.05;8.091356;15.0676;-24571.42;-14625.97;0.01526887;0.1270996;0;
-7355.085;-2618.972;-532.9301;-13271.3;-3.70577;21.88448;-8818.979;-1684.879;0.3400902;0.2569066;0;
-7376.228;-3182.791;-1907.672;-13356.72;-5.175915;23.0012;-8883.722;-1031.264;0.5346505;0.1916811;0;
6179.967;4883.636;-2052.76;3590.076;1.929232;23.17903;6187.634;3742.67;-0.1155601;0.1265212;0;
22597.24;17858.63;-1221.067;26496.83;2.061992;23.62462;24085.71;14612.05;-0.505248;0.1913614;0;
21181.06;16863.36;-588.5636;27009.54;2.394712;22.19424;22695.78;14274.05;-0.04996897;-0.003732927;0;
17806.96;13604.59;570.4924;23179.22;2.057513;21.90401;19173.73;10915.53;-0.1148861;0.1262055;0;
19287.71;14671.96;2022.002;25080.78;3.864107;14.38016;20835.62;11761.39;-0.4396074;0.3209807;0;
10643.07;8145.457;2149.655;14164.13;4.195017;11.55243;11252.04;6451.006;-0.309231;0.06078883;0;
-18603.63;-15101.98;1243.73;-19713.46;0.5061308;9.330503;-19742.16;-11732.79;-0.4388549;-0.1341743;0;
-22894.32;-17699.09;414.6468;-27725.35;-0.6324775;6.507844;-24379.06;-14570.87;-0.1785446;-0.06907211;0;
-7336.407;-2739.348;-720.1372;-13288.94;-2.105711;8.979673;-8800.698;-1720.85;0.1464715;-0.1989374;0;
-7430.843;-3338.652;-2112.401;-13403.52;-2.840529;8.434788;-8962.66;-1080.926;0.08135699;-0.4586068;0;
6308.471;4981.413;-2249.802;3865.729;-9.73655;11.64137;6299.007;3814.153;0.3411446;-0.3282114;0;
22658.16;17912.81;-1414.366;26688.03;-14.01367;13.97408;24153.57;14654;0.1458998;-0.003044877;0;
21093.89;16796.71;-775.4376;26874.74;-2.81381;11.95055;22601.46;14227.46;-0.04914883;-0.003041818;0;
17640.03;13432.75;385.4616;23040.47;-1.470836;14.14898;19007.91;10735.43;-0.04909944;-0.1979408;0;
18794.21;14183.77;1817.698;24581.75;-3.345369;12.7951;20338.55;11279.58;-0.1789848;-0.1977419;0;
10048.06;7641.286;1989.378;13220.75;1.21332;12.64828;10576.83;6003.255;0.2109991;0.1272935;0;
-18969.71;-15405.48;1177.567;-20385.36;-17.2747;23.62053;-20178.71;-11988;0.4706565;0.3220676;0;
-23531.5;-18176.54;384.4385;-28364.52;-22.21481;27.61564;-25017.99;-14928.89;0.2752815;0.126842;0;
-8190.492;-3310.677;-732.3866;-14123.24;0.1800534;23.10016;-9653.062;-2022.468;0.01513554;-0.1331548;0;
-7741.733;-3589.194;-2078.958;-13754.87;2.457048;24.41661;-9249.779;-1182.372;0.145055;-0.2629557;0;
6257.575;4874.036;-2194.294;3741.927;8.4828;26.20061;6272.592;3697.41;0.01497458;-0.002822135;0;
22479.26;17745.53;-1347.608;26460.21;14.10035;26.57607;23966.58;14494.91;-0.5697466;0.06214804;0;
20981.55;16680.19;-686.9287;26754.42;2.298166;27.88902;22483.72;14110.59;-0.17937;-0.002881746;0;
17550.51;13349.66;478.8946;22928.02;1.625295;27.59307;18912.99;10648.63;0.2755816;0.2569905;0;
18695.6;14092.74;1899.668;24465.08;1.222497;26.82853;20235.95;11200.1;0.4052394;0.3216996;0;
9996.244;7533.212;2054.461;13122.14;-1.123256;25.12712;10515.79;5861.352;0.5347669;0.1914417;0;
-19121.48;-15600.45;1222.502;-20587.72;0.6191844;25.30282;-20351;-12196.88;0.2093928;-0.003652683;0;
-23433.54;-18139.77;417.0214;-28327.05;-0.3858157;24.0717;-24927.95;-14988.86;0.1442151;-0.198551;0;
-7677.5;-2930.932;-716.0939;-13693.23;-1.457155;17.41633;-9150.099;-1969.243;0.1440702;-0.2633189;0;
-7718.402;-3502.323;-2099.476;-13754.29;-1.724111;14.58566;-9251.364;-1287.543;0.2738601;-0.3280216;0;
5902.105;4722.735;-2212.792;3374.737;-1.588656;10.55216;5905.692;3574.588;0.1436503;0.1920467;0;
22560.19;17863.38;-1311.224;26515.43;-0.9838476;7.326372;24053.1;14605.5;-0.5061675;0.4517231;0;
21164.2;16847.17;-626.8124;26947.84;-1.920864;7.252027;22668.55;14281.71;-0.0508875;0.1264325;0;
17580.73;13392.61;550.2573;22975.9;-2.722241;5.101408;18944.31;10697.92;0.209033;-0.06859657;0;
18740.79;14129.23;2025.619;24526.09;5.251097;8.445307;20279.78;11233.88;0.07888827;0.06140704;0;
10013.12;7612.362;2244.941;13218;8.32728;9.173634;10523.74;5953.164;0.5985477;0.1263127;0;
-19087.8;-15503.98;1469.418;-20367.81;-1.59505;5.34651;-20321.64;-12101.2;0.01324024;-0.06871627;0;
-23431.53;-18147.26;698.7341;-28095.26;-3.736901;5.14019;-24932.97;-14948.74;-0.6364465;0.1262548;0;
-7608.283;-2844.595;-407.428;-13443.72;1.760187;2.991571;-9084.649;-1883.345;-0.2460029;0.3859973;0;
-7367.005;-3226.965;-1738.459;-13313.98;0.619342;0.7111453;-8889.256;-1107.826;-0.05085371;0.1257401;0;
6151.996;4802.353;-1819.623;3627.157;2.561103;6.939722;6156.321;3632.827;0.01416473;-0.004320935;0;
22490.41;17755.34;-876.8773;26423.66;4.233469;8.071458;23979.77;14515.52;0.1440852;0.2555528;0;
21091.33;16807.44;-70.72915;26848.67;-8.229366;0.3605548;22594.28;14242.84;-0.2458636;0.3852307;0;
17650.95;13447;1264.593;23009.85;-11.43628;-0.175671;19015.46;10767.47;-0.505486;0.06000689;0;
18854.29;14257.83;2878.198;24598.89;-4.794331;-3.323631;20395.6;11362.3;0.1446954;-0.06998809;0;
9897.275;7516.203;3190.022;13000.85;-4.989608;-5.128831;10386.17;5901.829;0.729256;0.3198863;0;
-19660.74;-16080.43;2490.761;-21105.5;-4.51608;-0.03303552;-20911.97;-12637.58;0.1438172;0.1896302;0;
-24382.72;-18953.4;1836.086;-29218.98;-4.444193;0.2349294;-25876.52;-15601;-0.4410334;-0.3952664;0;
-8734.156;-3786.561;872.9117;-14679.74;-2.698416;3.985615;-10172.93;-2345.445;-0.1157535;-0.3299019;0;
-8465.698;-4118.479;-301.7348;-14574.65;-3.097846;5.723045;-9956.403;-1613.205;-0.1806045;-0.004733738;0;
5433.404;4372.332;-232.8411;2601.9;-1.754586;4.980604;5402.308;3249.863;-0.1154557;0.1901731;0;
22198.98;17523.76;812.352;25989.89;-1.351658;6.047204;23665.43;14283.11;0.5343337;0.1250146;0;
20912.48;16592.47;1682.785;26691.89;-9.789417;2.15624;22424.53;14040.95;0.4038621;-0.005045684;0;
17365.78;13183.01;3057.84;22738.29;-11.52089;0.5466053;18729.34;10501.55;-0.2462171;0.3197961;0;
18473.01;13866.91;4719.056;24218.05;-16.80158;3.560166;20007.01;10987;-0.2459697;0.3194748;0;
9610.098;7282.248;5143.848;12592.83;-19.73146;3.891503;10054.65;5654.497;-0.05082053;0.1892191;0;
-20165.46;-16536.05;4582.646;-21685.29;-14.95621;-2.944544;-21440.42;-13103.62;-0.05076947;0.05909426;0;
-25080.85;-19584.27;3965.787;-29894.73;-14.80746;-5.35291;-26556.95;-16163.75;0.01424889;-0.2658018;0;
-9150.068;-4098.009;2871.382;-15085.22;-12.51443;0.7477327;-10593.73;-2550.578;-0.1157001;-0.1356001;0;
-8881.927;-4460.332;1465.733;-14946.73;-12.30176;1.483794;-10384.56;-1855.082;-0.2455185;0.2543403;0;
5071.114;4072.175;1330.421;2202.079;-3.38079;-0.05818272;5035.534;3012.696;-0.3752065;0.319052;0;
22096.55;17439.38;2230.194;25822.74;0.1062073;0.8795148;23555.97;14200.37;-0.6996662;0.05886206;0;
20858.71;16533.47;2932.38;26666.92;-7.194917;2.620187;22375.2;13974.85;-0.3091592;-0.07113177;0;
17365.9;13188.17;4072.484;22716.82;-6.450753;5.095923;18722.99;10516.55;0.1459229;-0.006092951;0;
18645.08;14051.45;5492.239;24408.99;-15.15181;0.736912;20188.15;11164.75;-0.1140931;-0.2009889;0;
10078.99;7638.33;5659.227;13329.08;-18.62018;0.06646423;10627.73;5986.535;-0.3088805;-0.2657543;0;
-19694.16;-16166.15;4801.313;-20988.46;-12.90805;10.04661;-20890.5;-12783.97;-0.04870075;-0.1355525;0;
-24731.32;-19265.73;3981.836;-29565.64;-13.29722;12.11286;-26233.38;-15841.41;-0.1785865;-0.005481639;0;
-9669.572;-4774.225;2820.729;-15477.02;-9.264394;13.77527;-11097.24;-2898.365;-0.3733091;0.05949121;0;
-10991.11;-6275.514;1394.985;-16948.28;-5.772461;16.10571;-12496.38;-3167.675;-0.178032;0.4492355;0;
3408.593;3028.806;1255.59;177.7274;-10.58943;11.53481;3266.024;2175.261;-0.6975918;0.3838167;0;
21973.41;17424.43;2137.884;25406.76;-10.71251;11.12132;23382.74;14177.6;-0.5019888;-0.2662423;0;
20937.91;16541.83;2826.201;26788.01;0.8861759;10.1725;22466.79;13980.5;0.148189;0.0588619;0;
17343.21;13216.12;3997.146;22687.09;2.760319;9.358487;18697.2;10547.32;0.1480401;0.1887375;0;
18715.65;14093.64;5446.525;24465.08;3.829273;8.210374;20253.02;11219.6;0.277826;-0.2012563;0;
10062.95;7646.276;5601.721;13359.22;4.964501;7.264363;10555.61;5961.341;-0.04728985;0.1237827;0;
-19617.16;-16055.83;4723.594;-20885.28;0.2040906;9.132586;-20865.16;-12681.92;-0.3071117;-0.07124373;0;
-24236.91;-18911.67;3918.593;-29067.17;0.6724;8.788495;-25730.15;-15644.23;-0.1119011;-0.3310415;0;
-8555.535;-3772.784;2791.533;-14495.43;-16.00642;10.65506;-10006.89;-2399.567;0.01814603;0.3189645;0;
-9279.242;-4881.746;1379.999;-15281.91;-22.75549;9.706718;-10763.7;-2176.376;0.2779972;0.4485787;0;
4705.947;3785.336;1217.943;1815.574;-10.34139;14.1847;4687.248;2828.64;-0.1770536;-0.2015454;0;
22212.34;17555;2066.354;25888.32;-11.20165;15.57709;23670.13;14295.61;-0.241843;-0.2663102;0;
21020.73;16695.35;2747.091;26811.66;-7.439354;4.844411;22534.53;14154.72;0.2781387;0.1887287;0;
17647.06;13485.46;3910.214;22986.88;-4.14935;3.365919;19004.54;10810.85;-0.1119448;0.05860441;0;
18628.48;14028.66;5325.853;24393.92;-10.84396;-3.938419;20169.81;11160.56;-0.3717017;0.1884802;0;
9821.823;7427.045;5477.609;13035.58;-10.76572;-8.221309;10379.78;5779.982;0.1484106;0.1233235;0;
-19333.63;-15734.95;4635.183;-20702.43;-3.923372;-1.045996;-20516.88;-12302.61;0.2781961;-0.2016371;0;
-23933.77;-18630.33;3849.293;-28771.75;-1.172764;-1.915723;-25413.37;-15338.24;0.01804721;0.2533369;0;
-7945.326;-3207.2;2750.413;-13914.98;-6.932362;2.43997;-9381.158;-2143.573;-0.1119056;0.3180497;0;
-7893.537;-3638.399;1374.183;-13910.84;-7.728703;3.710194;-9383.929;-1361.686;0.4079456;0.0578607;0;
5411.789;4240.845;1205.574;2717.883;-0.4199197;3.639483;5384.972;3185.303;0.3425683;0.3826393;0;
22092.28;17390.47;2044.69;25908.09;0.9196729;4.908502;23556.75;14165.96;-0.3724166;0.4472221;0;
21013.17;16721.23;2731.352;26780.28;-0.8225634;-1.258738;22525.62;14175.77;0.01776161;-0.007998631;0;
17506.68;13330.36;3877.28;22862.45;-0.5533171;-2.396183;18866.1;10665.97;0.2776131;-0.26786;0;
18414.24;13829.15;5280.115;24186.7;-2.562493;-6.21168;19955.61;10968.93;-0.1774372;-0.1376561;0;
9914.701;7490.258;5450.783;13087.41;-4.435928;-8.080961;10452.02;5828.218;-0.04732424;-0.07255047;0;
-19293.1;-15711.89;4603.386;-20662.16;-0.6130781;-7.202063;-20500.71;-12273.53;0.1476253;-0.1374449;0;
-23901.98;-18681.98;3788.855;-28756.88;-0.07659861;-7.462758;-25385.17;-15450.11;0.2124444;-0.07233947;0;
-7464.2;-2876.891;2676.917;-13502.03;-9.588342;-3.57031;-8904.352;-2075.36;0.0822962;-0.3971035;0;
-7562.131;-3278.656;1276.149;-13590.26;-12.25705;-1.825228;-9063.195;-1190.718;-0.2426232;-0.07186777;0;
5319.481;4238.143;1088.71;2633.764;-9.16425;2.999255;5294.793;3183.749;-0.3073468;0.3180085;0;
22090.28;17393.13;1927.944;25881.67;-9.087693;6.412249;23558.63;14171.18;0.01779878;0.1227869;0;
21096.39;16803.05;2611.506;26861.22;-10.81987;5.80296;22611.55;14261.58;0.08274823;0.05769622;0;
17653.46;13483.84;3765.863;23002.86;-10.20677;6.868856;19012.5;10827.37;-0.1772043;0.1226056;0;
18534.41;13947.74;5158.158;24313.73;-5.842253;10.2111;20076.62;11094.4;-0.2419936;-0.07241964;0;
9909.077;7456.887;5300.37;13154.47;-3.692929;11.0715;10474.15;5793.942;0.1480536;-0.3971836;0;
-19007.88;-15450.25;4451.312;-20335.53;0.8651331;9.921784;-20186.56;-12007.83;0.01797019;-0.4617518;0;
-23358.16;-18163.45;3630.375;-28246.54;3.945723;11.31833;-24841.97;-14945.01;-0.3068846;-0.1364512;0;
-7341.638;-2782.264;2485.676;-13365.21;5.079858;0.6569193;-8782.475;-2047.673;-0.04670684;0.25349;0;
-7867.087;-3604.491;1064.422;-13868.05;6.615971;-2.692765;-9359.871;-1472.794;0.08327477;0.2532353;0;
5169.285;4035.027;878.0084;2422.766;7.948494;6.218426;5145.825;3075.65;-0.2416456;-0.3966926;0;
22081.57;17364.39;1714.049;25827.8;8.610092;6.346144;23549.07;14142.56;-0.5662395;-0.591196;0;
21044.35;16765.91;2396.389;26814.43;6.190544;10.76052;22557.93;14228.77;-0.4357359;-0.2657652;0;
17672.38;13498.54;3566.705;23001.96;5.64846;13.49601;19032.21;10848.32;0.34431;-0.2005309;0;
18663.17;14085.35;4989.841;24435.02;3.901472;8.860745;20205.22;11232.47;0.4089314;0.1245074;0;
10027.61;7574.961;5145.434;13323.16;4.164996;8.11503;10578.39;5904.744;0.01871649;0.2543169;0;
-19358.75;-15802.39;4286.88;-20615.75;-0.3261919;12.59461;-20548.22;-12378.31;0.3435344;-0.5255467;0;
-23986.46;-18776.33;3488.253;-28857.48;-1.598662;12.64894;-25471.47;-15508.64;0.2782219;-0.4600513;0;
-7555.483;-3012.054;2382.927;-13594.03;6.842062;7.009784;-8996.86;-2225.742;0.212975;0.06014968;0;
-8079.577;-3727.713;973.8649;-14096.3;7.773192;4.859409;-9588.644;-1579.142;0.5375977;-0.06984544;0;
4725.858;3781.978;782.3259;1904.519;15.93706;1.840294;4666.721;2840.943;0.2771881;-0.06977525;0;
21855.73;17174.37;1619.244;25549.72;19.53836;-0.4388526;23311.71;13952.42;0.4068443;0.2551316;0;
20943.72;16650.69;2320.388;26714.68;11.74822;-3.720514;22455.5;14115.71;0.5363702;-0.3298309;0;
17560.96;13403.24;3499.182;22895.03;9.660314;-5.793247;18920.04;10755.14;-0.1788095;-0.6543362;0;
18437.71;13847.95;4900.397;24198.7;12.26258;-5.050613;19972.73;11002.08;-0.4384992;-0.004005267;0;
9698.282;7323.199;5052.395;12862.18;11.11215;-5.715368;10201.58;5635.264;0.1466475;-0.004001242;0;
-19554.84;-15944.48;4217.61;-20944.38;1.053305;-1.087864;-20767.57;-12543.31;0.3414021;-0.06896456;0;
-24433.67;-19093.61;3403.092;-29305.67;-1.358651;1.72639;-25903.79;-15690.95;0.2760917;0.3209088;0;
-8203.653;-3409.169;2273.207;-14209.21;-11.27027;-3.499891;-9631.245;-2408.396;0.5356837;-0.06921772;0;
-8238.889;-3916.721;872.9697;-14305.42;-17.08707;-3.898211;-9755.734;-1639.439;0.08037404;-0.004180826;0;
4733.358;3654.723;680.6262;1752.219;-4.410251;5.081236;4633.95;2776.349;-0.6993148;0.06079072;0;
21644.68;16982.33;1522.238;25256.5;-4.606891;7.487394;23087.55;13768.67;-0.5037101;0.06072963;0;
20776.01;16492.77;2233.225;26555.74;2.832478;3.594983;22297.48;13953.3;-0.308302;0.3855053;0;
17407.62;13241;3409.389;22741.32;8.121894;3.59137;18763.98;10604.16;-0.4379269;0.1252486;0;
18393.03;13822.85;4825.25;24147.14;-3.541542;3.989659;19932.44;10974.36;0.0822519;-0.06977928;0;
9744.804;7341.757;4984.943;12883.73;-2.667327;3.583753;10259.79;5690.687;0.1471366;-0.004741823;0;
-20126.6;-16529.53;4137.795;-21464.27;-4.673403;1.436698;-21324.04;-13094.65;-0.5026847;0.06023028;0;
-25077.8;-19700.15;3343.285;-29948.24;-6.477368;0.4974934;-26544.77;-16350.32;0.0825265;0.1901045;0;
-8334.195;-3583.96;2246.1;-14361.89;2.437748;-1.378407;-9754.617;-2501.846;0.4072803;-0.004988596;0;
-9129.667;-4515.124;835.2078;-15154.21;3.507026;-2.783663;-10635.93;-1995.367;-0.2428024;-0.06995092;0;
3559.211;3028.483;631.533;421.8862;5.981749;-1.173276;3430.582;2262.843;-0.6323624;-0.2647827;0;
21432.62;16855.18;1492.653;24908.29;8.119192;-1.975892;22852.59;13630.31;-0.3718577;-0.06961458;0;
20698.06;16355.31;2220.599;26505.92;5.69916;1.509084;22220.5;13823.93;0.2781894;0.1253574;0;
17272.07;13145.15;3421.45;22613.54;6.363019;3.584038;18633.16;10518.63;0.2779098;-0.2645726;0;
18363.13;13767.25;4850.292;24074.75;3.208793;-4.122417;19895.86;10912.97;-0.1121734;-0.06940475;0;
9175.803;6859.228;4991.314;12124.86;1.665328;-5.323967;9647.274;5263.445;0.0828413;0.3204691;0;
-20708.7;-17033.92;4152.593;-22161.61;3.538689;-0.7638397;-21913.9;-13569.08;0.2126928;0.1902124;0;
-25497.69;-20040.29;3357.318;-30248.26;2.598104;-0.5621234;-26942.35;-16571.56;0.08254435;0.06008654;0;
-9094.256;-4178.443;2226.824;-15040.25;3.867315;0.7779781;-10523.59;-2732.432;0.2123961;0.06002616;0;
-9128.189;-4644.867;832.5672;-15165.66;4.667712;1.380043;-10626.02;-2004.348;-0.04768669;0.3198352;0;
4146.83;3315.754;658.2866;1050.841;-1.365198;-0.4297611;4044.989;2423.722;-0.6323448;0.3195139;0;
21401.27;16770.77;1521.191;24926.94;-3.306209;-2.103903;22830.46;13556.33;-0.3068728;0.1242908;0;
20581.62;16276.67;2260.884;26383.23;4.131853;0.7783555;22104.36;13759.4;0.148207;-0.005768804;0;
17256.62;13111.1;3453.074;22597.48;6.070084;-0.3610144;18616.33;10475.81;0.01812338;0.05920433;0;
18253.58;13672;4856.272;23992.94;1.040143;-5.920174;19788.42;10833.55;0.01810517;0.4489489;0;
9115.79;6822.619;4986.762;12129.19;1.240168;-8.258567;9594.272;5234.614;0.212989;0.5134652;0;
-21046.15;-17365.46;4132.022;-22443.63;2.377998;-13.87665;-22253.01;-13877.54;0.1478076;-0.006789534;0;
-25983.84;-20478.82;3343.608;-30724.79;1.705047;-15.4703;-27429.21;-16966.18;0.2126265;-0.2016847;0;
-9329.807;-4371.162;2242.582;-15243.94;6.325034;-24.29626;-10745.19;-2864.085;0.4073148;0.05838728;0;
-9581.457;-4907.919;838.4081;-15605.56;6.318679;-28.02283;-11090.73;-2200.508;0.1470362;0.3831653;0;
3497.164;3001.508;641.7891;312.9897;6.982891;-17.74652;3350.335;2156.967;-0.04801356;0.512715;0;
21110.95;16571.28;1489.155;24571.79;7.578111;-16.85792;22519.77;13364.67;0.01700203;0.3172978;0;
20435.32;16082.79;2204.268;26258.37;-0.66755;-7.396627;21968.33;13561.29;0.08195228;-0.1377924;0;
17081.66;12962.78;3402.481;22408.91;-2.47554;-1.561802;18438.91;10332.88;0.2118046;-0.07268662;0;
18291.54;13705.38;4840.899;24015.21;-8.4349;-6.851762;19827.92;10872.29;-0.04827757;0.1222885;0;
9413.33;7027.408;4990.021;12527.23;-12.91343;-3.696741;9937.634;5393.675;0.01673828;-0.07273646;0;
-20942.42;-17337.27;4118.099;-22214.82;-5.33199;-5.903463;-22110.94;-13897.82;0.3415582;-0.007696033;0;
-26034;-20533.38;3297.371;-30779.99;-5.594076;-6.500317;-27480.57;-17018.1;-0.04858908;0.1222464;0;
-9478.849;-4553.795;2167.249;-15396.72;-6.259017;-0.1975116;-10879.16;-2970.619;-0.373377;-0.4625825;0;
-10288.12;-5605.423;732.6666;-16314.59;-5.314723;-0.7331766;-11787.89;-2685.448;-0.1780998;-0.6570197;0;
2961.161;2509.461;509.511;-439.499;-7.787629;5.496851;2783.288;1813.444;-0.4377902;-0.1366208;0;
21173.95;16628.44;1338.363;24444.12;-7.110219;8.438455;22560.81;13414.26;-0.3723829;-0.006548875;0;
20531.02;16175.76;2039.697;26370.05;-9.513971;-3.291794;22065.65;13651.36;0.14773;-0.006542295;0;
17284.78;13173.16;3231.641;22582.51;-10.17497;-4.427135;18637.89;10551.27;0.5373856;0.1883663;0;
18593.3;14003.28;4672.168;24320.73;-6.814871;-6.499096;20131.12;11166.88;0.6018129;0.3181117;0;
9526.717;7187.022;4804.717;12826.82;-6.606952;-8.970874;10082.59;5566.941;0.4063062;-0.007044632;0;
-20718.97;-17049.8;3921.018;-21919;-3.117689;-1.459954;-21870.67;-13584.2;0.2109959;-0.3318743;0;
-25452.62;-20116.51;3134.909;-30275.84;-1.305895;-0.5207261;-26912.29;-16699.79;0.1458166;-0.2016061;0;
-8635.688;-3965.78;2040.682;-14655.51;-3.246966;1.891061;-10049.21;-2626.842;0.2756048;-0.2663709;0;
-9275.795;-4729.987;620.8759;-15305.4;-1.970906;3.764683;-10794;-1973.608;0.6001645;-0.3310706;0;
3562.858;3001.116;409.9827;488.3904;-6.054762;2.488224;3389.301;2262.669;0.2747248;0.1890008;0;
21269.34;16714.63;1242.433;24783.75;-7.924689;2.686673;22674.29;13494.7;-0.24529;0.1888109;0;
20606.5;16272.11;1937.304;26395.9;0.9918821;2.884922;22142.13;13759.92;-0.1151089;0.1236539;0;
17365.93;13248.74;3131.475;22669.71;3.06699;2.949006;18721.85;10621.34;-0.3748626;0.383399;0;
18601.97;14021.69;4577.35;24325.52;-2.160028;-3.953016;20144.35;11193.02;-0.3744859;0.1231444;0;
9606.981;7197.397;4713.742;12770.04;-1.756692;-7.164164;10142.34;5561.688;0.2755638;0.05805329;0;
-20300.86;-16715.38;3842.566;-21621.07;-2.625583;-3.874862;-21479.23;-13275.7;0.1453522;0.1229623;0;
-25281.56;-19888.15;3046.229;-30078.91;-3.559974;-5.009679;-26729.28;-16415.37;0.08023884;-0.007095936;0;
-8502.391;-3683.712;1938.504;-14518.13;1.199025;-8.82255;-9921.041;-2547.729;0.3400276;-0.1370235;0;
-8142.789;-3771.683;530.763;-14242.85;1.934755;-10.82317;-9645.83;-1495.571;-0.05011813;-0.07191847;0;
4478.037;3506.45;298.3775;1464.888;1.329598;-9.137725;4404.492;2565.594;-0.5698065;-0.0718462;0;
21172.32;16519.57;1095.521;24764.36;1.997848;-9.932339;22622.59;13333.48;-0.4392993;-0.07177401;0;
20417.07;16134.33;1790.476;26194.38;-0.1476136;-10.32426;21932;13625.11;-0.04905381;-0.2666039;0;
17117.08;12974.98;2967.022;22447.78;-0.01276734;-9.309138;18479.04;10353.25;-0.04900452;-0.461238;0;
18244.66;13677.22;4389.949;23963.89;-3.763799;-17.00264;19781.34;10858.13;-0.1139226;-0.07097055;0;
9273.999;6913.623;4545.864;12322.4;-6.506683;-18.39219;9778.233;5286.3;-0.3087102;0.1240028;0;
-20926.61;-17292.63;3699.376;-22304.41;5.155129;-15.02463;-22117.99;-13830.06;-0.3084;-0.07102384;0;
-25794.56;-20393.95;2924.109;-30573.01;8.766295;-15.81333;-27226.26;-16946.59;0.0167466;-0.1359198;0;
-8282.093;-3499.097;1848.147;-14317.41;-3.432675;-6.754926;-9687.565;-2501.926;0.08169712;0.1240861;0;
-7813.471;-3404.174;446.1505;-13936.93;-4.702023;-3.33207;-9357.539;-1244.245;-0.04831965;0.2538961;0;
4387.985;3549.721;191.2052;1362.722;-0.8125324;-8.486285;4245.202;2598.043;-0.3081405;0.1237063;0;
21093.96;16498.88;976.8055;24680.57;-2.419306;-8.075922;22525.29;13319.21;-0.2428635;0.05861468;0;
20364.56;16057.25;1654.233;26161.78;5.553728;-6.259268;21890.58;13548.37;0.08221723;-0.1363462;0;
16936.56;12812.33;2818.579;22272.21;7.625228;-6.319962;18295.67;10198.15;0.147102;-0.3960786;0;
18210.47;13641.27;4260.551;23926.16;2.995866;-7.184389;19751.88;10827.84;0.08198681;-0.4606479;0;
9293.564;6909.422;4417.064;12388.02;4.867889;-7.110188;9825.025;5279.81;-0.1129976;-0.2652831;0;
-20807.93;-17164.86;3565.802;-22143.7;-4.916266;-10.38515;-21968.15;-13696.74;-0.2428187;0.05982019;0;
-25325.68;-20029.09;2801.258;-30117.82;-7.456921;-10.84359;-26751.19;-16619.52;-0.1776074;0.1247274;0;
-8065.799;-3424.813;1703.899;-14124.66;1.459179;-10.63175;-9493.163;-2444.841;-0.2423963;0.05963475;0;
-7866.806;-3599.782;279.3401;-13955.16;2.128275;-11.15687;-9388.11;-1331.958;-0.04725071;-0.07035985;0;
4663.055;3583.695;32.05855;1755.71;7.483795;-3.710733;4599.25;2698.777;-0.3720399;-0.2002238;0;
21243.96;16569.03;810.3851;24897.77;10.29029;-0.8937828;22702.57;13377.65;-0.4366334;0.1248141;0;
20280.93;16022.87;1480.421;26057.03;12.28871;-2.500475;21793.93;13526.7;0.08354402;0.4495254;0;
17010.8;12867.86;2654.78;22332.78;15.62526;-1.158304;18371.25;10252.05;-0.111442;0.514041;0;
18209.63;13649.16;4091.295;23929.19;8.375892;1.187141;19744.8;10843.04;-0.306232;0.5784919;0;
9391.321;7001.889;4247.791;12493.83;6.022951;2.056726;9906.97;5356.161;-0.04605493;0.4479759;0;
-20555.29;-16949.22;3405.663;-21905.3;13.11685;2.322591;-21747.84;-13515.13;0.1488934;-0.1371803;0;
-25501.37;-20122.09;2637.375;-30305.59;11.89822;2.990087;-26942.23;-16667.14;0.08377641;0.1228269;0;
-8050.816;-3286.461;1561.046;-14126.55;11.68519;-2.37143;-9462.898;-2415.193;-0.1112098;0.2526382;0;
-7380.013;-3064.878;161.2117;-13554.81;12.54411;-4.981321;-8936.962;-1044.611;0.2137387;-0.0724524;0;
4640.379;3642.816;-87.88763;1620.521;-3.945567;0.4492407;4506.718;2701.041;0.2135239;0.2524571;0;
21027.18;16405.39;701.9287;24622;-9.63503;0.6497381;22465.18;13236.03;-0.241462;0.05730141;0;
20298.53;16018.07;1371.543;26082.53;-0.7167408;-3.235864;21817.34;13516.18;-0.04631739;-0.2675929;0;
16883.72;12753.45;2520.305;22207.23;-1.251884;-3.433561;18238.38;10144.35;0.08366383;0.05751271;0;
18113.28;13554.94;3953.208;23830.46;-3.527802;-4.970718;19650.16;10746.24;-0.1762896;0.1224223;0;
9354.617;6991.005;4116.058;12526.48;-3.122116;-5.166673;9904.866;5378.069;-0.04617778;0.252234;0;
-20771.47;-17097.41;3267.784;-22068.47;0.1625752;-5.764266;-21930.99;-13614.54;0.1487706;0.3169478;0;
-25557.17;-20261.9;2492.263;-30375.58;2.77438;-7.366065;-27015.95;-16808.45;0.01868647;0.1217273;0;
-7775.54;-3151.71;1407.272;-13892.41;-0.8447538;3.224396;-9224.487;-2410.948;-0.1762343;0.05663768;0;
-7077.761;-2861.469;8.560345;-13247.83;-1.648188;6.838112;-8646.083;-998.5618;-0.1110899;-0.07335391;0;
4901.458;3732.874;-224.9871;2015.991;10.81205;-3.148972;4772.802;2769.876;-0.240913;0.05665448;0;
21153.64;16468.92;575.5867;24840.88;15.28916;-3.68161;22592.55;13318.12;-0.3056382;0.1865322;0;
20340.8;16095.71;1262.756;26108.74;2.614149;-1.869433;21858.91;13586.59;-0.1753964;0.3162795;0;
17061.39;12916.6;2448.047;22366.38;0.4680684;-2.537384;18412.26;10317.05;-0.1752202;0.5108637;0;
18403.69;13855.17;3926.656;24122.01;7.433823;-1.061209;19940.88;11051.77;-0.1100768;0.3804157;0;
9768.06;7301.254;4119.705;13026.46;7.024212;-1.194109;10333.48;5650.348;0.1499032;0.05519676;0;
-20559.66;-17032.67;3267.335;-21752.69;6.548639;-0.7240286;-21706.18;-13594.58;0.2147199;-0.2047281;0;
-25862.07;-20469.04;2490.504;-30614.85;7.077923;-0.7902841;-27298.81;-16977.87;0.08456945;-0.3994244;0;
-8205.854;-3429.022;1424.817;-14262.18;-0.4976504;-0.3206095;-9626.813;-2543.213;-0.4352542;0.05574835;0;
-7408.771;-3087.778;30.39791;-13551.06;-3.578609;0.2825591;-8952.49;-1096.134;-0.3698496;0.6403984;0;
4617.726;3615.457;-220.1629;1741.845;2.654277;-3.267759;4526.188;2668.044;0.2152281;0.3798856;0;
21049.31;16419.4;565.2573;24726.99;2.316818;-3.733356;22506.6;13264.08;-0.3047269;-0.1402349;0;
20290.42;16022.49;1236.789;26048.03;1.912348;-4.06452;21806.06;13526.38;-0.2394533;-0.2700287;0;
16862.17;12735.92;2402.647;22186.7;3.384295;-4.864231;18222.22;10143.16;0.4104607;-0.1398226;0;
18188.73;13638.33;3865.496;23910.71;-3.58533;-1.175343;19727.54;10845.51;-0.1096905;0.3150893;0;
9691.627;7241.824;4031.777;12922.51;-4.051219;-0.3703668;10234.8;5594.062;0.08532176;0.184838;0;
-20549.2;-17000.96;3156.414;-21751.68;-1.970067;-0.9058581;-21707.62;-13558.97;0.4750401;-0.4000538;0;
-25903.67;-20506.88;2366.637;-30641.34;-2.30288;-0.770982;-27328.86;-16977.66;-0.1751107;-0.009847813;0;
-8440.661;-3641.091;1270.653;-14487.06;5.670037;0.7702781;-9845.189;-2625.404;-0.4348041;0.3149988;0;
-7691.24;-3375.049;-139.0097;-13802.74;7.674071;1.506316;-9196.493;-1245.567;-0.3044325;-0.07512177;0;
4591.552;3546.693;-375.5635;1754.196;10.74684;-4.590461;4543.58;2636.859;-0.4340613;-0.204981;0;
21061.81;16422.25;423.2563;24743.96;13.54908;-7.131139;22523.51;13267.22;0.02114626;-0.204775;0;
20253.22;15997.16;1123.916;26021.16;6.837665;-2.904171;21770.71;13507.83;0.605831;-0.1396019;0;
17083.94;12953.39;2335.115;22367.01;5.290553;-3.437055;18440.97;10369.17;0.345353;0.05544039;0;
18547.06;14004.6;3817.553;24285.77;6.825478;-6.447773;20088.13;11209.34;0.08513659;-0.1395173;0;
10163.19;7630.272;3979.759;13687.11;5.880615;-6.642242;10805.23;5983.915;0.3449204;-0.1393771;0;
-20273.76;-16845.1;3082.615;-21235.97;0.918213;-11.39123;-21348.22;-13422.03;0.3445738;0.1855996;0;
-26553.66;-21037.55;2251.778;-31318.79;-0.622951;-12.78643;-28006.96;-17395.28;0.0193909;-0.009488913;0;
-9501.726;-4512.164;1150.411;-15510.39;-0.2875324;-7.482053;-10905.14;-3049.688;0.2142734;-0.1394141;0;
-8405.599;-3975.445;-235.7983;-14513.88;0.0475491;-5.398125;-9900.444;-1484.081;0.7337968;-0.07430664;0;
4150.321;3249.295;-466.3516;1043.972;0.4496429;-6.598332;4044.89;2358.932;0.3432555;-0.009264631;0;
20905.41;16294.52;341.7423;24417.47;1.051427;-4.91719;22342.81;13128.63;-0.1768281;-0.13919;0;
20140.58;15868.15;1027.741;25919.84;8.619808;-1.69713;21657.45;13393.47;0.1481863;-0.3989195;0;
16656.21;12537.57;2191.217;21978.31;10.88832;-1.36051;18014.13;9939.931;0.277972;-0.008714627;0;
17996.51;13446.42;3670.739;23706.04;14.22628;8.420121;19533.19;10663.51;-0.04714398;0.5110329;0;
9549.365;7133.871;3867.794;12722.44;16.02065;11.29181;10072.88;5486.597;0.08283807;0.3156174;0;
-21138.09;-17595.82;2994.782;-22367.49;12.18714;5.386205;-22314.14;-14153.69;0.2776569;-0.2044385;0;
-27185.83;-21628.98;2191.612;-31882.53;10.70102;5.983517;-28619.57;-17948.29;-0.04745884;-0.5940371;0;
-9493.113;-4425.401;1112.701;-15491.6;7.67616;-3.801698;-10884.98;-3035.284;-0.2423132;-0.1386689;0;
-8412.691;-3898.811;-273.0332;-14536.05;6.12723;-7.28093;-9908.232;-1454.887;-0.112135;0.6410786;0;
3932.451;3117.332;-487.7601;877.4722;-3.658191;-6.603785;3827.527;2294.035;-0.3069244;0.380565;0;
20822.6;16253.3;349.6374;24356.21;-6.467555;-9.477354;22251.59;13095.89;-0.4365506;0.1852806;0;
20092.96;15803.15;1049.372;25889.14;-8.001297;-4.176301;21617.29;13315.43;-0.3061773;0.1850945;0;
16724.03;12616.24;2234.409;22025.54;-10.27043;-4.306071;18076.77;10041.27;-0.2409023;-0.1399282;0;
18284.51;13742.54;3737.251;23996.78;2.935402;-2.158351;19825.5;10944.8;0.08417644;-0.07482029;0;
10094.87;7581.135;3937.455;13430.14;6.817219;-1.017473;10674.56;5935.25;0.3439612;0.1851243;0;
-20394.39;-16933.13;3064.186;-21509.55;9.890851;-2.958956;-21534.49;-13522.36;0.2786483;0.05500355;0;
-26776.57;-21284.22;2264.07;-31487.52;13.69931;-2.018221;-28221.58;-17601.79;0.4732703;-0.2049211;0;
-9882.425;-4950.563;1177.278;-15830.58;17.97245;-8.781286;-11266.56;-3253.122;0.5377621;-0.07478049;0;
-9032.011;-4562.954;-213.4253;-15146.36;22.30767;-9.978156;-10512.16;-1848.401;0.08245037;0.3150987;0;
3879.407;3045.793;-429.1492;748.3726;14.85052;-10.57098;3763.892;2189.146;0.2123022;0.2498148;0;
20962.51;16352.93;388.1371;24469.67;15.7736;-11.89995;22375.04;13193.26;0.3420236;-0.270175;0;
20149.87;15873.64;1075.37;25945.14;10.93498;-6.127584;21680.52;13410.81;-0.1780588;-0.3998382;0;
16777.4;12670;2246.482;22063.22;7.77616;-5.384676;18131.36;10075.6;-0.3078146;-0.2695018;0;
18061.26;13512.4;3724.48;23783.76;19.82479;-2.298112;19601.54;10748.82;-0.04763595;-0.07432895;0;
9998.921;7509.332;3924.635;13384.01;20.34073;-1.893905;10632.46;5823.063;0.2772486;-0.1392216;0;
-20170.14;-16697.3;3051.035;-21259.59;24.13771;-0.2174289;-21265.29;-13288.95;0.01710068;-0.2040491;0;
-26630.66;-21150.54;2240.688;-31362.28;25.85574;-0.3511763;-28064.02;-17526.96;-0.5676226;-0.008942001;0;
-8989.35;-4069.099;1164.164;-15077.86;19.06461;-6.580114;-10391.74;-2991.49;-0.1122808;-0.07390036;0;
-7467.468;-3157.685;-224.0585;-13671.71;16.70093;-7.645229;-9003.02;-1086.471;0.277636;0.1860433;0;
4540.612;3505.593;-460.6363;1597.691;14.33962;-20.23003;4441.148;2562.553;-0.112447;0.4457257;0;
20979.29;16371.1;353.4645;24601.52;12.18176;-24.02761;22428.41;13237.06;-0.307236;-0.1394282;0;
20308.83;16052.32;1043.887;26075.8;-0.1553404;-24.80726;21831.04;13567.72;0.2128114;-0.009353467;0;
16864.8;12745.44;2202.037;22152.59;-5.17805;-27.52858;18217.62;10176.22;0.6024016;0.05562327;0;
18141;13616.61;3684.672;23879.45;2.529336;-14.97541;19684.57;10837.61;0.08205761;-0.0743673;0;
10525.34;7928.748;3918.194;14116.18;6.211466;-11.61128;11213.29;6208.556;0.2119098;0.7053155;0;
-19210.2;-15846.04;3062.154;-20082.7;-0.09141523;-6.843946;-20247.86;-12497.72;0.2766643;0.5097048;0;
-26160.97;-20656.6;2234.179;-30831.17;4.195584;-2.885137;-27614.34;-17005.53;-0.5032218;0.1193886;0;
-9801.63;-4859.161;1144.168;-15713.55;7.808691;0.6677963;-11203.85;-3265.186;-0.3727815;0.3141707;0;
-9013.329;-4503.377;-238.5369;-15055.9;5.657391;4.618996;-10487.21;-1766.407;-0.04757024;-0.07594907;0;
3698.67;2934.755;-459.7952;626.6819;53.07416;-6.10267;3629.94;2164.019;-0.3073918;-0.1408401;0;
21014.19;16430.91;369.2347;24478.06;66.55114;-8.708812;22450.72;13273.24;-0.1121809;0.2491055;0;
20396.67;16116.22;1064.108;26171.68;44.64856;-6.891582;21921.32;13655.04;-0.1770355;-0.01101421;0;
17037.63;12935.48;2240.041;22305.11;48.08632;-9.02805;18393.21;10359.5;-0.241825;-0.1409378;0;
18487.79;13956.15;3750.374;24211.37;22.91977;-11.29634;20030.31;11195.46;-0.3065493;-0.07582887;0;
10952.04;8299.541;3974.428;14667.05;13.85441;-12.95956;11670.81;6545.212;-0.6960453;-0.01078533;0;
-18766.8;-15461.84;3084.474;-19517.8;11.36225;-13.81726;-19774.05;-12145.86;-0.5004439;0.1841275;0;
-25939.59;-20439.59;2251.667;-30578.87;2.442221;-15.54487;-27379.46;-16799.52;0.1497323;0.05400784;0;
-9548.784;-4656.51;1178.692;-15491.61;9.138548;-8.831138;-10933.76;-3240.412;0.2795165;0.05395357;0;
-8744.979;-4235.619;-213.012;-14825.36;5.310973;-6.544906;-10233;-1701.209;0.149301;0.5736381;0;
3675.912;3016.026;-453.7706;666.4924;18.50115;-14.30817;3569.615;2199.353;-0.3705877;0.5730617;0;
21018.38;16467.86;373.8945;24565.06;23.7065;-15.29853;22446.18;13307.87;-0.2402807;0.1177145;0;
20374.46;16081.06;1046.243;26144.04;15.77942;-13.13971;21897.36;13623.44;0.2147321;0.1175962;0;
16877.33;12797.39;2186.712;22153.84;20.38527;-14.3322;18228.63;10214.46;-0.3701897;0.1174781;0;
18222.82;13679.8;3673.735;23946.82;7.504063;-10.16498;19764.2;10920.98;-0.3048504;-0.4023787;0;
10445.07;7889.298;3897.773;13937.63;4.750833;-8.346224;11097.59;6158.611;0.475064;-0.1421051;0;
-18787.11;-15376.69;3057.589;-19833.87;15.46235;-17.44733;-19883.44;-12033.61;0.344652;0.3777765;0;
-25534.29;-20098.92;2256.668;-30222.72;13.57178;-18.83638;-26992.63;-16477.86;0.214371;0.1824949;0;
-8833.76;-3927.107;1187.968;-14861.68;29.03084;-14.99955;-10265.92;-2936.502;0.3440903;0.3122462;0;
-6826.357;-2700.667;-168.8884;-13011.09;33.69072;-14.58258;-8357.214;-769.3737;0.01890782;0.1819977;0;
5215.046;3833.873;-420.7794;2485.416;19.45599;-14.90284;5185.287;2855.156;-0.4358826;-0.1430219;0;
21006.27;16328.86;350.9744;24776.85;17.82885;-15.6916;22481.08;13209.53;-0.2405426;0.05202389;0;
20265.53;16060.58;1022.347;25980.61;14.52938;-7.303214;21764.52;13583.75;-0.1753335;0.2468736;0;
16809.69;12679.03;2172.74;22099.72;12.23761;-5.420353;18161.35;10106.71;-0.305092;0.05172355;0;
17990.82;13484.06;3657.435;23720.23;4.856946;-8.49606;19527.74;10719.07;0.1499859;-0.3381325;0;
10503.59;7892.178;3889.766;13937.18;1.770607;-7.214909;11151.25;6152.569;0.2797699;-0.07792334;0;
-18868.83;-15503.36;3029.726;-19937.9;2.573112;-16.85296;-19956.1;-12184.87;0.1495541;0.3769264;0;
-25786.26;-20299.53;2223.429;-30486.83;0.02493061;-19.64925;-27245.52;-16758.37;-0.0454982;-0.01325644;0;
-8855.798;-3963.319;1173.753;-14854.45;14.76066;-17.21818;-10268.85;-2997.092;-0.3702892;-0.3380798;0;
-7136.4;-2851.613;-192.7093;-13343.62;18.89902;-18.94237;-8663.848;-888.7952;-0.2399824;-0.01290342;0;
4731.964;3649.502;-431.4893;1802.199;17.94202;-14.63655;4643.876;2668.076;-0.1098066;0.3769136;0;
21011.04;16387.3;376.6945;24645.89;22.74677;-13.34917;22455.97;13265.32;0.08520573;0.2466002;0;
20372.96;16137.44;1043.731;26107.47;14.55223;-13.53671;21888.39;13671.09;0.2150548;-0.1434516;0;
16793.63;12688.83;2173.832;22069.68;15.60934;-11.78161;18138.94;10120.27;0.1498714;-0.2082748;0;
17974.19;13455.45;3648.562;23693.24;16.39794;-11.56882;19511.51;10692.72;0.2146881;-0.01316354;0;
10491.4;7877.368;3878.591;13963.75;16.31411;-10.28452;11162.58;6168.303;0.01957038;0.3116864;0;
-18575.18;-15242.93;3031.523;-19620;23.1966;-8.666658;-19658.23;-11876.98;-0.1753513;0.2464059;0;
-25609.92;-20101.2;2216.667;-30282.16;23.24064;-7.452318;-27067.04;-16452.32;-0.3700771;-0.07867843;0;
-9441.211;-4426.054;1133.389;-15422.73;35.34107;-5.770257;-10842.95;-3164.243;-0.304738;-0.01363203;0;
-7623.977;-3418.532;-229.6279;-13807.86;38.58712;-4.558827;-9125.789;-1166.769;-0.2394644;0.1163164;0;
4878.793;3585.165;-469.5577;2051.545;33.92664;-3.9514;4844.644;2672.631;-0.1742564;0.1161995;0;
21034.14;16378.44;298.9031;24732.05;35.16535;-3.076652;22500.6;13252.53;-0.04414667;-0.01385197;0;
20269.51;16060.12;952.7739;25990.52;20.86278;-2.336809;21772.22;13599.3;-0.3039717;0.1160966;0;
16770.33;12650.8;2081.967;22055.15;16.75598;-1.798597;18120.56;10085.8;-0.2386989;0.505784;0;
17922.9;13419.99;3559.069;23656.18;11.44785;-0.7250632;19459.86;10664.64;-0.1085244;0.5702432;0;
10641.11;8006.425;3814.269;14166.56;5.675574;0.1464434;11313.66;6264.221;0.0864867;0.04993144;0;
-18677.93;-15369.87;2955.71;-19645.6;14.77955;0.4812109;-19738.94;-12047;0.3462692;-0.2749555;0;
-26115.2;-20571.03;2119.909;-30771.97;14.09511;1.820264;-27565.1;-16887.08;0.02108452;-0.07977714;0;
-9850.743;-4835.584;1053.876;-15780.17;17.69827;-1.463607;-11241.04;-3361.713;0.08603068;-0.1446643;0;
-8340.725;-3951.121;-308.405;-14504.74;19.82297;-2.667768;-9870.964;-1419.7;0.2158789;-0.2744536;0;
4102.469;3160.636;-533.6693;1099.811;15.51712;4.903801;3960.429;2351.909;-0.174142;-0.3391452;0;
20876.43;16298.03;281.6449;24460.67;15.5679;5.702669;22301.03;13161.86;-0.3688691;-0.5986738;0;
20277.34;16029.04;962.8943;26019.67;12.33708;6.031854;21801.51;13574.84;-0.1735964;-0.2082682;0;
16727.66;12633.67;2118.783;21998.28;10.18123;6.963432;18074.6;10076.03;-0.1084547;0.05181043;0;
17875.51;13360.26;3605.218;23614.35;10.90793;0.7272662;19415.42;10603.83;-0.3032477;-0.1431437;0;
10535.03;7903.663;3836.259;14033.71;10.8306;-1.349935;11193.71;6173.752;-0.1730083;0.1818369;0;
-18672.39;-15382.94;2975.085;-19695.66;1.441616;-3.157057;-19748.51;-12053.12;-0.1728345;0.3765562;0;
-26306.97;-20706.28;2131.831;-30925.79;-1.908736;-5.699175;-27742.18;-16960.65;-0.3025955;0.1163085;0;
-10491.77;-5322.682;1021.621;-16354.33;7.470305;-5.425517;-11866.38;-3639.51;0.0875126;-0.2086451;0;
-8764.235;-4395.36;-353.6215;-14881.66;8.869318;-5.955929;-10233.45;-1734.512;-0.04251001;-0.07850078;0;
4159.985;3082.409;-556.9606;1194.629;7.521235;-9.96886;4108.164;2242.764;-0.4972387;0.4413168;0;
20841.59;16230.12;273.4475;24437.03;8.451683;-10.82956;22294.08;13093.43;0.1529344;0.4408734;0;
20107.29;15880.11;953.5807;25838.66;12.19423;-9.211149;21620.69;13436.69;0.217748;0.2455284;0;
16566.35;12464.13;2087.771;21849.85;14.19074;-10.00563;17917.48;9904.925;-0.3022095;0.115347;0;
17674.13;13168.01;3568.49;23402.37;11.83293;-2.493668;19214.58;10416.49;0.08789821;0.2451658;0;
10372.87;7773.903;3814.56;13786.19;12.49063;-0.4147529;11013.84;6054.915;0.4126466;0.5697562;0;
-19094.26;-15782.52;2951.315;-20143.62;10.0662;-3.49549;-20177.17;-12448.87;0.08739526;0.1144123;0;
-26970.56;-21304.32;2098.246;-31581.13;8.917988;-2.688183;-28409.14;-17475.1;-0.04262724;-0.4054414;0;
-11190.8;-5960.006;993.6919;-16987.88;10.78406;-9.919517;-12546.6;-3996.24;-0.1725191;-0.2750994;0;
-9834.572;-5227.445;-380.9598;-15953.47;9.434054;-13.25857;-11307.64;-2327.999;-0.3022804;-0.274823;0;
3213.303;2540.109;-594.2509;-103.4172;11.83547;-9.159414;3053.871;1752.962;-0.3019767;-0.07964478;0;
20633.79;16119.37;237.9282;23983.22;11.28772;-10.22188;22027.48;12979.56;-0.3016733;0.3102393;0;
20075.13;15801.39;923.7193;25839.08;10.272;-12.95784;21604.54;13353.79;-0.3013701;0.1150256;0;
16424.3;12347.94;2069.808;21697.42;10.93126;-12.87784;17765.9;9789.703;-0.1711326;-0.1449594;0;
17686.94;13172.05;3563.695;23384.4;1.274735;-18.75928;19222.17;10410.75;-0.041026;-0.5995851;0;
10134.38;7580.87;3801.025;13449.72;-0.8699998;-20.81684;10723.9;5895.071;0.0889499;-0.274146;0;
-19846.13;-16477.42;2939.137;-20990.32;0.6720918;-11.15062;-20985.2;-13153.19;0.2187952;0.1809009;0;
-27546.73;-21842.07;2114.44;-32172.44;-0.3339375;-8.192231;-28979.83;-17997.72;0.08864068;-0.1441176;0;
-11707.97;-6434.59;1017.429;-17534.27;4.020655;-9.724607;-13083.9;-4222.813;-0.04138307;0.2458313;0;
-10478.75;-5850.899;-358.5901;-16577.42;4.351408;-6.700665;-11929.6;-2804.795;-0.3012109;-0.01428511;0;
3113.104;2433.678;-557.9107;-117.3413;13.79151;-7.765598;3059.955;1590.659;-0.4308429;-0.4040748;0;
20699.13;16167.75;272.7639;24109.18;18.332;-7.556847;22127.87;13036.65;-0.04060592;0.0511026;0;
19945.36;15670.18;962.5804;25699.17;11.28098;2.430898;21456.92;13229.24;0.2842716;-0.01391609;0;
16404.18;12336.12;2119.469;21672.77;12.87724;5.241739;17750.24;9767.216;0.08908393;0.375902;0;
17521.57;13005.26;3607.371;23218.03;8.37632;3.093018;19053.88;10264.05;-0.1059076;0.505459;0;
9996.485;7408.092;3861.242;13196.2;6.358171;4.362586;10607.02;5699.748;0.2190355;-0.1447224;0;
-19482.4;-16149.7;3030.403;-20747.01;12.04521;0.6742634;-20603.55;-12801.54;0.2837828;-0.4044463;0;
-26945.3;-21326.38;2221.607;-31629.98;10.76031;0.07073948;-28398.23;-17514.88;-0.04133908;-0.3390726;0;
-11022.82;-5867.944;1143.384;-16920.7;15.30482;-3.747298;-12410.66;-3909.315;0.2185718;-0.01389519;0;
-9929.729;-5359.973;-219.8612;-16075.47;15.69159;-6.891669;-11420.79;-2409.093;0.02345018;0.05108611;0;
3122.176;2397.673;-415.8229;-185.6277;11.45529;-0.5884708;3002.117;1648.587;-0.04154073;-0.07889991;0;
20590.59;16047.2;428.2021;23915.76;11.04261;-0.7218454;22003.17;12904.74;0.4132724;-0.01385328;0;
20028.09;15769.36;1126.92;25781.65;2.725143;-3.199428;21545.36;13322.07;0.3478898;-0.143774;0;
16460.09;12386.69;2283.769;21720.88;0.177785;-3.59811;17802.16;9827.062;0.08767088;-0.0136949;0;
17601.6;13091.53;3783.875;23303.66;-0.8941205;-7.211512;19137.16;10346.61;0.02261544;0.1812209;0;
10159.77;7601.672;4055.84;13457.38;-1.764854;-9.14671;10763.95;5896.351;0.1525274;-0.07883057;0;
-19499.26;-16129.76;3232.958;-20664.88;-2.833832;-9.740366;-20630.49;-12798.63;0.02243946;0.05118332;0;
-27196.18;-21552.38;2427.519;-31813.26;-4.103782;-11.47207;-28649.88;-17700.8;-0.4323545;0.1810666;0;
-11351.75;-6172.492;1350.557;-17197.87;8.358923;-13.53696;-12732.31;-4120.303;-0.3019854;0.1159173;0;
-10342.25;-5722.825;-21.73563;-16436.62;10.89514;-14.92994;-11817.81;-2684.632;0.02315478;0.1158008;0;
2973.715;2297.084;-227.2043;-220.8572;18.11884;-18.93385;2858.829;1594.884;-0.1068032;0.05071713;0;
20698.68;16164.48;609.1975;24101.92;24.86579;-21.66106;22104.23;13029.55;-0.2366305;0.05066616;0;
19983.07;15719.9;1295.303;25739.91;4.946507;-18.02228;21502.11;13275.4;-0.04149074;-0.01435209;0;
16397.44;12329.1;2443.611;21665.4;1.458912;-18.33909;17739.06;9771.055;0.02351828;-0.1442723;0;
17483.96;12974.3;3931.656;23198.91;7.419293;-20.2631;19016.26;10233.26;0.02349465;-0.2090947;0;
10112.57;7534.76;4192.76;13462.01;3.593445;-19.70694;10747.19;5811.325;0.08843838;-0.273852;0;
-19128.85;-15771.29;3366.616;-20262.71;14.23975;-24.71074;-20223.66;-12449.62;0.02338218;0.05125991;0;
-26741.01;-21111.22;2544.239;-31377.89;17.57435;-25.75757;-28186.37;-17304.51;0.1532934;0.1811431;0;
-11056.66;-5912.711;1439.986;-16920.94;3.424145;-23.52132;-12434.46;-4006.529;0.3480414;-0.208843;0;
-10252.09;-5605.718;43.70936;-16329.93;3.219634;-23.8326;-11719.13;-2615.919;-0.0421124;-0.1436658;0;
2877.715;2258.371;-167.1661;-255.0027;1.809879;-19.52186;2776.088;1594.079;-0.5618088;-0.01358675;0;
20717.04;16195.39;680.8882;24119.55;-0.06794963;-18.36354;22123.01;13056.26;-0.496277;0.1163616;0;
20092;15823.66;1350.711;25833.86;10.51567;-16.87152;21609.67;13379.72;-0.1059743;0.181212;0;
16470.88;12407.06;2466.386;21708.95;10.90724;-14.97905;17812.88;9846.205;0.2189689;0.05109524;0;
17750.62;13248.85;3970.869;23454.39;20.13968;-19.31783;19285.46;10520.8;-0.1060878;-0.2737928;0;
10707.32;8069.401;4263.792;14309.51;24.20528;-19.70025;11397.31;6285.239;-0.3008832;-0.4034524;0;
-18737.52;-15444.63;3431.33;-19641.42;12.99518;-19.21164;-19784.3;-12174.36;-0.1706462;-0.403047;0;
-26564.34;-20959.2;2623.506;-31222.5;12.91477;-19.59417;-28016.26;-17198.93;-0.3653768;-0.2727073;0;
-10428.31;-5347.979;1558.622;-16309.67;1.983454;-17.02919;-11806.88;-3739.356;-0.1051403;-0.07753129;0;
-9737.035;-5119.905;165.5368;-15799.32;-3.711966;-15.40455;-11215.5;-2317.608;0.3497368;0.1174487;0;
2847.896;2242.167;-68.51192;-261.5868;5.669862;-16.92968;2725.069;1643.247;0.1544833;0.05236329;0;
20668.9;16146.86;754.8931;24123.73;5.931609;-15.77396;22077.93;13010.47;-0.1055413;-0.01265667;0;
20105.85;15839.28;1415.208;25840.66;1.303949;-13.41377;21623.98;13393.53;0.02449947;0.3121928;0;
16422.78;12357.05;2515.982;21683.74;1.235289;-13.40029;17764.82;9810.039;0.4792462;-0.07792498;0;
17402.36;12901.3;3967.598;23120.68;7.999202;-4.411295;18935.7;10166.7;0.543732;-0.5975854;0;
10288.39;7684.457;4223.388;13658.42;10.60411;-2.330453;10940.2;5932.374;0.1533816;0.05268846;0;
-18571.4;-15206.53;3398.619;-19676.18;8.784793;-3.131907;-19646.83;-11872.8;0.08826018;0.5723743;0;
-25788.4;-20317.64;2585.173;-30519.93;8.10638;-0.5834692;-27234.36;-16679.44;-0.04176319;0.3119298;0;
-9707.399;-4905.196;1488.688;-15688.05;17.60908;-12.70649;-11089.08;-3652.162;-0.04172122;0.246649;0;
-9920.955;-5221.184;47.57225;-15974.21;20.40442;-14.70315;-11373.6;-2601.581;0.2181901;0.4413032;0;
2276.731;1900.813;-240.4246;-959.8547;9.198139;-15.09027;2203.492;1330.292;-0.3667352;0.5058271;0;
20607.63;16116.08;570.7844;23858.24;8.58666;-17.95531;22024.14;12985.58;-0.6262361;0.1804821;0;
20242.65;15963.18;1229.317;25995.81;1.410736;-5.478752;21758.2;13510.81;0.02406654;-0.2744706;0;
16556.07;12498.08;2312.599;21788.42;-1.738513;-2.660025;17892.94;9957.935;0.4138464;-0.3391622;0;
17828.02;13338.23;3791.812;23523.34;2.080651;-2.054506;19360.54;10604.41;0.2834959;-0.01398466;0;
11090.35;8310.316;4081.354;14742.62;-0.5334079;1.028713;11796.91;6488.804;0.1532764;0.1809314;0;
-17906.57;-14749.45;3231.304;-18746.69;13.3986;0.2908666;-18953.07;-11532.47;0.3480244;0.3106843;0;
-25455.99;-20046.05;2400.754;-30204.34;17.13618;2.500889;-26932.66;-16419.71;0.412642;0.1804374;0;
-9745.861;-5107.11;1310.232;-15728.36;10.88967;-0.5157338;-11122.92;-3609.965;0.02242333;0.1802561;0;
-10616.94;-5871.045;-149.1949;-16665.11;12.55367;-0.1803009;-12102.47;-2913.014;-0.1075339;0.2450424;0;
1650.241;1566.322;-418.6595;-1710.759;7.651913;1.159539;1465.3;1105.301;0.02250885;-0.2099753;0;
20528.4;16093.82;439.0178;23718.71;7.844319;1.426306;21900.63;12943.35;-0.1724158;-0.4696336;0;
20157.27;15846.86;1109.833;25909.28;2.545152;5.644675;21682.65;13406.71;-0.04230786;-0.144325;0;
16409.98;12376.72;2217.036;21647.09;0.8012821;6.509781;17744.25;9827.487;0.08766934;-0.07921268;0;
17637.93;13128.07;3704.122;23329.38;6.828697;12.26365;19168.2;10397.4;0.3474506;0.1157689;0;
10525.47;7866.751;3965.454;14001.35;6.419694;14.66259;11189.22;6100.419;0.4120688;0.2455873;0;
-18424.99;-15129.19;3124.141;-19473.45;16.05879;10.56202;-19506.32;-11816.58;-0.1730513;-0.07949618;0;
-25649.03;-20218.11;2314.126;-30380.25;17.31545;9.948563;-27108.12;-16574.66;-0.4327468;0.1154857;0;
-9485.24;-4708.801;1233.78;-15445.78;24.86651;8.263993;-10869.66;-3497.707;-0.3023773;0.05040234;0;
-9331.563;-4814.201;-185.6843;-15402.55;30.46858;6.313306;-10814.05;-2224.096;-0.1071714;-0.2095177;0;
2874.979;2202.19;-427.9384;-269.1284;6.190386;3.828594;2758.182;1637.933;-0.2369984;0.1155296;0;
20669.69;16097.98;421.19;24068.61;1.361395;2.284139;22082.01;12955.8;-0.3017276;0.3103155;0;
20122.31;15893.22;1103.642;25848.16;5.111071;-4.215256;21632.14;13453.12;0.08837961;0.1151017;0;
16428.78;12358.26;2212.757;21679.4;2.426618;-7.560106;17764.75;9814.424;-0.04164387;-0.274818;0;
17347.6;12855.41;3677.514;23064.06;1.888316;-2.394946;18877;10126.74;-0.1065694;-0.2095746;0;
10268.92;7643.092;3959.894;13604.68;-0.257035;-2.794437;10883.96;5882.275;-0.1064623;-0.01446195;0;
-18765.54;-15446.84;3147.978;-19899.69;13.54195;-1.719902;-19886.53;-12139.06;-0.3012573;-0.3392841;0;
-26332.92;-20823.05;2334.847;-31047.5;18.81963;-1.115389;-27796.61;-17100.63;-0.17102;-0.3389432;0;
-9879.356;-5038.037;1259.321;-15849.3;10.5617;-1.516166;-11258.05;-3723.946;-0.2358155;-0.208668;0;
-9643.512;-4954.607;-162.1364;-15747.73;12.0923;-0.643864;-11157.71;-2331.761;-0.1056438;-0.07852361;0;
2212.63;1877.439;-423.467;-1105.591;15.29436;-7.073396;2001.661;1356.37;0.2842664;-0.0784447;0;
20383.18;15916.81;432.5597;23635.37;15.8822;-9.87951;21752.58;12787.85;0.08907872;-0.07836588;0;
20087.48;15809.55;1123.028;25841.93;15.99996;-4.377105;21616.13;13362.43;-0.1708802;-0.0133198;0;
16220.35;12176.43;2240.868;21481.39;14.51099;-4.707622;17558.37;9647.814;0.02419358;0.1166283;0;
17265.5;12770.92;3744.11;22979.02;11.4823;-8.520857;18798.44;10029.22;0.2190713;0.5063152;0;
10110.23;7502.219;4037.448;13450.45;4.973056;-8.914193;10727.66;5775.745;0.08891648;0.5058064;0;
-19202.13;-15869.84;3222.893;-20333.41;14.21146;-13.32599;-20309.27;-12548.44;0.0238598;0.1154941;0;
-26917.37;-21333.14;2432.581;-31584.83;13.39387;-15.18806;-28356.76;-17522.33;0.4786072;-0.01455664;0;
-10843.99;-5846.791;1379.696;-16737.07;-8.054123;-10.61808;-12206.81;-4090.309;0.2182569;0.05042533;0;
-10554.19;-5856.112;3.313415;-16629.58;-10.79172;-9.937582;-12008.53;-2858.566;-0.1717664;-0.3394294;0;
2038.45;1605.79;-215.1114;-1345.377;-40.92295;-10.79837;1904.767;1103.582;-0.1066265;-0.663925;0;
20401.48;15908.16;653.4808;23613.3;-55.95238;-10.25166;21788.47;12775.03;-0.3663887;-0.0135845;0;
20005.69;15740.2;1379.802;25777.6;-19.65949;-9.906446;21527.66;13305.15;-0.3660206;0.5061679;0;
16295.32;12247.68;2532.742;21547.49;-15.82135;-10.70029;17633.1;9706.336;-0.2357181;0.3107573;0;
17384.81;12889.89;4036.752;23085.52;-20.22705;-6.134818;18913.69;10169.8;-0.04057922;-0.1443264;0;
10215.06;7591.471;4325.58;13580.14;-14.11116;-4.989943;10837.68;5838.22;0.5441676;-0.2091487;0;
-19199.6;-15882.99;3505.457;-20271.38;-17.11109;-10.94629;-20304.65;-12560.79;0.4786535;0.1808655;0;
-26749.67;-21188.48;2715.579;-31402.07;-13.87872;-11.2702;-28191.87;-17442.35;0.02340116;0.1157164;0;
-10197.35;-5271.349;1648.886;-16168;-8.908279;-16.95225;-11563.62;-3883.678;-0.2364917;-0.01433454;0;
-10163.07;-5436.951;221.9765;-16249.91;-6.152662;-19.41352;-11645.7;-2718.266;-0.1712867;0.1805819;0;
1892.339;1608.583;-35.21117;-1408.599;-4.606239;-16.44689;1728.704;1116.883;-0.3660167;-0.01450158;0;
20418.61;15987.57;812.3357;23643.49;-3.797327;-18.17186;21805.36;12857.92;-0.7554529;-0.1444217;0;
20208.67;15920.78;1507.794;25945.47;2.435779;-8.575281;21729.93;13480.51;-0.1699878;0.1805601;0;
16407.47;12372.79;2638.773;21656.17;5.447442;-4.681715;17742.26;9838.663;-0.03988229;0.05044402;0;
17401.05;12910.22;4118.657;23104.82;-1.926399;-12.84875;18930.03;10189.53;0.02512512;0.1153607;0;
10270.89;7625.634;4369.984;13612.48;-1.991812;-11.49624;10860.26;5845.396;0.4798713;-0.01468992;0;
-18885.62;-15570.01;3522.267;-20011.29;-1.655018;-12.42239;-20027.77;-12292.46;0.3494544;-0.0796425;0;
-26452.88;-20984.5;2709.697;-31156.71;-2.858804;-12.74482;-27908.49;-17210.27;0.08923391;0.2452742;0;
-10036.3;-5223.747;1636.512;-16031.68;3.775501;-6.368817;-11414.24;-3807.282;-0.04079044;0.05012575;0;
-9762.911;-5133.51;220.7351;-15878.06;4.508642;-5.49164;-11237.18;-2418.481;-0.1706841;-0.209794;0;
2247.07;1756.204;-50.56916;-1094.405;6.580216;0.2742885;2096.817;1263.959;-0.1705126;-0.1446158;0;
20313.56;15802.99;786.8732;23519.4;8.113846;3.020191;21689.83;12672.03;0.02456073;-0.1444705;0;
20107.76;15859.04;1506.439;25839.45;3.752413;-0.06393645;21629.05;13421.95;0.2194381;-0.4041947;0;
16458.7;12410.5;2641.167;21690.84;3.079057;1.476735;17792.54;9873.315;0.02431555;-0.4687559;0;
17341.24;12861.83;4109.399;23046.85;0.3292967;-4.821022;18870.34;10151.08;-0.3005456;-0.4033176;0;
10399.63;7740.974;4369.918;13814.59;-1.479695;-6.892588;11057.16;5955.076;-0.4301783;-0.6627817;0;
-18703.15;-15384.59;3524.731;-19759.17;-3.085799;-2.464911;-19785.52;-12068.74;0.08999269;-0.2073443;0;
-26131.55;-20721.85;2726.214;-30835.33;-4.890383;-3.266229;-27585.44;-17049.28;0.3497716;0.3126028;0;
-9103.013;-4449.647;1689.807;-15108.04;-2.541921;0.5550189;-10467.23;-3558.574;-0.1053512;0.05241926;0;
-9222.411;-4596.272;259.8577;-15296.55;-1.936154;2.429983;-10708.29;-2291.868;-0.1052453;0.1823013;0;
2111.195;1700.293;-49.09198;-1132.246;-3.74287;-4.203647;1927.37;1196.479;0.08976243;0.1821181;0;
20472.94;15984.48;792.8467;23715;-2.934826;-5.873996;21841.06;12865.3;-0.3001318;-0.402771;0;
20387.05;16125.54;1486.826;26124.65;-3.066575;0.4281798;21916.24;13687.3;-0.3647976;-0.1424969;0;
16636.44;12598.84;2554.919;21859.71;-3.532008;0.8296471;17966.37;10069.14;0.09034036;0.182483;0;
17562.89;13085.65;4009.932;23270.89;3.571487;-0.9127427;19091.47;10381.47;0.09024958;-0.01260239;0;
10939.61;8206.009;4286.886;14573.68;4.639626;0.02593543;11665.64;6368.237;-0.1047431;0.6370837;0;
-17388.86;-14108.27;3425.447;-18292.48;5.840413;-7.609962;-18414.35;-10858.46;-0.2345726;0.7014109;0;
-24813.56;-19574.34;2600.731;-29557.46;8.246418;-9.946657;-26267.68;-15941;-0.3642716;-0.3387714;0;
-8031.108;-3649.857;1543.991;-14122.76;-4.555243;-5.314962;-9432.129;-3127.872;-0.03906881;-0.2084963;0;
-7582.089;-3279.827;114.0951;-13740.98;-8.034266;-5.979451;-9109.168;-1446.245;0.1558725;0.1815173;0;
3376.838;2505.843;-189.1484;330.9433;-3.538214;-3.562118;3257.898;1889.267;-0.2990555;-0.07853449;0;
20634;16025.98;622.2901;24065.57;-5.209599;-3.156641;22057.22;12933.8;-0.5586244;0.05147911;0;
20427.93;16234.59;1308.882;26126.58;-2.658768;-3.555367;21941.29;13795.77;0.02664296;0.1813621;0;
16883.45;12819.4;2410.075;22103.33;-1.182228;-3.082914;18218.65;10292.52;0.4813876;-0.4035262;0;
17687.4;13230.1;3863.109;23406.27;-5.266877;-8.036431;19213.45;10538.72;0.2860019;-0.2082188;0;
11164.54;8373.521;4135.526;14892.88;-5.195212;-9.836835;11915.67;6479.513;0.2857145;0.4416639;0;
-16707.1;-13455.24;3304.88;-17521.93;-2.041184;-11.16661;-17708.6;-10288.28;0.1554927;0.2463181;0;
-23886.24;-18845.35;2503.429;-28704.17;-2.106482;-13.96855;-25373.98;-15315.2;-0.1045329;-0.07876614;0;
-6903.636;-2885.735;1460.718;-13076.25;4.124925;-11.47621;-8339.11;-2811.404;-0.03946052;-0.01371965;0;
-6576.532;-2368.11;27.03253;-12763.47;5.929441;-12.13451;-8161.535;-1004.642;-0.1043882;-0.1436405;0;
3577.413;2699.692;-295.4576;513.1138;-0.1720852;-17.41384;3384.195;2019.769;-0.1692507;-0.2734309;0;
20609.18;15983.77;529.2374;24008.21;-1.578432;-18.736;22008.78;12912.45;-0.1041133;-0.2081888;0;
20635.29;16463.49;1231.602;26321.15;-5.930126;-18.91813;22148.89;14011.51;-0.0390413;-0.07804494;0;
17038.49;12969.7;2331.655;22246.39;-10.61322;-18.36325;18366.57;10454.04;-0.1039694;0.3118375;0;
17843.96;13395.18;3799.136;23556.01;-5.177546;-21.89478;19371.99;10704.5;-0.1038649;0.3764915;0;
11389;8574.714;4084.954;15172.27;-4.770201;-22.14071;12132.21;6671.313;0.0261741;-0.07865816;0;
-16216.6;-12998.97;3262.729;-16979.75;-21.71197;-14.95147;-17242.18;-9874.155;0.0261478;-0.2085138;0;
-23540.67;-18501.96;2465.288;-28238.31;-26.2445;-13.19495;-25031.93;-14940.14;0.1560562;-0.4032063;0;
-7016.636;-2988.692;1420.834;-13113.54;-23.94096;-5.679787;-8450.943;-2852.879;0.09093206;-0.4677685;0;
-6327.506;-2214.202;-0.4108137;-12493.7;-28.06911;-1.454216;-7886.966;-875.4739;0.2207754;0.05244023;0;
4066.848;3014.662;-314.3776;1275.802;-14.71167;-5.873567;3943.485;2315.396;0.09061886;-0.0125798;0;
20690.28;16038.51;500.7162;24291.94;-11.01319;-5.867665;22119.07;12984.86;-0.2992762;-0.0775345;0;
20632.45;16483.64;1209.981;26282.11;-19.77701;-3.450445;22138.31;14041.78;-0.1040735;0.5072495;0;
17167.66;13095.29;2334.418;22371.95;-17.54634;-3.781832;18498.4;10580.01;-0.03900159;0.1819031;0;
17855.39;13422.27;3799.773;23581.19;-25.90145;-9.873357;19382.52;10750.9;0.02600494;-0.2730511;0;
11429.15;8602.25;4074.721;15260.08;-28.62209;-12.74364;12160.61;6642.045;0.4807502;0.05205999;0;
-15793.97;-12577.66;3264.344;-16553.98;-16.00005;-13.06575;-16845.95;-9513.84;0.09046309;0.1819424;0;
-22877.51;-17969.46;2475.615;-27721.61;-14.37638;-14.19127;-24389.27;-14395.99;-0.2344645;0.1167922;0;
-6192.994;-2372;1432.495;-12439.5;-10.54452;-18.99966;-7638.331;-2555.894;-0.1692616;0.05170751;0;
-5575.563;-1544.328;11.89352;-11783;-6.045949;-20.38721;-7130.033;-673.8958;-0.03915682;-0.01331179;0;
4274.888;3145.117;-306.5521;1460.736;-15.48435;-17.62049;4175.14;2341.266;-0.03911748;-0.01329841;0;
20673.18;15990.56;515.0618;24223.15;-17.00903;-17.9377;22104.66;12966.92;-0.1690129;-0.1432197;0;
20758.44;16636.69;1237.4;26411.67;-5.672431;-8.40834;22262.83;14181.78;0.02605899;-0.01314114;0;
17386.04;13303.53;2382.892;22588.56;-3.121136;-3.912096;18716.44;10807.55;-0.1039019;-0.07809528;0;
18217.16;13796.66;3888.927;23925.07;-8.141842;-10.47237;19739.33;11125.9;-0.03883013;0.05191787;0;
11833.14;8952.71;4173.562;15773.3;-7.464076;-9.725036;12608.49;7011.644;0.3510129;0.4416698;0;
-15527.56;-12385.27;3339.348;-16141.91;-9.466308;-6.232212;-16531.29;-9281.777;0.02582353;0.1813566;0;
-22829.13;-17870.87;2538.55;-27602.51;-11.19811;-5.556182;-24344.65;-14317.01;-0.2340718;0.116207;0;
-6607.094;-2736.513;1472.221;-12777.64;-2.479319;-5.952435;-8053.038;-2736.687;-0.1039019;0.1810576;0;
-6230.782;-2180.167;31.30948;-12358.67;-0.534445;-6.482318;-7785.873;-903.8102;-0.1687648;-0.01402635;0;
4054.094;2964.142;-279.1597;1321.344;-3.614391;-4.198446;3933.845;2315.683;-0.29853;0.3108245;0;
20681.08;16011.6;536.8358;24298.68;-1.803074;-3.32351;22109.36;12955.35;-0.103328;0.4404468;0;
20609.61;16485.33;1239.193;26251.24;-8.499067;-10.21923;22114.4;14060.58;0.4814819;0.5049716;0;
17165.28;13095.92;2360.196;22370.49;-10.63398;-12.82123;18498.1;10590.02;0.4809981;0.5694315;0;
17804.57;13389.51;3821.089;23538.18;0.3614166;-6.980958;19328.3;10728.68;0.1556781;0.1790553;0;
11425.6;8588.914;4093.392;15268.1;3.241441;-6.973944;12148.24;6643.354;0.02558701;0.04894073;0;
-15660.33;-12409.23;3289.244;-16403.24;-3.325899;-8.574466;-16706.12;-9358.797;0.0255613;-0.01607579;0;
-22608.11;-17761.05;2499.99;-27452.3;-4.326935;-7.494184;-24110.54;-14194.61;0.285405;-0.08102698;0;
-5561.688;-1966.131;1451.129;-11833.42;4.719743;-14.51968;-7024.283;-2389.902;0.1551835;-0.08094557;0;
-4926.01;-943.9495;31.38386;-11130.69;6.724732;-16.78245;-6497.923;-401.7021;-0.4296785;-0.01589689;0;
4388.479;3288.263;-279.1479;1611.146;1.761482;-8.258997;4292.467;2452.174;-0.4942141;0.04908643;0;
20401.66;15702.09;548.7479;23975.44;1.959807;-6.710091;21833.65;12720.03;-0.2338481;0.1140045;0;
20264.4;16162.36;1245.409;25930.34;-1.391065;-7.373178;21763.08;13710.36;0.09122356;0.1788573;0;
16765.23;12691.76;2365.125;21968.26;-2.796187;-5.557291;18094.87;10209.93;0.2860339;0.3086122;0;
17851.64;13448.81;3885.421;23544.15;-2.323886;-7.6951;19373.19;10782.75;0.4156812;0.3732695;0;
11744.89;8850.582;4173.338;15729.16;-3.862769;-8.022283;12539.51;6940.777;0.1553942;0.04805768;0;
-15778.15;-12626.14;3309.202;-16331.08;-1.112221;-3.593409;-16752.04;-9490.488;-0.1695987;0.1129767;0;
-22813.36;-17905.06;2491.849;-27675.26;-1.915387;-3.187962;-24329.61;-14381.71;0.2203758;0.3727326;0;
-5794.258;-2119.373;1434.75;-12083.45;-1.443972;-2.31398;-7237.792;-2478.264;0.4800237;0.177456;0;
-5801.695;-1683.431;-17.11857;-11994.89;-2.113082;-0.704065;-7376.946;-828.9764;-0.04019736;-0.01762431;0;
3567.397;2740.897;-352.4016;680.7496;-2.981615;-7.401529;3377.299;2075.772;-0.429961;-0.1475413;0;
20251.27;15606.89;461.5123;23772.71;-1.504751;-7.59504;21655.19;12600.07;-0.234627;-0.3422951;0;
20268.17;16150.37;1157.449;25919.98;-15.16727;-8.391143;21778.84;13702.24;-0.1694239;-0.08208175;0;
16742.19;12686.08;2274.723;21940.78;-17.69762;-9.72237;18071.65;10221.18;-0.429123;0.2428374;0;
17541.06;13109.63;3736.171;23252.92;-13.32558;-0.2682517;19063.16;10433.49;-0.03888777;0.1126588;0;
10821.09;8124.905;3984.353;14572.85;-14.31755;1.272625;11527.15;6274.446;0.48089;-0.08235648;0;
-16988.84;-13688.36;3177.971;-17796.39;-2.715238;5.491149;-18028.95;-10509.07;0.1555701;-0.2122084;0;
-24500.74;-19214.01;2393.452;-29297.69;-0.3006358;8.365776;-25971.16;-15513.88;-0.03948821;-0.3419299;0;
-8028.526;-3620.188;1304.124;-14171.51;6.330122;2.396133;-9438.396;-3214.165;0.09048615;-0.01674958;0;
-7221.033;-2873.783;-142.3033;-13452.45;9.807363;2.259759;-8785.485;-1338.752;-0.1045068;-0.01673275;0;
3259.63;2411.683;-441.3537;158.6832;4.104081;-1.225563;3086.145;1785.337;-0.2993038;-0.211618;0;
20080.59;15493.21;404.3836;23476.52;4.568471;-2.764939;21484.69;12467.2;-0.1690684;-0.2763727;0;
20191.42;16043.03;1135.984;25849.62;-5.884968;-6.580066;21701.49;13625.1;0.02600352;-0.4060296;0;
16700.63;12658.54;2274.083;21890.56;-8.290929;-10.12349;18029.26;10181.9;0.09094473;-0.1457523;0;
17512.48;13096.3;3762.611;23214.45;-16.2532;-0.4010351;19035.5;10435.1;0.1558207;0.3741329;0;
10942.42;8168.941;4033.192;14693.89;-20.99229;1.273941;11689.35;6332.798;0.09069677;0.568659;0;
-17406.89;-14200.57;3188.406;-18168.44;-8.981132;-3.014185;-18409.41;-10985.29;-0.1042964;0.3082182;0;
-25181.08;-19866.23;2389.103;-29926.46;-8.035078;-2.207362;-26654.73;-16180.91;-0.3640609;0.04803915;0;
-8192.41;-3767.617;1353.44;-14335.79;-0.8597089;-4.214571;-9593.257;-3306.709;-0.1687931;-0.2768458;0;
-7535.739;-3069.024;-64.20799;-13758.95;2.155265;-5.148097;-9106.716;-1357.583;0.2211805;-0.4714697;0;
2738.672;2205.316;-365.4608;-341.1166;6.507356;-2.262719;2521.281;1648.021;0.155991;0.04874279;0;
20002.43;15499.99;476.1086;23413.54;10.25089;-2.394411;21390.28;12452.53;-0.2339698;0.4384979;0;
20162.71;15975.78;1205.888;25826.1;0.5286701;-4.334449;21676.49;13570.46;-0.2987021;0.2431553;0;
16612.94;12601.12;2361.72;21798.88;0.1933462;-5.468804;17940.4;10122.1;0.09140211;0.3728456;0;
17449.52;13015.79;3852.877;23150.03;-10.45677;-4.525548;18970.49;10355.81;0.09131026;0.372471;0;
10498.62;7853.973;4115.716;14199.06;-15.8049;-4.05212;11218.24;6072.392;0.2211532;0.04725999;0;
-17793.92;-14421.94;3298.302;-18618.28;-7.818412;-10.67924;-18812.05;-11133.38;0.8056371;-0.1476895;0;
-25275.35;-19962.91;2510.725;-29984.06;-9.149727;-12.07509;-26730.65;-16181.49;0.4799908;-0.08257378;0;
-8217.202;-3756.253;1474.004;-14314.23;-3.982969;-9.517663;-9621.139;-3345.081;0.1546718;0.1124112;0;
-7032.942;-2716.359;85.93819;-13235.47;-1.29965;-9.843015;-8579.881;-1215.523;0.1545164;-0.01763642;0;
3338.805;2423.819;-220.744;327.3742;-4.178732;-4.67556;3197.824;1810.646;-0.2354429;-0.2125207;0;
19989.63;15396.72;590.9761;23437.69;-2.50057;-2.259538;21407.04;12394.15;-0.1052716;-0.0823725;0;
20016.95;15888.28;1313.737;25675.71;-2.498057;-3.663848;21523.24;13463.71;0.2846382;-0.1472571;0;
16548.31;12506.89;2463.37;21738.92;-2.093406;-2.387552;17877.65;10049.14;-0.3003539;-0.2120765;0;
17566.96;13163.63;3976.227;23254.48;1.659742;0.4950523;19089.66;10509.18;-0.3650194;-0.01696133;0;
11101.75;8329.469;4266.583;14894.54;3.533108;2.102145;11863.84;6493.95;0.2200534;0.2429251;0;
-17377.81;-14156.96;3431.214;-18000.18;-1.426935;2.903828;-18348.64;-10941.33;0.08989763;0.3076483;0;
-25234.14;-19912.68;2623.764;-29904.71;-2.63095;5.178208;-26703.6;-16223.54;-0.2999968;0.2423719;0;
-8705.929;-4391.963;1562.036;-14714.97;3.266192;0.8192364;-10094.13;-3594.651;-0.03982595;0.372063;0;
-9029.28;-4400.997;110.9133;-15139.56;3.396632;0.4165156;-10582.73;-2139.753;-0.1697206;0.3067218;0;
1391.434;1268.703;-214.597;-2056.586;5.335602;6.712371;1119.968;909.7869;-0.5593541;0.1115116;0;
19655.12;15251.4;633.8484;22702.19;7.407321;7.509421;20998.96;12188.13;0.1558487;-0.08350248;0;
20024.66;15797.98;1349.539;25725.29;0.165234;13.1953;21552.1;13403.04;0.9353002;0.4363202;0;
16517.43;12532.77;2477.74;21680.16;0.165068;15.79426;17844.19;10065.7;0.4146217;1.020588;0;
17740.71;13309.12;3992.582;23392.19;-1.174268;13.36712;19260.6;10657.74;-0.04056636;0.4348563;0;
11064.75;8335.65;4270.272;14960.45;-2.177467;14.62625;11841.69;6515.822;0.2843111;-0.2152541;0;
-17405.13;-14125.24;3429.808;-18017.66;4.78997;10.39175;-18360.65;-10915.58;0.3489928;0.1097989;0;
-25299.61;-19979.55;2628.388;-29994.71;4.919855;9.041646;-26765.03;-16243.69;-0.1061293;0.2396233;0;
-8719.015;-4299.967;1571.683;-14778.77;13.5551;9.635407;-10119.13;-3578.945;-0.17099;0.1744151;0;
-8052.49;-3635.525;147.7246;-14229.86;16.35452;7.482394;-9596.561;-1673.617;0.1540185;-0.02066215;0;
2611.12;1943.341;-177.1668;-605.7761;10.24252;12.29752;2392.295;1417.512;0.08889643;-0.3454781;0;
19899.59;15360.72;625.8577;23194.03;10.16585;12.68707;21274.95;12321.39;0.02383976;-0.02029425;0;
19975.51;15815.38;1321.504;25647.9;0.9786099;6.779941;21495.63;13428.46;-0.04115153;0.1096608;0;
16578.92;12570.7;2440.301;21743.73;-3.10821;4.763641;17904.33;10093.23;-0.3009796;-0.2152861;0;
17650.7;13238.95;3934.096;23318.77;-2.300804;6.500411;19170.3;10605.2;-0.3656445;-0.4099718;0;
11072.81;8301.669;4207.316;14861.33;-3.638639;6.359913;11831.66;6461.872;0.219429;-0.2146578;0;
-17170.35;-13902.5;3354.297;-17899.99;-9.05999;-1.684246;-18156.44;-10694.86;0.4141105;-0.0195401;0;
-24785.27;-19636.11;2543.645;-29559.18;-11.26169;-4.495776;-26256.54;-15945.16;-0.1710116;0.1753816;0;
-7244.69;-3122.031;1501.768;-13467.33;-1.604831;-0.6733537;-8658.944;-3142.874;-0.1058724;0.30514;0;
-6052.303;-1803.852;76.47421;-12311.88;0.2727913;-1.275463;-7622.682;-831.2047;0.4139727;0.04496405;0;
3467.465;2625.548;-267.3049;441.8402;4.75952;-0.8722833;3274.597;1871.585;0.08871999;-0.08501582;0;
19873.4;15285.7;513.6963;23297.27;8.238338;-0.2686214;21269.38;12309.22;-0.2362059;-0.01996305;0;
19975.95;15852.58;1183.156;25623.71;2.402911;-0.0004197672;21486.33;13444.31;0.02390085;0.1099917;0;
16378.87;12355.06;2291.753;21561.22;0.9930007;1.205273;17702.21;9904.369;0.1538115;0.1098812;0;
17380.72;12978.75;3781.419;23046.91;6.284265;-1.542177;18900.59;10336.69;0.2186243;0.04480342;0;
10845.65;8105.632;4042.143;14570.75;7.617121;-2.679337;11598.73;6298.583;0.8031107;-0.02020894;0;
-17180.86;-13863.52;3199.565;-17988.19;-5.183907;3.418619;-18171.39;-10619.2;0.867271;-0.2150907;0;
-24403.08;-19289.95;2411.682;-29222.17;-7.523223;4.085013;-25874.95;-15632.19;0.0218242;0.1099622;0;
-6955.442;-2886.568;1372.53;-13230.38;-6.9798;1.133782;-8407.607;-3008.914;-0.3030344;0.3047537;0;
-5729.191;-1552.228;-61.8789;-11985.29;-8.245584;0.7307447;-7256.531;-748.7597;-0.1727953;-0.02038922;0;
3942.784;2919.397;-432.2555;1097.656;-1.739589;-2.418126;3908.121;2083.429;-0.1076543;-0.1503034;0;
20041.4;15398.99;331.4202;23579.78;-0.3986702;-3.621328;21485.78;12443.02;0.0873559;-0.08518504;0;
20031.77;15937.44;1006.341;25660.28;7.773404;-3.952604;21516.16;13532.82;0.1522355;-0.08509945;0;
16589.16;12558.82;2098.999;21760.9;11.38292;-3.211881;17921.57;10107.66;0.02214782;-0.3448833;0;
17522.42;13135.26;3579.177;23190.12;10.09868;-6.892593;19038.7;10506.62;0.02212556;-0.2146021;0;
11064.43;8283.136;3859.5;14898.97;11.22761;-6.684719;11832.06;6450.396;0.2170054;0.240385;0;
-16557.73;-13260.55;3025.32;-17269.31;7.666354;-0.9845749;-17534.13;-10048.97;0.346722;-0.3445627;0;
-23752.36;-18701.76;2237.675;-28598.91;5.84999;0.08808038;-25245.62;-15053.08;0.2814063;-0.7989878;0;
-6533.06;-2624.795;1212.409;-12831.83;0.7538968;12.74752;-7984.886;-2890.159;-0.1086805;-0.213479;0;
-5410.712;-1283.221;-194.3835;-11695.08;-2.462041;17.75831;-6951.644;-675.8663;-0.4334081;-0.01836242;0;
4056.577;3034.977;-523.5539;1196.728;-8.220344;14.19037;3950.521;2166.431;-0.1731032;0.1115907;0;
20083.54;15431.4;263.3269;23631.84;-12.43164;16.38655;21493.33;12502.42;0.1519074;0.1764459;0;
20083.11;16002.35;931.8824;25705.67;-8.534385;11.54744;21582.31;13595.52;0.2167221;-0.4734048;0;
16551.78;12522.2;2036.265;21714.03;-8.659532;10.26316;17876.98;10081.62;0.151537;-0.1480924;0;
17523.99;13143.78;3543.461;23201.24;-9.789907;9.114135;19039.24;10525.01;0.2163521;0.1768931;0;
11352.8;8510.333;3830.66;15230.75;-8.842064;7.363543;12134.55;6636.882;0.08620005;-0.01818665;0;
-15994.55;-12819.11;2989.67;-16665.31;-8.766807;6.217434;-16978.81;-9661.457;-0.2387233;0.1767337;0;
-23598.21;-18503.76;2179.665;-28368.44;-9.226513;4.402647;-25082.5;-14834.69;-0.3034507;0.2415234;0;
-7006.327;-2945.366;1127.159;-13207.46;-1.514082;7.412456;-8441.584;-3013.594;-0.04327647;-0.2134907;0;
-5739.577;-1645.246;-276.5498;-11962.73;0.09502928;6.53423;-7257.974;-728.3698;0.2816037;-0.2782435;0;
4031.875;2901.576;-600.6713;1224.038;-0.03976412;10.54652;4001.507;2157.178;0.08641874;-0.2129966;0;
19964.89;15313.98;185.3811;23513.59;3.376527;11.87558;21412.23;12362.3;-0.4334068;-0.2777499;0;
20001.83;15936.04;870.1006;25607.74;-14.24301;7.174963;21487.04;13544.83;-0.1081346;-0.01760144;0;
16526.63;12492.52;1964.582;21692.76;-18.78305;8.239359;17857.24;10050.59;0.2168107;0.3722203;0;
17379.12;13013.48;3455.514;23050.3;-8.046908;-2.083987;18893.11;10400.86;-0.4330805;0.306879;0;
11273.92;8445.939;3762.104;15230.19;-9.177898;-5.69891;12073.84;6585.663;-0.172776;-0.2131681;0;
-16422.6;-13216.54;2917.872;-16958.84;-2.336173;4.220047;-17373.11;-10048.47;0.7369403;-0.2779213;0;
-24303.74;-19134.79;2098.007;-29059.41;0.009722785;4.617703;-25795.49;-15469.61;0.1514938;0.112162;0;
