Fp1;Fp2;O1;O2;POLY3;POLY4;A1;A2;Video;Audio;event;
16566.42;12531.4;2083.757;21717.5;-9.072018;-3.582463;17712.77;9640.364;-0.1573509;-0.153193;0;13:30:34 Глаза открыты;
-3655.54;-3605.958;1815.391;-2645.679;-10.60314;-2.507136;-4085.079;-3464.037;-0.2221601;-0.5428431;0;
-33129.02;-28189.68;958.3719;-35998.63;-3.291472;1.1124;-34550.25;-23601.04;0.1678671;-0.1524936;0;
-23003.99;-18010.81;143.4431;-28795.9;-1.614202;4.326341;-24237.38;-15006.73;0.1027311;0.1724963;0;
-9349.025;-4327.649;-1192.686;-16006.56;4.349267;-2.644048;-10809.79;-1479.708;-0.2222088;0.04238831;0;
-7917.487;-4914.722;-2365.663;-14210.16;9.904603;-4.44987;-9045.356;-2734.652;-0.09205084;0.2372478;0;
11266.28;8747.523;-2118.502;9858.195;-3.635658;3.324378;11750.11;6344.393;-0.221893;0.4319114;0;
21871.97;17417.71;-1324.569;27096.06;-4.637359;3.722935;23342.14;14399.09;-0.6764415;-0.1532287;0;
17822.47;13945.45;-543.0363;23732.38;0.2574209;-0.9025059;19090.83;11356.74;-0.3509251;-0.4129441;0;
15859.96;11793.53;955.6938;21829.92;-1.082984;-1.102487;17186.92;9048.325;0.299101;-0.08769245;0;
16451.81;12421.2;2133.204;21609.91;5.750607;-8.134465;17606.11;9536.515;0.4287351;-0.217539;0;
-3613.827;-3502.111;1825.183;-2602.064;6.079621;-10.33667;-4026.25;-3369.725;0.7531409;-0.2822878;0;
-32788.54;-27842.7;959.9078;-35662.22;7.882174;-7.513059;-34236.41;-23242.58;0.3625802;0.2377346;0;
-22615.9;-17626.38;160.9694;-28420.23;9.548217;-7.371544;-23896.73;-14804.69;-0.4173922;0.3024631;0;
-8513.017;-3485.03;-1170.211;-15284.7;-0.508085;-3.077351;-10024.81;-1061.061;0.2327006;-0.02267756;0;
-6776.285;-4082.772;-2351.316;-13037.01;-2.316236;0.006894928;-7903.812;-2109.249;0.2974341;0.04231257;0;
11774.31;8946.938;-2122.786;10611.88;-5.059598;1.547495;12312.86;6551.206;-0.1576361;-0.2175993;0;
21955.36;17520.43;-1352.195;27235.95;-7.131596;4.225136;23428.71;14484.79;-0.1574777;-0.2173807;0;
17908.66;14043.32;-589.1255;23765;-4.511485;10.3832;19156.4;11451.66;-0.2872542;0.3025765;0;
15874.79;11793.14;892.066;21854.49;-4.105787;13.25291;17203.07;9040.95;0.1028385;0.3672398;0;
16446.47;12430.98;2061.675;21554.1;-0.9528532;15.38305;17573.41;9533.224;0.1677025;0.3668708;0;
-3564.055;-3479.3;1756.475;-2650.671;0.5883456;16.97518;-4034.149;-3381.65;-0.09233537;0.1066328;0;
-32455.48;-27496.31;882.1794;-35464.39;8.759428;13.87691;-33957.61;-22959.44;-0.4820466;-0.2183111;0;
-22127.17;-17166.44;46.46268;-28054.1;13.37233;12.38946;-23452.65;-14425.73;-1.066268;0.1717124;0;
-8558.354;-3556.332;-1319.21;-15357.31;8.938261;10.70244;-10114.52;-1213.897;-0.6753929;0.1065725;0;
-7311.144;-4428.225;-2503.523;-13653.38;10.3358;8.682198;-8498.622;-2468.921;-0.02504086;-0.2833387;0;
11498.74;8844.337;-2257.63;10164.23;11.26342;2.444305;11977.94;6453.936;-0.284885;-0.1531193;0;
22046.52;17604.31;-1461.12;27276.24;11.2521;-1.108246;23502.58;14546.24;-0.4795008;0.1718713;0;
18009.71;14139.68;-688.2582;23879.79;9.163714;-1.241037;19253.63;11541.3;-0.08921498;0.1716986;0;
15928.85;11860.83;800.3105;21868.04;5.872953;-3.584193;17235.7;9093.988;0.2357114;0.1715261;0;
16646.63;12617.1;1990.095;21876.06;13.50286;-2.17395;17794.09;9707.521;0.3654092;0.2363211;0;
-3311.787;-3263.38;1682.218;-2152.108;13.89144;-2.104783;-3748.847;-3192.128;0.4949767;-0.0887531;0;
-32557.52;-27605.94;795.9725;-35491.02;4.767799;-4.848907;-34103.29;-23139.64;0.429512;-0.02369658;0;
-22597.5;-17618.44;-50.71457;-28561.43;4.159796;-5.64783;-23992.43;-14749.35;-0.09065828;0.5610333;0;
-9219.135;-4202.943;-1431.032;-16049.08;-10.31172;-2.76195;-10824.57;-1603.44;-0.4803712;0.2356329;0;
-7774.655;-4860.528;-2596.804;-14192.23;-18.00452;-2.357277;-9000.246;-2847.547;-0.0900845;-0.6091793;0;
11392.43;8733.462;-2328.875;10012.16;-2.782157;-2.890772;11857.55;6325.861;-0.2199287;-0.6735346;0;
21800.12;17342.18;-1530.842;27039.55;-3.851088;-2.218038;23245.46;14290.95;-0.4146097;-0.2180864;0;
17677.76;13818.8;-729.1744;23546.11;-2.708143;-7.239407;18905.28;11196.86;0.04057829;0.3018715;0;
15708.56;11641.58;778.176;21659.57;0.5097592;-9.107594;17011.42;8874.285;-0.3492665;0.2366008;0;
16424.96;12388.38;1952.772;21520.63;-16.57104;-6.084333;17533.65;9466.051;-0.4788503;-0.348343;0;
-3565.993;-3557.592;1639.06;-2681.026;-19.56849;-6.948936;-4093.688;-3495.981;0.1713043;-0.2830257;0;
-32728.08;-27805.17;754.5134;-35770.4;-17.13793;-6.071237;-34335.65;-23378.35;0.1061648;0.1070628;0;
-22488.24;-17412.16;-72.67304;-28439.78;-20.40227;-5.93117;-23915.23;-14692.57;0.04109081;0.3668246;0;
-9024.576;-3923.937;-1432.385;-15869.54;-6.315595;-9.810099;-10685.76;-1437.463;0.4308536;0.04161926;0;
-7593.224;-4734.756;-2596.173;-13985.69;-1.151685;-10.93895;-8871.228;-2756.496;-0.02435075;-0.3482266;0;
11602.21;8921.468;-2308.629;10256.58;-13.74283;-10.3921;12047.32;6476.432;-0.4141303;-0.2829094;0;
22019.08;17585;-1496.076;27255.67;-13.52893;-10.64959;23461.97;14530.93;0.1060245;-0.08772307;0;
17949.88;14076.9;-711.0605;23812.27;-5.075241;-12.24642;19173.55;11452.81;0.2358527;-0.1526023;0;
15905.92;11851.24;791.3991;21836.59;-2.257102;-12.23411;17194.74;9077.46;-0.1541884;-0.2823836;0;
16699;12643.87;1976.695;21927.07;-0.9820361;-12.48975;17830.67;9714.046;-0.08906609;-0.08719785;0;
-3071.439;-3116.125;1665.614;-1942.752;1.765617;-12.81211;-3549.528;-3104.698;0.1059254;0.1077918;0;
-32471.88;-27565.98;772.0141;-35456.13;3.571528;-7.440727;-34088.66;-23188.47;-0.02411569;0.04271614;0;
-22413.83;-17401.05;-74.05546;-28403.45;4.639666;-5.624773;-23866.87;-14773.62;0.3007452;0.1726079;0;
-8639.844;-3617.675;-1441.138;-15513.92;11.60123;-6.556821;-10312.13;-1254.531;0.4953451;0.3023691;0;
-7261.257;-4437.641;-2603.917;-13662.47;13.66665;-5.478567;-8560.389;-2494.162;-0.02489137;0.237098;0;
11616.76;8903.927;-2307.136;10309.98;12.24543;-5.740993;12055.43;6467.825;-0.4146704;-0.02300962;0;
22037.84;17602.73;-1473.173;27272.7;13.30485;-5.065396;23480.24;14537.94;-0.2193517;-0.08795384;0;
17999.21;14133.96;-678.8726;23843.8;7.866472;-6.332921;19217.59;11511.84;-0.02422929;0.1720039;0;
16003.51;11943.1;825.3038;21928.78;7.188982;-6.39354;17286.04;9162.562;-0.02420495;0.2367984;0;
16757.25;12707.6;2010.878;21933.38;4.636163;-7.257894;17894.08;9776.026;0.3006561;-0.02330889;0;
-3291.691;-3342.54;1695.703;-2233.424;3.292334;-8.925114;-3754.251;-3314.519;0.495256;-0.08825281;0;
-32658.03;-27747.93;800.9164;-35686.21;6.838999;-2.017087;-34286.66;-23390.66;-0.08994771;-0.1531315;0;
-22610.96;-17574.52;-43.90165;-28588.4;6.362637;-1.077299;-24097.98;-14827.1;-0.3497267;0.04192442;0;
-9226.352;-4185.833;-1413.232;-16045.85;16.40393;-4.425302;-10919.77;-1565.707;-0.1544733;0.171817;0;
-7722.848;-4825.897;-2579.428;-14170.59;20.07114;-3.884992;-9030.512;-2793.11;-0.0893507;-0.2181597;0;
11537.48;8900.555;-2294.041;10115.01;16.23258;-10.44529;11968.04;6451.192;-0.2191956;0.1068962;0;
21938.61;17499.19;-1478.504;27152.86;17.95856;-12.24328;23375.06;14443.81;-0.02407333;0.4316255;0;
17790.98;13928.89;-691.2881;23659.44;12.38081;-12.76684;19005.76;11299;0.0409182;-0.1535143;0;
15777.8;11716.81;815.0871;21704.67;9.89012;-15.09835;17064.36;8936.733;-0.348927;-0.348262;0;
16570.62;12541.96;2006.388;21758.48;15.30519;-6.174633;17679.44;9611.832;-0.6084457;-0.2179774;0;
-3524.691;-3484.791;1688.999;-2450.708;15.49088;-3.690121;-4060.762;-3453.56;-0.4129323;0.1070783;0;
-32985.11;-28039.46;793.501;-36006.93;9.379747;-7.102482;-34646.12;-23682.53;-0.4125174;0.4967748;0;
-22724.38;-17653.1;-39.06569;-28743.99;8.098501;-4.88497;-24209.44;-14985.12;-0.4770703;0.1714389;0;
-8936.688;-3834.458;-1397.156;-15851.04;9.496883;-8.497018;-10645.05;-1371.59;-0.3466562;-0.08860274;0;
-7346.206;-4503.048;-2554.764;-13733;9.218921;-9.158309;-8638.307;-2576.871;-0.2163732;0.3662577;0;
11723.33;9018.51;-2273.29;10501.44;9.745522;-1.580218;12184.96;6554.926;-0.3460905;0.3009223;0;
22015.09;17587.46;-1468.144;27282.15;8.932422;-0.3060159;23453.84;14532.19;-0.2807754;-0.2191188;0;
17932.68;14068.38;-680.5947;23761.7;13.41142;2.440592;19145.62;11442.07;-0.1505586;-0.2188986;0;
15958.27;11904.29;823.0836;21890.67;13.53167;5.117335;17240.25;9127.416;-0.02047261;0.1711254;0;
16659.48;12615.3;2006.505;21848.26;11.97686;-1.451952;17791.53;9682.492;0.17445;0.1709535;0;
-3173.014;-3226.172;1698.736;-2108.877;11.76473;-2.589202;-3659.496;-3201.11;-0.02062733;-0.154055;0;
-32391.78;-27463.92;810.9124;-35423;5.255196;1.968178;-34041.03;-23144.66;0.04436074;-0.0889329;0;
-22712.17;-17654.43;-38.72576;-28733.78;4.245538;2.234132;-24202.83;-14899.18;0.04431617;-0.1538109;0;
-9368.033;-4304.139;-1399.378;-16265.22;-5.270549;1.361109;-11064.51;-1659.624;-0.08566305;-0.283591;0;
-7627.568;-4644.5;-2540.757;-14100.4;-9.819604;1.828622;-8893.447;-2709.225;0.04435771;-0.1533714;0;
11513.18;8932.22;-2256.283;10094.4;0.7064609;1.089972;12001.07;6426.407;-0.3454909;-0.1532173;0;
21892.83;17446.1;-1451.091;27093.25;1.375336;1.423791;23333.18;14414.96;0.04466029;-0.282998;0;
17828.58;13967.53;-665.1838;23692.44;5.05765;2.09219;19035.86;11330.19;0.5643541;-0.347681;0;
15812.34;11762.52;831.0765;21735.89;8.536168;2.291037;17106.55;8990.011;-0.02091899;0.04247241;0;
16568.35;12525.92;2010.117;21769.13;5.579854;5.905691;17660.3;9599.479;0.3689061;0.1073971;0;
-3464.927;-3464.151;1695.723;-2385.33;7.249187;7.239416;-4036.277;-3439.102;0.8882741;0.1072892;0;
-32617.82;-27689.01;825.7682;-35665.66;8.5147;6.562312;-34290.37;-23327.71;0.2377082;0.3670507;0;
-22130.86;-17151.03;20.74895;-28166.51;9.376801;6.957616;-23614.66;-14612.09;-0.1523347;0.1068125;0;
-8322.071;-3330.424;-1339.213;-15230.71;9.56845;7.017608;-10038.72;-1084.671;0.1076877;-0.1531641;0;
-7019.688;-4146.603;-2521.476;-13377.14;9.022972;7.077539;-8335.285;-2306.857;0.2375142;0.2367938;0;
11676.36;9021.213;-2262.587;10488.43;11.29108;3.118435;12119.61;6557.834;-0.08756118;0.3015232;0;
21940.23;17507.78;-1482.61;27216.68;10.27438;0.3021401;23382.94;14462.74;-0.3473426;0.1063182;0;
17821.87;13960.29;-729.0612;23666.53;11.87165;7.000008;19040.96;11343.09;-0.1520915;0.1711787;0;
15790.71;11740.63;743.2441;21737.83;12.39558;7.930735;17081.64;8971.601;-0.08697136;0.4308761;0;
16518.81;12475.83;1914.783;21651.15;4.948389;0.1528682;17646.22;9557.99;-0.02191663;0.4954105;0;
-3273.098;-3270.424;1619.913;-2328.331;4.407553;-0.1152171;-3779.16;-3225.833;0.1080401;0.1051086;0;
-32215.65;-27294.39;752.9386;-35288.13;-3.7012;-3.464126;-33855.74;-22906.32;-0.2169052;-0.02493165;0;
-22117.32;-17109.74;-74.93345;-28093.49;-8.18546;-4.398406;-23577.59;-14518.48;-0.08675256;-0.284776;0;
-8234.785;-3243.728;-1427.834;-15157.56;2.472685;2.639099;-9936.465;-1025.307;0.4980407;-0.4793918;0;
-6384.937;-3754.585;-2584.38;-12718.22;0.7962373;5.382626;-7674.769;-1997.444;0.4975402;0.2357306;0;
11983.28;9113.518;-2319.868;10933.37;10.44;8.726242;12485.28;6632.897;-0.1526331;0.4953631;0;
21789.96;17373.69;-1523.858;27112.13;14.18056;11.99964;23250.69;14341.01;-0.2824144;-0.2197754;0;
17756.43;13914.32;-742.7498;23582.28;1.171864;16.87721;18974.83;11310.35;0.04270606;-0.4794239;0;
15644.48;11573.12;733.3174;21621.76;2.309762;18.9366;16952.14;8803.132;-0.08727153;-0.1541055;0;
16362.47;12359;1917.922;21514.19;-13.96953;25.48178;17484.83;9463.497;-0.1521512;0.3657881;0;
-3432.482;-3379.706;1639.697;-2443.151;-20.31851;28.33644;-3927.777;-3305.551;0.4327078;0.04058384;0;
-33062.86;-28088.92;748.9334;-36064.56;-3.820048;19.80126;-34666.98;-23635.62;0.4972403;-0.544163;0;
-23419.48;-18277.52;-101.2359;-29339.76;-2.945553;18.57567;-24849.87;-15303.76;-0.3478347;-0.2187795;0;
-9421.239;-4251.227;-1442.897;-16227.53;1.679107;11.12214;-11057.22;-1556.024;-0.2825179;-0.02365767;0;
-7573.4;-4590.438;-2593.197;-13957.22;4.892601;6.221336;-8849.265;-2637.135;0.2375047;-0.08860124;0;
11340.83;8793.637;-2325.599;10044.86;5.155128;10.09997;11775.08;6367.396;-0.08757064;-0.1534796;0;
21753.4;17329.41;-1525.304;27014.39;5.886883;7.812527;23204.99;14297.29;-0.15245;0.04157668;0;
17547.02;13686.81;-762.248;23418.46;11.03853;8.139469;18779.61;11084.63;-0.02236212;0.3663716;0;
15424.63;11371.94;700.6267;21396.73;14.77848;7.997325;16728.92;8614.802;-0.282209;0.3010361;0;
16162.21;12156.82;1881.797;21206.53;-7.206768;5.109145;17277.64;9258.942;-0.08702343;0.1058316;0;
-3953.583;-3807.595;1604.233;-3123.807;-13.22775;4.501165;-4461.572;-3688.404;0.107966;0.04075795;0;
-33379.6;-28370.23;731.8396;-36379.43;-4.037427;3.424915;-34951.14;-23908.1;0.1728249;0.235619;0;
-23620.37;-18472.89;-113.44;-29476.19;-6.445244;1.613057;-25012.76;-15376.85;0.1076839;0.04048025;0;
-9933.112;-4740.628;-1456.682;-16720.36;1.599184;5.831239;-11540.93;-1766.591;-0.1522937;-0.2194298;0;
-7607.795;-4785.996;-2596.754;-14004.62;6.219278;6.361243;-8811.703;-2749.118;-0.2820753;0.1056274;0;
11600.85;8869.093;-2353.641;10279.35;-6.848765;1.197287;12095.87;6413.478;-0.2817919;0.04055392;0;
21596.68;17176.2;-1579.929;26875.72;-8.984362;1.597982;23057.87;14168.98;0.04332795;0.04051317;0;
17425.94;13583.68;-795.7036;23315.72;6.63108;-5.90559;18666.44;10983.9;0.4330885;0.4952439;0;
15391.43;11333.95;683.3529;21366.51;9.035314;-8.377964;16712.19;8587.933;0.2377513;0.5597136;0;
16161.12;12170.06;1870.226;21268.49;6.615338;0.6729673;17290.6;9280.591;-0.08732433;0.2992818;0;
-3887.692;-3759.091;1598.357;-2947.69;7.546696;2.48083;-4369.789;-3628.531;0.0426981;-0.09082296;0;
-33635.43;-28608.46;718.1302;-36553.34;2.3142;4.420721;-35168.02;-24119.97;0.1076225;-0.2856337;0;
-23929.52;-18754.25;-117.7029;-29728.88;1.172799;6.626715;-25276.33;-15644.42;0.04254705;0.1044573;0;
-9986.082;-4791.101;-1451.164;-16728.54;-3.918594;9.433218;-11539.98;-1801.826;-0.1523977;-0.155517;0;
-7736.533;-4797.937;-2588.696;-14042.04;-6.058111;10.83038;-8898.564;-2763.531;-0.08727725;-0.4152301;0;
11501.12;8904.733;-2327.928;10296.23;-5.850953;12.96283;12010.56;6445.353;-0.02222221;-0.02500883;0;
21681.5;17260.8;-1567.954;26984.13;-6.514659;14.5574;23152.62;14268.33;-0.4120039;-0.08995104;0;
17414.51;13568.41;-813.3195;23306.12;-3.15921;6.973941;18670.02;10974.78;-0.2816553;-0.2847627;0;
15412.7;11371.1;676.2494;21409.78;-2.620173;5.024428;16742.75;8640.783;0.04346445;-0.1545419;0;
16141.83;12148.27;1865.69;21248.62;6.759583;4.148602;17280.01;9261.112;-0.2814159;0.1704501;0;
-3903.614;-3714.872;1588.86;-2984.604;10.83863;2.068084;-4353.976;-3605.121;-0.2811332;0.3651809;0;
-32895.24;-27853.22;739.4399;-35831.25;8.550561;2.802696;-34367.68;-23336.41;-0.02098131;0.2998466;0;
-23203.54;-18036.31;-93.75965;-28952.58;11.42236;1.661293;-24499.36;-14868.09;-0.08592757;0.1046433;0;
-9879.07;-4669.79;-1456.605;-16577.29;4.377306;4.405801;-11386.93;-1652.071;-0.1508086;0.0395708;0;
-7185.805;-4521.686;-2584.23;-13400.72;2.028383;4.870255;-8248.468;-2496.377;-0.4105264;0.2994004;0;
12070.3;9178.286;-2300.588;11056.63;7.719772;4.195532;12669.86;6709.428;-0.4101139;0.4290343;0;
21706.96;17307.5;-1531.193;27080.96;6.038053;4.124333;23192.69;14330.26;-0.2797671;0.1687338;0;
17529.51;13694.23;-754.9186;23404.26;9.046095;4.187172;18793.09;11115.48;0.110318;-0.09130511;0;
15518.19;11463.73;747.6475;21531.52;9.639242;4.584863;16859.15;8743.032;0.3051092;-0.4160501;0;
16251.99;12254.07;1923.086;21404.21;0.5872267;-0.5773081;17424.2;9381.017;0.04493326;-0.3506647;0;
-3542.587;-3464.845;1619.962;-2534.598;-1.824261;-1.916326;-3900.74;-3307.037;0.4346921;-0.09044298;0;
-32713.96;-27694;737.5266;-35602.66;-3.430018;0.2289927;-34119.46;-23129.72;0.8890267;-0.2202868;0;
-23219.9;-18032.56;-105.3536;-28941.83;-5.570025;0.5636773;-24470.41;-14846.55;0.5632967;-0.09013075;0;
-10073.93;-4865.439;-1461.504;-16683.11;-6.234014;-1.446316;-11521.84;-1793.639;0.237894;0.0398945;0;
-7825.296;-4918.224;-2602.508;-14040.75;-7.83534;-2.449607;-8916.08;-2808.825;0.1077203;-0.09008028;0;
11647.61;8989.386;-2314.567;10542.03;-4.277494;5.05476;12177.33;6554.573;-0.2172246;-0.2199244;0;
21763.83;17346.3;-1528.839;27123.95;-3.067747;6.389339;23250.5;14363.78;-0.152039;-0.02480144;0;
17423.6;13586.85;-761.3124;23325.89;-4.136392;6.315937;18698.61;11036.45;0.1079831;0.2350929;0;
15329.75;11271.81;739.9796;21365.22;-2.457296;8.18499;16684.37;8541.419;-0.3468968;0.0399546;0;
16045.51;12081.68;1920.361;21106.81;-5.737357;0.5409558;17187.98;9246.728;-0.4764829;-0.1549876;0;
-4259.321;-4053.28;1618.457;-3368.776;-6.937041;-0.6652805;-4693.595;-3808.584;0.303604;-0.0898645;0;
-33774.72;-28704.22;744.176;-36595.59;2.31333;-1.133493;-35164.84;-24027.15;0.5631683;-0.1547415;0;
-24513.23;-19328.7;-122.0117;-30132.12;4.387111;-2.940832;-25705.51;-15614.28;0.4976351;0.04031597;0;
-11793.64;-6591.547;-1511.003;-18327.22;2.105527;2.554663;-13201.53;-2943.745;0.302233;-0.1546266;0;
-9016.397;-6052.879;-2635.622;-15285.94;4.179516;3.288786;-10062.71;-3788.892;-0.02290737;-0.2844059;0;
11432.62;8846.311;-2325.613;10142.26;-5.269155;5.027038;11977.82;6469.542;-0.02288435;0.2356186;0;
21627;17202.44;-1536.547;26946.33;-8.880207;7.16544;23115.03;14236.1;-0.02286136;0.1704146;0;
17247.07;13408.46;-763.7964;23177.9;1.310122;3.809094;18527.89;10836.75;0.3669657;-0.2195608;0;
15246.96;11192.23;732.0945;21283.83;1.174108;4.274147;16600.78;8487.958;0.4965316;0.1054966;0;
15922.42;11952.13;1911.141;20945.12;1.575069;5.877442;17088.47;9106.442;0.1062286;0.1703579;0;
-4272.314;-4087.95;1619.616;-3464.195;3.51587;6.541366;-4651.887;-3823.354;0.3010239;-0.2196173;0;
-33678.38;-28628.16;747.7386;-36530.57;-8.410381;7.60652;-35046.15;-23929.25;0.1707868;-0.4142987;0;
-24018.58;-18855.31;-98.61887;-29658.29;-12.01925;8.670482;-25216.59;-15354.69;-0.2841562;-0.4788497;0;
-11208.11;-5996.052;-1469.643;-17703.67;-3.366011;8.929702;-12598.9;-2557.482;0.1059334;0.04137016;0;
-9166.382;-6014.718;-2614.449;-15347.68;-2.759417;8.71978;-10207.79;-3701.508;0.2357616;0.3661653;0;
11143.73;8733.338;-2310.224;9840.805;-8.651142;12.06017;11669.25;6392.28;-0.2192467;-0.02400667;0;
21723.62;17288.18;-1494.484;27018.31;-10.38474;11.37822;23208.19;14308.67;-0.02412436;-0.08894989;0;
17336.95;13488.04;-696.07;23270.16;-3.943941;14.98374;18623.85;10919.44;0.3007366;-0.02389317;0;
15281.03;11243.36;810.1227;21291.6;-2.667181;16.37533;16634.14;8542.567;-0.154337;-0.2187712;0;
15997.65;12002.39;1990.996;21126.87;-7.888437;3.364428;17160.05;9140.96;-0.1541819;-0.2185514;0;
-4056.104;-3877.802;1697.173;-3070.704;-8.551072;0.4139207;-4444.547;-3638.884;0.2357771;-0.08839709;0;
-33284.62;-28247.92;825.8738;-36080.8;-8.27406;-2.332734;-34649.07;-23595.4;0.2355402;-0.2832103;0;
-23511.41;-18337.21;-7.193922;-29176.32;-8.868959;-5.612493;-24700.61;-15125.01;0.2353035;-0.2829257;0;
-10346.99;-5149.901;-1365.254;-16940.71;-7.720972;-2.190785;-11744.57;-2026.953;-0.2846717;0.4319994;0;
-8100.229;-5252.063;-2493.689;-14259.89;-6.306694;-2.925396;-9095.457;-3056.148;-0.4143203;0.4965326;0;
11691.59;9005.129;-2178.887;10553.77;-10.11875;1.833271;12291.78;6602.944;-0.1540346;0.1062296;0;
21810.97;17399.23;-1376.054;27137.76;-9.50537;3.840794;23306.5;14429.31;-0.02394519;0.3010249;0;
17472.5;13632.63;-591.8146;23396.5;-7.955578;5.31056;18756.82;11073.44;0.3009156;-0.08908161;0;
15449.86;11400.85;916.0225;21471.23;-8.750892;8.721231;16803.96;8701.628;-0.02422349;-0.7386655;0;
16126.79;12143.34;2098.164;21272.53;5.92631;1.478555;17313.47;9280.917;-0.1541338;-0.2831519;0;
-3778.842;-3613.073;1801.953;-2742.71;10.47568;0.4723257;-4104.655;-3407.847;-0.08901162;0.171904;0;
-32640.72;-27594.95;931.1732;-35472.89;4.034795;3.68691;-33983.18;-22957.14;-0.6736283;-0.02317076;0;
-22727.11;-17584.16;86.03683;-28428.04;5.43726;1.00401;-23914.89;-14505.87;-0.21818;-0.2180495;0;
-9936.426;-4748.732;-1287.578;-16500.27;-0.3289793;10.71528;-11326.1;-1772.082;0.1718433;-0.1528631;0;
-8103.812;-5189.627;-2432.567;-14219.64;-3.47648;12.37909;-9112.451;-2967.262;0.1716706;-0.08774213;0;
11646.14;8988.683;-2127.666;10583.82;-0.7263212;0.3099664;12237.43;6613.249;0.1714981;-0.08765396;0;
21879.78;17461.9;-1309.219;27243.32;-3.137465;-1.364918;23379.14;14476.51;-0.1535109;-0.2175006;0;
17490.61;13655.48;-519.4253;23405.65;-3.536454;-11.20979;18775.65;11111.9;0.2364474;-0.2822494;0;
15430.77;11380.66;984.9032;21458.62;-3.934066;-16.95888;16791.76;8668.031;0.2362098;-0.3469331;0;
16166.87;12185.13;2176.377;21346.53;-9.489819;-11.58333;17340.82;9339.854;-0.2837663;0.3030889;0;
-3924.084;-3778.16;1872.404;-2831.86;-9.412934;-13.91609;-4282.712;-3537.656;-0.2185138;0.6925884;0;
-33079.06;-28030.08;981.7819;-35860.68;-15.2316;-9.883192;-34416.86;-23370.96;-0.3482289;0.04221909;0;
-23458.38;-18271.34;127.7554;-29081.55;-18.09571;-7.260988;-24627.58;-14905.02;-0.152977;-0.477562;0;
-10960.75;-5749.121;-1246.901;-17420.05;-2.538461;-16.76502;-12341.37;-2425.539;0.2369808;-0.2821802;0;
-8818.791;-5808.124;-2374.19;-14968.66;0.4781991;-17.41801;-9818.438;-3533.996;0.04184062;0.4977114;0;
11504.38;8946.954;-2056.369;10326.24;-0.1245177;-12.64484;12089.16;6569.072;0.04179857;0.6271461;0;
21734.06;17308.32;-1261.53;27080.09;1.81799;-13.23498;23228.81;14337.86;-0.02321077;0.1717445;0;
17271.69;13434.07;-487.1194;23197.62;0.7444367;-4.715034;18560.04;10881.42;-0.3480242;0.3015066;0;
15269.55;11222.79;1015.99;21311.29;1.614345;-1.964056;16634.24;8517.229;-0.2177398;0.171269;0;
15913.09;11935.13;2200.03;20967.54;-7.295885;-9.463988;17083.77;9094.424;0.04234838;-0.4136092;0;
-4088.976;-3926.599;1915.648;-3225.256;-10.16894;-10.45922;-4446.516;-3664.274;-0.1525962;-0.3482263;0;
-33246.54;-28189.21;1044.348;-36062.09;-10.49352;-11.78831;-34562.83;-23489.61;-0.2174102;-0.02303967;0;
-23741.83;-18554.63;190.852;-29332.54;-13.02857;-13.31707;-24886.87;-15113.44;-0.1522244;-0.08798386;0;
-11261.19;-6044.377;-1177.652;-17694.54;-8.527499;-15.71502;-12613.66;-2641.531;-0.4769082;-0.4776995;0;
-9286.922;-6150.528;-2318.926;-15439.89;-7.580925;-16.70391;-10293.15;-3798.591;-0.476429;-0.4772195;0;
11192.64;8755.194;-2026.179;9913.435;-8.645035;-19.76828;11741.33;6425.433;-0.4109829;-0.281838;0;
21782.19;17345.21;-1240.756;27094.14;-7.698343;-21.28902;23274.51;14362.97;-0.4755373;-0.3465221;0;
17232.5;13398.18;-486.2314;23170.05;-5.815574;-14.30153;18526.45;10850.84;-0.3451248;0.04363012;0;
15093.08;11039.23;988.4849;21136.53;-5.206518;-12.67963;16462.37;8327.122;-0.149876;0.368423;0;
15760.66;11813.13;2165.681;20805.14;0.1563719;-9.585735;16906.39;8977.721;-0.2146927;0.3030855;0;
-4641.756;-4371.484;1877.773;-3782.905;3.639815;-6.294001;-5059.785;-4061.641;-0.3444117;0.2378136;0;
-34140.42;-29046.04;997.2344;-36930.6;-4.067001;-9.569779;-35477.41;-24329.46;-0.01922891;-0.08726209;0;
-24205.2;-19033.94;148.7833;-29835.22;-3.12491;-8.55548;-25350.49;-15499.72;0.4355618;0.1077276;0;
-11496.69;-6279.623;-1214.993;-17962.92;-5.131502;-5.46573;-12856.79;-2727.688;0.3701568;0.3025214;0;
-9713.89;-6486.518;-2357.229;-15893.95;-7.403521;-3.785665;-10721.56;-4067.444;0.2398502;-0.08758663;0;
10951.97;8619.753;-2058.619;9573.326;6.201575;-5.5904;11501.3;6309.305;0.3045765;-0.4773027;0;
21746.4;17302.46;-1272.616;27005.58;7.467165;-5.584783;23238.67;14318.48;-0.08553356;-0.4118557;0;
17146.64;13306.62;-519.8713;23093.82;12.4835;-1.292324;18435.13;10755.89;-0.4102843;-0.02163786;0;
15108.93;11057.72;960.3136;21151.66;16.62415;-0.8891892;16473.47;8345.34;0.1098667;-0.08658346;0;
15701.33;11756.92;2133.79;20650.14;3.077134;2.259902;16841.86;8930.75;0.4995603;-0.08649646;0;
-4912.542;-4590.042;1847.164;-4229.905;2.805623;3.396219;-5332.688;-4263.565;-0.02068037;0.3683619;0;
-34198.54;-29092.08;990.6121;-37059.9;-9.588428;0.6466283;-35531.09;-24336.06;-0.02065959;0.4329591;0;
-24200.04;-19039.92;158.3783;-29809.55;-17.75047;0.7129616;-25341.96;-15438.34;0.2392305;0.4974914;0;
-11557.04;-6364.43;-1200.535;-18053.84;4.236794;-4.981182;-12915.63;-2776.01;-0.2157812;0.3670568;0;
-9578.729;-6438.4;-2338.834;-15761.95;5.840127;-7.789399;-10594.94;-3977.068;-0.1505971;-0.1530508;0;
11048.56;8675.771;-2043.725;9740.654;1.347256;-4.231538;11586.33;6400.932;0.2393583;-0.152897;0;
21768.4;17340.23;-1255.083;27053.18;3.7568;-4.696167;23261.66;14348.86;0.1091831;0.1720934;0;
17236.74;13392.2;-500.4815;23172.74;-6.494754;-6.767858;18528.42;10835.94;-0.2807307;0.2368878;0;
15117.89;11067.25;975.6859;21159.1;-8.296889;-7.095972;16479.33;8363.958;-0.1505139;0.1067151;0;
15767.82;11825.48;2163.608;20773.88;-8.355901;-7.423757;16921.59;8986.314;0.4993108;0.1066079;0;
-4681.211;-4349.329;1892.475;-3879.441;-11.42799;-7.818195;-5077.752;-4007.438;0.4338417;0.1714681;0;
-33960.21;-28852;1035.847;-36774.71;-3.244831;-6.269732;-35285.98;-24082.41;0.1735364;0.0413611;0;
-23655.9;-18506.32;210.2208;-29269.62;-2.169844;-6.732312;-24794.34;-15117.21;-0.08650732;0.1062869;0;
-10642.99;-5412.796;-1150.681;-17115.96;-5.986057;-3.510489;-12002.38;-2127.4;-0.1513877;0.3660495;0;
-8917.441;-5784.902;-2296.542;-15038.88;-5.175759;-2.033337;-9926.151;-3503.538;0.1086337;-0.02412241;0;
11274.81;8836.377;-1997.181;10054.33;-11.66827;-9.667165;11831.38;6481.34;-0.1513448;0.1058365;0;
21806.54;17370.72;-1207.836;27134.67;-14.67065;-11.06409;23300.15;14390.68;-0.02125803;0.3006322;0;
17286.16;13439.33;-430.5434;23221.31;-5.479861;-11.11996;18575.4;10892.45;0.3685674;-0.08947393;0;
15217.29;11169.94;1069.042;21261.16;-3.598345;-12.51537;16578.31;8462.552;0.1083277;0.105518;0;
15843.21;11866.63;2246.938;20875.09;-11.43161;-10.15845;17008.01;9030.212;0.04325149;0.2353467;0;
-4415.881;-4205.568;1970.474;-3600.13;-11.55385;-10.28221;-4789.402;-3902.1;-0.02175931;-0.08972653;0;
-33527.75;-28466.35;1108.739;-36370.07;-10.8053;-8.329432;-34858.21;-23747.36;-0.08670479;-0.02466903;0;
-23618.6;-18456.03;275.6053;-29257.46;-11.06286;-6.914421;-24778.65;-15040.5;0.1082844;-0.2195463;0;
-11045.52;-5835.599;-1074.837;-17524.93;-4.152873;-9.653712;-12409.51;-2434.843;-0.1516938;-0.3492604;0;
-9219.427;-6101.552;-2215.839;-15393.3;-1.535756;-9.510046;-10216.59;-3725.949;-0.4763781;0.105862;0;
11219.68;8762.423;-1916.434;9905.114;-0.2623907;-8.763679;11789.75;6437.125;0.0438393;0.170723;0;
21853.01;17411.86;-1121.797;27138.57;2.886681;-8.888839;23347.85;14427.5;0.4985666;0.2355188;0;
17257.04;13426.22;-364.9872;23201.85;0.137114;-7.339361;18541.92;10872.44;-0.02167305;0.3002495;0;
15083.09;11021.01;1108.858;21136.31;0.1369762;-6.997071;16451.63;8310.716;-0.4114553;-0.3497257;0;
15708.29;11775.92;2283.934;20704.48;5.562822;-7.057024;16836.18;8939.295;0.1736642;-0.4143416;0;
-4874.784;-4544.96;2013.242;-4100.802;5.892025;-6.782001;-5315.317;-4224.825;0.4333591;-0.2190232;0;
-34080.98;-28963.87;1169.268;-36917.68;8.16328;-7.77993;-35415.81;-24239.96;0.04311956;0.1710009;0;
-23668.92;-18517.63;342.289;-29292.08;9.762669;-7.839096;-24817.6;-15117.53;-0.2817605;0.6256005;0;
-11107.98;-5890.231;-1026.679;-17552.28;-0.3611979;-9.103834;-12477.41;-2493.569;-0.2814774;0.2351678;0;
-9572.314;-6329.042;-2182.176;-15718.34;-3.442294;-10.2334;-10578.01;-3951.657;-0.2811945;0.1049968;0;
11052.74;8735.17;-1878.198;9745.15;0.2448602;-5.668396;11604.44;6408.639;-0.5407814;0.1698587;0;
21867.22;17428;-1070.575;27158.1;-1.295627;-4.122093;23362.61;14443.03;-0.2154013;-0.1551487;0;
17239.08;13393.7;-305.6953;23174.91;-2.834567;-8.47172;18529.34;10840.73;0.1746192;-0.2199602;0;
15076.21;11034.15;1175.867;21129.69;-4.64038;-7.726456;16442.8;8327.954;0.3043784;-0.02483714;0;
15695.31;11728.56;2341.224;20653.03;-4.032505;-9.661137;16824.49;8884.568;0.3040726;-0.1547469;0;
-4916.61;-4655.64;2040.897;-4224.276;-5.033807;-10.85712;-5370.674;-4329.394;0.0438977;-0.02465669;0;
-33875.14;-28800.07;1190.21;-36767.22;-8.578722;-1.13387;-35226.48;-24089.69;-0.2809831;0.1702701;0;
-23318.39;-18148.51;369.6447;-28990.99;-10.17769;1.278594;-24468.32;-14829.97;-0.2157334;0.04016433;0;
-10778.1;-5551.937;-997.9769;-17279.06;-12.17622;0.8754113;-12151.65;-2226.128;0.10932;-0.154778;0;
-9059.378;-5978.969;-2137.495;-15242.37;-12.83455;3.285795;-10068.65;-3635.323;0.04424285;-0.1546225;0;
11371.4;8872.358;-1830.281;10043.71;-19.11732;-0.8702651;11927.62;6519.634;-0.08573629;-0.02453248;0;
21853.6;17412.49;-1032.592;27143.66;-21.71105;-1.003357;23346.67;14425.25;0.3691213;0.1054269;0;
17331.7;13501.06;-262.5664;23264.88;-13.04807;0.4712151;18615.43;10954.32;0.2388157;-0.02461376;0;
15152.73;11081.99;1220.358;21199.48;-10.55671;0.06884406;16514.48;8358.156;-0.02129366;-0.3494257;0;
15686.62;11754.66;2393.136;20709.76;-14.02971;4.221595;16819.92;8930.029;0.2385971;-0.414042;0;
-4792.743;-4482.962;2108.342;-3986.112;-12.74281;6.092875;-5222.452;-4184.044;0.04345534;0.1710801;0;
-34172.97;-29059.71;1238.035;-37022.8;-10.25176;2.670745;-35517.82;-24323.61;-0.086523;0.3008429;0;
-24307.71;-19161.69;374.568;-29990.5;-10.64263;3.002976;-25467.01;-15467.81;0.1734333;-0.08926342;0;
-12083.19;-6899.216;-1021.669;-18529.58;-0.3168053;6.616915;-13439.23;-3166.159;0.2382264;-0.08917373;0;
-10506.75;-7113.969;-2170.471;-16690.63;3.434557;7.681993;-11558.76;-4553.31;0.04308498;0.2357526;0;
10580.94;8462.338;-1855.994;9136.856;-9.094824;9.080794;11043.92;6231.252;-0.2168277;0.2355157;0;
21824.51;17382.14;-1057.42;27067.88;-10.49221;9.942448;23301.39;14380.24;-0.08667513;-0.02459032;0;
17240.63;13379.21;-291.8356;23193.19;-9.744728;11.27212;18535.42;10820.6;0.1732813;-0.08953296;0;
15110.44;11071.27;1193.399;21159.91;-9.734937;12.06458;16466.56;8362.348;-0.08676215;0.3003611;0;
15650.81;11696.26;2345.651;20540.5;-15.55328;9.373145;16790.75;8859.254;-0.281577;0.624896;0;
-5040.79;-4703.787;2041.009;-4452.526;-18.81921;8.559932;-5470.202;-4333.849;0.3683794;0.3643987;0;
-33951.04;-28859.21;1180.827;-36861.34;-4.667751;8.417365;-35291.7;-24096.62;0.4979439;-0.0257715;0;
-23500.92;-18371.46;314.4812;-29168.54;-3.791429;7.404285;-24663.69;-14904.06;0.1076395;-0.1556803;0;
-11175.18;-5963.568;-1094.283;-17643.52;1.570039;6.793999;-12550.64;-2500.768;0.5623027;-0.09055652;0;
-9528.6;-6412.27;-2242.012;-15692.31;5.654298;6.184326;-10531.33;-4008.278;0.4967704;-0.1554329;0;
11157.44;8700.814;-1926.245;9764.447;-8.282857;3.833709;11704.25;6388.776;-0.2833369;-0.2852114;0;
21904.24;17458.79;-1107.548;27171.63;-9.078817;2.222389;23390.72;14465.79;-0.4129868;-0.2199575;0;
17460.39;13623.12;-313.9901;23401.55;-16.23602;5.770129;18745.17;11067.43;-0.08773518;-0.02483441;0;
15347.73;11282.96;1168.518;21387.76;-19.36851;6.233212;16711.06;8571.837;-0.1526144;0.3000273;0;
15796.76;11858.2;2318.515;20801.29;-15.598;2.476027;16927.44;9014.481;0.04244101;0.03985642;0;
-4731.407;-4428.438;2026.144;-3980.278;-17.72578;1.669743;-5174.52;-4084.278;0.1073657;-0.09011831;0;
-33719.98;-28630.71;1164.79;-36588.23;-3.23966;2.605827;-35078.43;-23913.14;0.04229048;-0.09002776;0;
-23476.21;-18337.57;308.0182;-29124.56;0.3135691;2.469242;-24653.92;-14980.45;-0.2176214;-0.2848393;0;
-11216.67;-6029.62;-1080.531;-17668.65;1.920844;0.9931368;-12603.58;-2636.284;-0.4772721;-0.1546184;0;
-9770.795;-6492.513;-2232.35;-15998.6;6.674336;0.6572242;-10823.27;-4083.375;-0.4118252;-0.1544631;0;
10874.49;8618.372;-1920.684;9425.143;-5.255088;1.125444;11371.69;6296.466;-0.2165093;0.1055615;0;
21815.28;17366.04;-1097.417;27078.65;-6.656327;1.191296;23298.01;14363.33;-0.02138977;0.3003575;0;
17350.16;13506;-296.7479;23300.72;-4.438836;2.730707;18635.87;10970.57;-0.1513029;-0.02478106;0;
15231.19;11161.6;1204.889;21288.21;-4.501725;3.799568;16595.52;8421.209;-0.4110203;0.1701459;0;
15628.69;11727.53;2352.695;20534.16;-5.70265;2.456213;16744.28;8919.398;-0.2157053;0.2999096;0;
-5469.729;-5021.639;2042.267;-4819.207;-5.429476;2.252797;-5922.009;-4657.572;-0.1505212;-0.2201305;0;
-35043.72;-29894.23;1175.244;-37876.87;1.07369;6.33637;-36378.23;-25105.77;-0.2803046;-0.2848766;0;
-25207.47;-20097.68;296.6599;-30848.98;2.881272;7.669662;-26363.21;-16112.81;-0.08512095;0.0402463;0;
-13339.56;-8148.964;-1097.969;-19707.93;13.72937;5.585485;-14662.48;-4172.743;0.2398013;0.1701406;0;
-11336.22;-7903.037;-2211.774;-17722.6;18.87314;6.182718;-12369.64;-5408.583;0.174593;-0.1548671;0;
10346.65;8232.095;-1889.29;8399.822;13.42819;4.836847;10773.85;5978.927;-0.02048447;-0.08974417;0;
21506.94;17042.59;-1070.287;26614.85;14.08428;4.497073;22973.39;14048.86;0.04450346;0.4950521;0;
17030.66;13186.13;-248.6554;23031.97;14.47227;5.832212;18325.78;10615.48;-0.0205086;0.2996526;0;
15009.26;10933.93;1260.93;21038.74;13.98921;5.491437;16371.67;8217.996;-0.4752594;0.1044495;0;
15326.15;11447.17;2420.891;20137.85;9.688251;9.035893;16422.94;8622.078;0.1099242;0.1693119;0;
-5802.044;-5291.553;2133.446;-5346.877;8.606789;10.16552;-6296.951;-4896.123;0.6295524;-0.2206623;0;
-35127.6;-29946.51;1283.135;-38031.68;2.167779;7.1412;-36463.5;-25159.61;0.1091812;-0.3503752;0;
-24577.58;-19461.74;447.9521;-30260.42;-2.255028;6.732126;-25723.84;-15761.84;-0.08583052;-0.2850558;0;
-12559.75;-7357.837;-927.7755;-18985.59;8.933022;7.328208;-13897.42;-3628.402;0.2390924;0.170002;0;
-11580.85;-7872.182;-2079.873;-17807.45;8.856696;7.052913;-12636.88;-5304.787;0.1089175;0.2347985;0;
9823.147;8024.679;-1766.893;8052.671;9.317287;5.639185;10232.67;5820.375;-0.6058327;-0.1552415;0;
21653.23;17189.77;-932.9418;26774.13;10.44603;5.566535;23124.39;14173.4;-0.1504526;-0.0251508;0;
17243.87;13377.2;-121.7866;23236.87;4.474658;4.690164;18545.08;10813.52;0.889176;0.03984181;0;
15177.71;11131.51;1385.422;21198.6;5.207097;5.154332;16536.11;8410.603;0.5634459;-0.1551002;0;
15599.32;11688.1;2553.13;20518.44;-6.18499;5.818982;16709.91;8855.221;-0.02182631;-0.2848791;0;
-5793.313;-5272.952;2250.84;-5143.256;-9.327583;6.683913;-6271.228;-4842.983;0.04316296;-0.5444622;0;
-34899.39;-29736.42;1394.945;-37808.46;-3.824878;10.56209;-36246.57;-24946.65;-0.08681509;-0.3490131;0;
-23897.2;-18778.97;570.9255;-29622.07;-5.629696;12.0251;-25054.81;-15329.73;-0.2166625;-0.1537604;0;
-11975.23;-6747.668;-809.0485;-18388.09;8.643203;16.03187;-13316.15;-3251.721;0.1733592;-0.3485079;0;
-10768.18;-7417.485;-1951.38;-17026.07;12.9878;17.69033;-11838.08;-4855.208;0.4330544;-0.08828836;0;
10570.17;8375.471;-1625.894;8890.485;9.424775;17.13669;10971.31;6165.492;0.1077825;0.1716697;0;
21713.28;17259.9;-810.5444;26910.96;11.49141;17.11947;23180.56;14231.69;-0.2171625;0.2364646;0;
17288.71;13435.09;-7.070915;23251.03;7.461375;12.48057;18585.13;10875.76;-0.2169443;0.3011943;0;
15288.9;11229.13;1487.716;21329.32;6.314802;9.118886;16649.38;8503.003;-0.1517589;0.3008917;0;
15499.25;11567.89;2628.616;20322.8;2.156247;8.171962;16591.53;8732.434;0.1082629;0.1706547;0;
-5478.258;-5089.301;2351.019;-5036.832;-0.7263073;4.881709;-5992.427;-4663.487;0.6278928;-0.08938619;0;
-34306.34;-29182.92;1520.51;-37261.84;-3.137451;-0.8166235;-35645.4;-24411.81;0.04255589;0.0406383;0;
-23533.16;-18406.89;676.0313;-29234.5;-6.349479;-3.76293;-24669.26;-14963.74;-0.2173562;0.3654342;0;
-11169.74;-5958.608;-711.4197;-17662.67;-2.323635;-10.65827;-12533.18;-2491.118;0.6274375;-0.0897044;0;
-9858.611;-6485.619;-1866.499;-16097.42;-1.450644;-14.13055;-10890.99;-4105.396;0.4319051;-0.2845163;0;
10743.16;8565.164;-1563.369;9194.68;-6.204609;-10.83431;11235.31;6231.191;-0.1532349;0.0406063;0;
21778.93;17320.2;-743.3965;27002.19;-6.064653;-10.75644;23262.58;14323.91;-0.02314627;-0.08936919;0;
17457.11;13611.09;59.00995;23407.07;-3.714034;-9.53994;18748.77;11047.47;-0.02312301;0.0406553;0;
15378.29;11310.48;1542.892;21425.58;-3.777651;-7.788859;16746.35;8586.986;-0.1530345;0.3654512;0;
15576.98;11681.6;2680.988;20469.3;3.39344;-5.034793;16670.98;8846.692;0.2369234;0.4950186;0;
-5535.253;-5010.301;2392.094;-4979.952;5.935626;-3.221256;-6036.978;-4585.668;0.171718;0.3645866;0;
-34356.64;-29185.83;1543.116;-37303.18;2.111269;2.006588;-35703.23;-24424.07;-0.283226;-0.09055118;0;
-23498.74;-18383.31;695.2097;-29220.42;2.71236;5.018682;-24651.14;-15087.18;-0.08803937;-0.2203949;0;
-10998.59;-5776.87;-679.0797;-17489.72;0.4314825;-0.4788391;-12369.66;-2445.444;0.04198378;-0.2851408;0;
-9442.067;-6255.728;-1837.643;-15677.45;-0.3049093;-1.817956;-10467.15;-3911.343;-0.1529604;-0.4147889;0;
11046.28;8676.446;-1556.702;9527.498;-0.6403716;0.1932981;11555.18;6323.039;-0.02287205;-0.2844375;0;
21809.94;17357.95;-744.5767;27031.2;-1.175592;-1.414425;23294.77;14369.79;0.1720529;-0.2191843;0;
17514.34;13668.14;56.83149;23446.64;-3.451586;-3.824329;18802.44;11098.79;0.3667821;-0.1539968;0;
15525.08;11458.95;1530.815;21555.97;-6.060086;-5.428077;16886.5;8742.284;0.3014462;-0.08887467;0;
15639.43;11716.38;2650.307;20494.83;2.185026;-11.11605;16753.45;8870.806;0.1062413;-0.02381803;0;
-5488.608;-5042.354;2345.14;-4964.269;2.048132;-13.38224;-5956.259;-4623.329;0.1061345;-0.08876143;0;
-33857.05;-28722.34;1508.796;-36829.07;2.515565;-14.30649;-35203.84;-23977.16;0.1060279;-0.2835743;0;
-22456.7;-17391.77;685.8804;-28229.79;5.125005;-15.09591;-23617.6;-14428.12;-0.08898067;-0.08838731;0;
-9791.472;-4625.933;-689.8051;-16362.04;-14.37132;-14.27695;-11176.67;-1690.046;-0.02392392;0.2365382;0;
-8536.118;-5452.179;-1861.429;-14682.73;-19.11328;-14.12864;-9549.705;-3218.407;0.1710021;-0.2184709;0;
11303.69;8827.093;-1590.007;10016.2;-14.27131;-8.287108;11856.81;6436.381;-0.08903904;-0.4131534;0;
21731.57;17285.28;-808.9882;27032.46;-17.07;-6.135328;23222.06;14283.87;0.2358871;0.04203317;0;
17424.81;13591.54;-38.43723;23345.99;-6.871447;-2.981087;18705.22;11043.16;0.5604868;0.3018603;0;
15448.57;11358.66;1446.542;21496.65;-3.71671;0.103062;16815.45;8623.881;-0.02478244;0.3665243;0;
15636.33;11760.33;2588.358;20567.72;-7.798812;-3.714947;16734.12;8933.04;0.2351118;-0.023648;0;
-5642.204;-5108.465;2292.811;-4979.8;-6.986693;-3.242394;-6122.593;-4702.274;0.5597123;-0.3484609;0;
-34467.11;-29281.21;1458.05;-37343.78;-2.2916;-2.301375;-35804.85;-24527.58;0.2343132;-0.2181761;0;
-23540.78;-18416.22;614.3837;-29207.9;-0.6817066;-1.495268;-24689.69;-15084.75;0.1041431;-0.2829242;0;
-11132;-5907.383;-775.8789;-17585.08;-4.230995;-4.976817;-12497.06;-2537.718;-0.350733;-0.0227706;0;
-9549.576;-6361.701;-1919.43;-15787.11;-3.824602;-6.646328;-10569.11;-4014.253;-0.4153479;0.107187;0;
10989;8619.103;-1618.808;9502.318;-7.772874;0.6613066;11512.81;6256.276;0.2347429;0.04211192;0;
21649.89;17197.22;-828.9527;26897.05;-8.099856;0.727625;23137.83;14208.12;0.1695397;0.1070369;0;
17307.57;13467.23;-35.64312;23246.18;-8.895025;6.15239;18589.94;10901.84;-0.09050006;-0.15294;0;
15464.74;11383.83;1464.264;21513.24;-9.690371;9.696181;16833.82;8660.535;-0.02544179;-0.08781895;0;
15545.71;11664.01;2594.286;20336.17;0.9692867;-1.901304;16629.36;8827.058;-0.09038357;0.1071713;0;
-5961.057;-5407.697;2301.919;-5514.308;4.518286;-2.100343;-6482.573;-4965.165;-0.09029274;0.2369983;0;
-34427.89;-29252.06;1489.451;-37389.87;6.456129;-5.849216;-35784.08;-24480.55;-0.02523468;0.1717928;0;
-22890.19;-17806.4;663.3373;-28654.04;10.26803;-8.924431;-24047.89;-14706.54;-0.4150134;0.04168553;0;
-10487.04;-5273.004;-720.6027;-17032.72;6.640396;3.074115;-11868.62;-2141.417;-0.544531;0.1715783;0;
-9303.188;-6132.865;-1874.127;-15549.47;5.629345;3.941804;-10356.92;-3778.16;0.04072217;-0.0234961;0;
11035.07;8631.099;-1575.408;9515.487;13.66164;9.83222;11515.05;6286.767;0.4304853;0.1064622;0;
21731;17275.9;-763.264;26976.66;14.45122;14.04214;23208.81;14270.12;0.1701834;0.1713226;0;
17431.33;13591.2;34.53983;23373.74;7.203031;3.444974;18715.55;11029.09;-0.479661;-0.08871895;0;
15547.79;11468.87;1530.035;21564.65;5.520854;2.838788;16913.44;8737.891;-0.6091138;0.3661416;0;
15754.41;11869.69;2675.702;20718.24;-2.455296;2.835936;16816;9023.229;-0.02379564;0.1708717;0;
-5676.419;-5145.007;2372.227;-4972.296;-7.341973;1.962308;-6243.69;-4754.714;0.106163;-0.1541367;0;
-34530.83;-29363.1;1530.109;-37433.37;-3.784622;0.4867119;-35903.18;-24640.11;-0.08884574;-0.02404718;0;
-23074.74;-18009.21;710.2331;-28837.97;-5.58948;-1.389238;-24232.45;-14918.94;0.2360802;0.1059117;0;
-10178.94;-5001.705;-650.8905;-16735.93;-6.254426;6.582943;-11575.34;-1921.417;0.4957124;0.1707726;0;
-8922.999;-5765.948;-1791.553;-15133.34;-5.511207;8.451729;-9941.557;-3492.477;-0.02452444;-0.02430103;0;
11115.26;8713.851;-1496.979;9723.695;-10.32844;7.1037;11660.74;6341.138;-0.4792712;0.04069072;0;
21690.96;17237.46;-694.908;26958.34;-10.65285;8.771013;23179.52;14232.73;-0.02401822;0.2355519;0;
17345.79;13514.32;132.6871;23276.82;-5.752031;5.413176;18623.05;10956.78;0.1709079;0.1703479;0;
15546.05;11449.08;1658.037;21587.08;-4.808246;4.603941;16912.66;8709.124;-0.02416581;0.3001114;0;
15578.66;11733.49;2783.586;20397.29;1.157456;7.21165;16651.53;8909.69;0.04082581;0.03994044;0;
-6290.466;-5639.821;2472.912;-5781.542;3.969332;6.936472;-6821.136;-5162.865;0.1057521;-0.02506704;0;
-34840.7;-29625;1647.497;-37787.98;1.420725;6.795536;-36195.11;-24858.09;-0.2191908;0.2997949;0;
-23115.3;-18018.38;816.7898;-28883.86;1.95516;6.855691;-24273.9;-14825.42;-0.2839379;-0.1552778;0;
-10499.45;-5269.363;-566.7734;-17060.57;1.282634;5.710093;-11891.92;-2044.426;0.1061514;-0.4799584;0;
-9104.799;-5903.325;-1714.752;-15334.05;0.3443167;6.106252;-10129.68;-3618.377;0.1710121;-0.08967214;0;
11066.61;8708.983;-1418.864;9614.062;-0.4603125;2.617126;11598.31;6323.342;-0.1539965;-0.08958203;0;
21609.32;17151.5;-615.5912;26862.8;-1.263157;0.8059575;23093.33;14153.94;0.1060277;-0.4143287;0;
17342.66;13504.18;200.5549;23271.31;-5.14763;8.574924;18620.75;10944.45;0.4307578;-0.4788797;0;
15525.8;11432.6;1721.151;21551;-6.749072;9.838984;16889.73;8690.048;0.1704556;-0.02362718;0;
15647.04;11801.47;2850.166;20561;-5.135676;9.494183;16731.02;8978.167;-0.08958501;0.3662006;0;
-6200.588;-5552.373;2523.684;-5544.47;-4.862096;11.76206;-6710.831;-5099.611;0.3003091;0.4957674;0;
-35114.62;-29900.93;1682.163;-38014.01;-4.321347;3.109568;-36469.39;-25119.56;0.624844;0.4303018;0;
-23736.71;-18636.64;843.6749;-29469.61;-3.245278;0.5612136;-24892.53;-15212.83;0.2993795;0.04006542;0;
-11154.67;-5923.95;-537.9787;-17646.85;-2.839876;8.933272;-12528.96;-2457.828;0.2341113;-0.08990952;0;
-9620.43;-6335.475;-1676.616;-15939.42;-3.372885;9.326194;-10667.34;-3962.366;0.03897404;-0.2197539;0;
10804.6;8532.546;-1386.545;9180.668;7.682565;8.646994;11298.78;6192.825;-0.2859018;-0.3494677;0;
21488.85;17025.89;-586.3029;26701.93;11.96078;9.308134;22971.19;14021.15;-0.02574519;-0.02427988;0;
17136.92;13298.94;242.4637;23100.43;-1.112059;3.873286;18418.62;10739.98;-0.02571932;-0.02425548;0;
15353.2;11254.07;1772.201;21391.19;-3.254395;1.324164;16722.64;8510.292;-0.2205955;-0.08919846;0;
15497.33;11672.62;2904.85;20235.53;-0.169666;6.145483;16554.73;8854.126;-0.09043916;0.04082586;0;
-6819.545;-6112.486;2572.222;-6371.081;-1.978157;6.005342;-7383.818;-5635.586;0.0395864;0.04078484;0;
-35951.92;-30714.71;1713.318;-38858.66;-2.043518;0.1049319;-37312.16;-25925.53;0.1694813;-0.1541582;0;
-24325.4;-19238.19;854.5271;-30084.61;-2.844772;-1.301754;-25479.66;-15626.49;0.364213;-0.673742;0;
-11965.41;-6753.489;-547.9708;-18482.93;-5.32016;-4.180651;-13344.51;-3069.812;0.4288144;-0.673065;0;
-10376.92;-7004.261;-1690.689;-16663.78;-5.985375;-6.118956;-11410.41;-4594.444;0.2334815;-0.02271531;0;
10645.82;8465.067;-1388.391;8991.964;-7.988117;-5.643927;11137;6137.499;-0.3514592;0.1722096;0;
21470.76;16993.22;-582.0573;26683.58;-9.119166;-7.312768;22946.66;13986.98;-0.2861387;-0.08783286;0;
16993.92;13159.36;239.1151;22968.34;-7.435064;-1.812942;18274.83;10596.79;0.03898554;-0.347614;0;
15271.36;11165.83;1765.451;21292.56;-8.49932;0.1983071;16639.28;8414.548;0.03894637;0.04253936;0;
15498.29;11699.91;2898.357;20356.75;-0.05166291;-5.763251;16558.86;8898.268;0.3637439;0.302366;0;
-7164.402;-6376.657;2537.375;-6532.434;5.105953;-5.288579;-7718.148;-5846.235;0.5582805;-0.02277455;0;
-36691.75;-31416.79;1641.836;-39577.52;-13.18491;-6.823812;-38055.83;-26586.88;0.3628175;-0.087719;0;
-25029.88;-19942.58;759.6293;-30825.26;-16.58791;-7.8217;-26190.81;-16177.86;0.2325182;-0.08763086;0;
-12754.84;-7538.265;-663.2941;-19233.35;-2.772516;0.1569457;-14098.28;-3714.125;0.2972519;0.1073592;0;
-11217.93;-7648.256;-1806.568;-17572.96;-2.301215;3.036932;-12282.72;-5194.569;-0.2877528;-0.08765069;0;
10179.67;8220.472;-1496.205;8367.891;2.65759;-0.2481611;10576.48;5935.636;-0.4173984;-0.02259527;0;
21271.53;16791.43;-690.512;26434.74;5.467958;1.15873;22733.08;13776.68;0.2976618;0.1723295;0;
16873.26;13029.32;149.791;22856.59;1.242906;4.640556;18165.96;10465.07;0.4922647;0.04222161;0;
15265.5;11156.96;1692.521;21283.23;2.715525;6.444432;16631.45;8402.793;0.1669334;0.4969506;0;
15251.36;11522.34;2807.79;19953.71;-2.980631;8.112409;16302.33;8714.111;-0.158071;0.2365819;0;
-7742.708;-6758.87;2454.208;-7316.163;-4.250433;9.376932;-8312.948;-6258.077;0.1019572;-0.1534599;0;
-37136.1;-31824.1;1592.861;-40025.62;-2.102709;11.64493;-38488.52;-27001.06;0.166822;0.4963677;0;
-25508.14;-20469.81;723.7592;-31272.42;-3.104974;12.43702;-26658.46;-16465.17;-0.288117;0.2359996;0;
-13409.07;-8171.762;-683.1363;-19886.44;3.394881;12.75944;-14739.26;-4149.305;-0.09292544;-0.2839763;0;
-11470.55;-7945.13;-1804.917;-17894.03;4.931711;12.8136;-12509.45;-5536.202;0.10207;-0.0887889;0;
10258.94;8220.544;-1491.791;8287.71;8.677799;10.52331;10665.07;5927.18;-0.2228693;-0.02373234;0;
21268.4;16776.57;-688.5076;26391.64;13.29078;9.507992;22729.94;13771.04;-0.2226454;-0.2835779;0;
16800.88;12961.06;145.3592;22811;2.493784;6.953209;18092.69;10377.8;-0.02751963;-0.4132276;0;
15142.88;11032.3;1685.751;21153.78;1.419551;5.539581;16504.61;8286.727;-0.2873614;0.1718937;0;
15261.16;11509.17;2825.734;19983.04;9.72352;4.395305;16304.08;8695.956;-0.4170073;0.756427;0;
-7831.916;-6885.855;2481.222;-7383.095;10.31696;3.185195;-8430.546;-6301.732;-0.09175156;0.560765;0;
-37520.55;-32220.37;1623.534;-40415.16;14.79457;4.655619;-38900.39;-27382.52;0.1032427;0.3003321;0;
-25204.31;-20148.67;807.1246;-31016.76;16.52102;4.583959;-26369.68;-16443.82;0.1031389;0.235063;0;
-12131.96;-6900.872;-557.3759;-18698.22;16.10228;5.383148;-13505.15;-3132.899;-0.09186675;0.2997942;0;
-10380.66;-7000.322;-1683.624;-16723.67;17.22518;5.511704;-11416.16;-4648.566;-0.2866765;-0.09031112;0;
10632.1;8474.625;-1391.173;8892.271;12.92096;6.109013;11101.24;6129.518;-0.2863884;-0.5449917;0;
21396.36;16919.45;-600.1092;26585.25;12.03732;6.169858;22869.82;13911.68;-0.156166;0.1052293;0;
16957.38;13107.16;243.7887;22939.7;8.206832;5.024948;18239.06;10526.07;0.233795;0.4949276;0;
15300.57;11203.94;1791.703;21319.83;4.849683;4.684984;16664.15;8453.073;0.03865806;0.1046262;0;
15483.19;11658.88;2923.739;20230.41;10.67196;1.867115;16543.06;8842.177;-0.4811195;0.1694884;0;
-7303.998;-6541.767;2572.102;-6833.885;10.25909;1.061444;-7869.24;-5990.288;-0.02586469;0.1693181;0;
-36588;-31346.99;1709.98;-39511.78;8.976964;-1.217042;-37958.66;-26536.81;0.104096;-0.02575403;0;
-24582.69;-19496.92;873.1507;-30350.79;10.23977;-2.823349;-25750.54;-15844.71;0.1039914;0.1042065;0;
-12003.2;-6779.145;-519.3397;-18511.22;0.38384;0.7295229;-13379.28;-3053.042;0.2338216;0.2340365;0;
-9994.959;-6802.318;-1657.058;-16327.81;-3.100146;0.7957728;-11017.33;-4479.693;0.1036519;0.03889932;0;
10988.89;8631.294;-1378.033;9317.765;6.146369;0.6610073;11480.44;6257.835;0.1685151;-0.2210091;0;
21372.4;16902.97;-609.9083;26605.08;6.609684;0.794309;22848.29;13899.55;-0.09152355;-0.02588504;0;
16942.75;13105.09;211.5731;22914.47;4.325867;1.329374;18225.93;10522.97;-0.2213663;0.2989777;0;
15303.25;11196.52;1738.999;21316.65;4.387893;1.997868;16666.19;8442.081;-0.1561765;0.2986773;0;
15548.75;11727.75;2873.618;20397.21;3.713899;-3.362713;16628.73;8905.486;-0.09105223;0.4932792;0;
-7099.26;-6381.753;2545.175;-6476.897;3.977611;-5.234796;-7629.385;-5834.198;0.2988433;0.3628488;0;
-36558.96;-31328.25;1686.642;-39452.65;-2.455771;-2.617262;-37922.6;-26522.56;0.5584124;-0.09228714;0;
-24580.32;-19493.33;845.4629;-30383.39;-6.003277;-3.418427;-25746.47;-15875.48;0.4279166;-0.02722706;0;
-11641.89;-6437.5;-532.0384;-18224.4;2.174429;-4.218727;-13032.6;-2743.513;0.03768259;-0.2221017;0;
-9719.951;-6438.605;-1658.063;-16068.58;2.305966;-4.884317;-10765.72;-4143.676;0.1026121;-0.6116826;0;
10948.6;8712.174;-1366.979;9381.606;-1.380047;-5.482256;11447.41;6315.732;0.4273457;-0.2862313;0;
21391.97;16924.44;-596.9298;26654.66;-0.2405601;-6.01261;22871.16;13921.61;0.7517529;-0.09104165;0;
16942.69;13093.06;203.4555;22906.06;-9.2153;-7.078235;18221.58;10509.65;0.4911283;-0.6106889;0;
15224.13;11127.56;1725.049;21257.38;-10.67991;-7.205089;16591.36;8366.885;-0.2889733;-0.4801406;0;
15505.63;11673.66;2866.116;20244.11;-7.453996;-11.88653;16563.7;8854.806;-0.02881361;-0.1548214;0;
-7227.011;-6489.074;2536.837;-6751.34;-8.384511;-14.48686;-7790.009;-5964.663;0.2960521;-0.2196332;0;
-36809.55;-31576.99;1670.723;-39712.84;3.881424;-6.903417;-38177.57;-26770.64;-0.09404947;-0.08947785;0;
-24917.47;-19825.26;822.157;-30685.21;7.896988;-5.221968;-26082.57;-16093.71;0.03597971;-0.479192;0;
-11792.9;-6586.015;-546.5128;-18369.86;7.018397;-12.98656;-13185.83;-2813.627;0.2308456;-0.9984492;0;
-9404.085;-6334.816;-1666.276;-15778.01;10.02545;-14.24612;-10436.72;-4089.407;-0.09422307;-0.5426746;0;
11207.96;8749.142;-1393.05;9590.646;8.675234;-10.8158;11715.1;6332.512;-0.4189651;-0.02239058;0;
21293.13;16828.94;-633.9689;26547.71;10.6089;-11.13985;22772.41;13843;-0.3535768;0.172534;0;
16857.93;13022.69;169.7957;22827.54;4.570021;-10.99469;18139.53;10421.27;0.1015499;0.3672626;0;
15209.53;11094.52;1692.328;21224.1;2.690395;-11.25157;16570.61;8355.486;0.2313825;0.4318609;0;
15578.32;11778.77;2840.113;20442.2;9.452846;-10.90535;16662.61;8925.8;0.1012153;0.3014923;0;
-7134.094;-6338.153;2508.955;-6481.598;9.308649;-10.29155;-7648.465;-5865.613;0.2310483;-0.153582;0;
-36583.64;-31317.9;1659.016;-39492.55;12.91662;-13.16141;-37940.85;-26586.02;0.4257182;-0.2183951;0;
-23916.29;-18833.28;866.1221;-29750.14;13.84164;-12.34439;-25087.26;-15554.2;0.3603231;0.04169376;0;
-10381.91;-5146.432;-490.754;-16990.14;13.4256;-16.41783;-11788.02;-1845.576;0.2300263;0.1066192;0;
-8667.269;-5504.89;-1633.03;-14879.86;14.14904;-17.94194;-9677.59;-3389.258;-0.09504149;0.04154474;0;
11431.48;9049.406;-1346.283;10108.21;6.632734;-7.608782;11995.51;6570.721;0.09995604;-0.2833337;0;
21561.84;17100.79;-585.2181;26874.53;3.81303;-6.261478;23047.3;14104.81;-0.03007908;-0.1531143;0;
17101.79;13250.24;209.4083;23031.68;4.478784;-0.1599224;18373.83;10665.28;-0.4848202;0.1069089;0;
15373.16;11283.3;1740.428;21407.23;2.866693;4.461938;16740.11;8523.154;-0.2244637;-0.2180353;0;
15723.96;11852.53;2885.572;20537.62;-2.427473;-7.19727;16794.96;9015.011;0.1005985;-0.4127182;0;
-6567.343;-5939.928;2564.083;-6003.438;-5.707563;-8.462714;-7112.345;-5451.765;0.2953995;-0.2174015;0;
-35757.84;-30569.01;1711.746;-38683.04;1.666538;-5.44004;-37134.61;-25821.08;0.4250373;-0.1522157;0;
-23938.75;-18836.24;879.5681;-29703.8;2.803939;-6.573222;-25107.37;-15410.48;-0.09512849;-0.02212805;0;
-10751;-5535.554;-477.1654;-17345.83;-2.692211;-2.748712;-12163.79;-2084.526;-0.6147717;0.2377636;0;
-8282.917;-5383.644;-1587.628;-14514.91;-2.823227;-0.8035063;-9304.933;-3288.903;-0.4842192;0.1725573;0;
11849.15;9207.122;-1299.301;10574.12;-1.949734;-5.491382;12411.8;6705.27;-0.2888307;0.04244923;0;
21523.55;17075.47;-550.4029;26869.47;-1.27819;-4.950001;23006.83;14092.66;0.1012636;-0.02256076;0;
17133.99;13290.71;236.1613;23049.85;-2.415005;-2.064822;18403;10694.01;0.4909659;-0.02253809;0;
15453.17;11356.46;1761.001;21482.73;-2.010437;-2.531628;16816.14;8600.08;0.6204072;-0.02251545;0;
15850.84;11960.01;2907.655;20754.84;2.814354;8.589778;16943.11;9116.628;0.4248818;-0.02249282;0;
-6127.325;-5626.724;2595.388;-5447.71;5.825636;11.93029;-6630.906;-5180.241;0.09961823;0.1724318;0;
-35499.31;-30328.53;1742.271;-38391.38;3.676329;5.689015;-36867.06;-25596.79;-0.0953839;0.1072912;0;
-24042.19;-18917.52;882.3887;-29808.66;4.274871;6.018213;-25211.63;-15439.94;-0.2901901;-0.4775227;0;
-10769.11;-5565.559;-500.8031;-17390.28;10.2988;-0.6190222;-12167.81;-2078.994;0.1648729;-0.2821409;0;
-8476.909;-5399.704;-1620.081;-14731.35;10.3558;-4.369322;-9512.025;-3301.524;0.3596092;0.1079467;0;
11567.66;9107.167;-1320.884;10283.21;18.51707;-1.752659;12104.23;6613.89;-0.2254582;0.0428709;0;
21578.86;17121.22;-541.229;26912.77;21.91471;-3.760324;23063.21;14138.49;-0.4201337;0.1077952;0;
17163.4;13311.61;254.3215;23094.44;6.55372;-4.828273;18438.35;10725.05;-0.02990744;0.1726542;0;
15363.79;11270.39;1772.553;21400.73;3.600374;-4.354541;16725.66;8515.273;0.229992;0.1075134;0;
15828.12;11936.46;2924.473;20719.84;-0.2216367;-11.91905;16923.2;9098.436;0.0998262;0.1723727;0;
-6148.68;-5598.115;2614.782;-5476.179;-5.446327;-13.58165;-6651.275;-5152.001;0.2946279;-0.1526372;0;
-35503.02;-30329.46;1759.459;-38395.47;1.190578;-7.070782;-36872.87;-25594.09;0.6841359;-0.4773206;0;
-24344.77;-19227.47;897.7479;-30068.7;0.6535183;-6.795745;-25520.58;-15585.88;0.3586118;-0.3469063;0;
-11394.24;-6196.272;-468.4054;-17960.48;-0.9547287;2.186613;-12785.03;-2521.308;-0.1614873;0.04324635;0;
-8639.11;-5709.71;-1566.476;-14909.25;0.653821;6.940082;-9633.652;-3571.933;-0.09635767;0.1731376;0;
11754.4;9151.794;-1284.262;10443.6;-6.982646;-0.7698064;12324.14;6668.62;0.03367383;-0.1518731;0;
21490.32;17040.72;-515.1076;26831.16;-9.521226;0.03476227;22974.85;14057.73;0.03364;-0.3466225;0;
17040.25;13203.08;310.3391;22973.64;2.344687;0.9055055;18311.83;10610.15;0.09857354;-0.08640486;0;
15390.19;11280.23;1850.128;21423.26;3.547779;0.3017492;16753.47;8520.249;-0.03146019;0.108584;0;
15790.01;11933.44;2995.474;20656.96;4.347522;4.722198;16874.41;9099.174;-0.2912979;-0.02145981;0;
-6387.892;-5779.939;2662.442;-5722.957;7.29089;6.057111;-6897.139;-5302.782;-0.2260379;-0.1513729;0;
-35845.49;-30633.96;1790.298;-38723.49;-3.701149;3.170759;-37208.7;-25871.5;-0.2258108;0.0436812;0;
-24571.36;-19458.13;931.9294;-30306.53;-4.836505;3.569471;-25744.23;-15738.63;-0.3555186;0.1086046;0;
-11610.5;-6408.157;-448.626;-18178.06;-3.491499;4.704594;-13007.38;-2678.126;-0.09529198;-0.08640651;0;
-9044.819;-5898.034;-1555.369;-15320.8;-3.622689;5.436679;-10074.87;-3770.916;0.2296405;-0.151287;0;
11467.25;9085.316;-1239.995;10131.04;-1.274524;7.172772;11992.34;6608.876;0.09947505;-0.346037;0;
21482.17;17018.76;-466.5745;26816.22;-1.608036;8.036222;22960.14;14031.94;0.2293098;-0.08581997;0;
16978.38;13130.42;338.0213;22914.22;14.87065;9.434788;18254.74;10539.43;0.2940467;0.239103;0;
15298.78;11190.69;1884.248;21327.09;22.29142;9.358325;16657.44;8425.43;-0.2259875;-0.2159087;0;
15712.96;11873.04;3033.12;20537.54;9.340952;13.43476;16815.26;9047.99;-0.3556951;-0.2156917;0;
-6529.844;-5819.336;2699.895;-5925.638;9.86743;14.69393;-7011.358;-5339.249;-0.09546832;0.3692311;0;
-35911.54;-30672.45;1827.4;-38794.75;15.08243;8.315914;-37275.38;-25906.79;-0.1603397;0.3038927;0;
-25057.71;-19967.2;939.6655;-30746.09;13.99555;6.767073;-26233.5;-16012.07;-0.1601786;0.1086854;0;
-12602.53;-7399.517;-460.0443;-19134.26;20.21077;2.339521;-13970.98;-3409.053;-0.03008299;-0.08632588;0;
-9480.334;-6392.475;-1551.252;-15780.99;20.7927;-2.016659;-10462.26;-4215.565;0.09988192;-0.0212718;0;
11579.55;9130.648;-1236.507;10191.53;14.34242;2.272214;12141.78;6669.858;0.03481422;0.3035863;0;
21465.48;17005.42;-467.6192;26788.33;13.05521;0.3944088;22949.02;14019.79;-0.09515545;0.1083792;0;
16959.64;13113.2;355.6558;22899.79;5.607358;-0.7446974;18231.77;10516.44;0.2947442;0.04330298;0;
15327.69;11223.09;1905.144;21357.39;1.78333;0.5957096;16690.89;8456.244;0.1645134;0.2381615;0;
15738.54;11871.41;3041.502;20575.89;4.594577;-14.4087;16830.39;9047.431;0.03441338;0.1729549;0;
-6442.722;-5851.402;2706.987;-5833.055;4.38889;-18.48012;-6938.227;-5381.803;0.3592155;-0.02212097;0;
-36091.36;-30880.47;1823.866;-38969.93;-0.8394567;-8.481338;-37451.16;-26104.71;0.2938872;-0.2170008;0;
-25530.93;-20436.86;920.3928;-31216.11;-2.579925;-8.472816;-26697.26;-16329.21;0.3585593;-0.2817501;0;
-13057.19;-7875.865;-476.9238;-19583.47;6.666068;-1.900097;-14413.26;-3775.431;0.163297;-0.3464343;0;
-10008.88;-6688.341;-1567.053;-16352.88;7.797469;1.584864;-11027.81;-4508.299;-0.1617038;-0.2161515;0;
11235.99;9025.25;-1239.954;9744.274;11.33961;0.1096467;11733.55;6586.797;0.03336068;0.3038044;0;
21503.8;17031.76;-456.3203;26808.53;13.74009;3.257612;22980.99;14038.74;0.0982945;0.4984012;0;
16905.35;13050.05;351.2325;22875.96;9.104581;-1.099368;18184.27;10447.37;-0.2916083;0.238031;0;
15222.81;11131.22;1901.132;21243.56;10.23353;-0.8973761;16580.75;8364.197;-0.42125;-0.1520122;0;
15751.4;11877.06;3048.238;20642.32;0.3102637;2.921431;16834.83;9046.57;-0.03102267;-0.4766962;0;
-6382.591;-5760.966;2696.943;-5704.719;-2.302016;3.588325;-6897.824;-5300.531;0.09894319;-0.4112498;0;
-35757.41;-30557.6;1810.678;-38642.25;0.244916;7.670678;-37124.52;-25785.81;0.03387643;-0.475804;0;
-25445.61;-20362.16;897.379;-31094.14;-2.098879;9.337421;-26617.31;-16158.26;0.4886138;-0.6052606;0;
-13570.17;-8375.592;-524.6834;-20041.23;12.23685;10.80166;-14929.38;-4180.224;0.5530902;-0.2148484;0;
-10131.92;-6977.453;-1606.924;-16500.16;17.38211;12.19745;-11129;-4791.386;0.4225997;0.1751716;0;
11497.29;9094.03;-1282.503;10017.99;8.523389;11.24743;12019.82;6659.94;0.4871424;0.2399629;0;
21463.95;16993.81;-509.4151;26791.73;8.648547;11.16915;22944.38;14001.3;0.3567183;0.3696565;0;
16864.81;13017.16;311.1533;22822.98;16.27567;11.62681;18139.93;10408.08;0.3563598;0.04444833;0;
15220.76;11121.65;1851.847;21261.17;17.79955;11.74909;16580.79;8353.62;0.2910344;-0.4103677;0;
15624.1;11735.08;2985.697;20398.34;13.49476;7.383517;16701.52;8903.446;0.03087263;-0.08511867;0;
-6334.348;-5793.605;2653.8;-5861.674;12.94534;5.969457;-6861.881;-5318.668;-0.03412573;0.4347056;0;
-35525.62;-30346.1;1772.731;-38459.57;8.712772;6.834237;-36898.46;-25568.94;0.3557126;0.4992361;0;
-25367.78;-20278.55;840.6674;-31016.91;6.158422;5.621677;-26539.29;-16109.86;0.4203225;-0.02100423;0;
-13687.66;-8519.096;-582.1501;-20209.13;8.430387;9.835831;-15043.35;-4358.357;-0.2297732;-0.3458198;0;
-10226.05;-7013.085;-1655.9;-16604.72;8.087123;11.16561;-11227.58;-4823.242;-0.164575;0.0443317;0;
11508.29;9182.168;-1320.529;10049.9;4.930189;8.743002;12018.12;6757.645;0.03049238;0.4340912;0;
21567.7;17091.21;-539.2192;26892.76;4.322999;9.805943;23043.03;14093.82;0.2253638;0.238753;0;
16879.98;13028.74;256.6416;22833.82;6.528481;7.250861;18156.36;10419.2;0.4850067;0.04361107;0;
15101.53;10998.13;1775.308;21141.58;6.589271;6.640729;16459.37;8231.171;0.0947153;0.173502;0;
15564.82;11704.69;2921.322;20407.01;10.93593;9.782132;16642.23;8869.528;-0.1652492;0.1083603;0;
-6637.262;-5976.343;2590.989;-6049.133;12.80095;9.035491;-7162.581;-5456.375;0.1597535;-0.2815527;0;
-35882.55;-30669.83;1719.728;-38812.07;13.19023;12.44254;-37241.51;-25894.46;0.2245603;-0.4112044;0;
-25072.8;-19977.36;831.4457;-30781.18;16.25746;12.43004;-26233.23;-15938.53;0.09440001;-0.1509219;0;
-13019.45;-7828.832;-580.3367;-19586.33;8.1368;11.34582;-14395.84;-3763.529;0.09430516;-0.1507703;0;
-9520.851;-6555.242;-1655.244;-15813.57;6.722105;12.47313;-10486.82;-4429.895;-0.1006916;-0.2155861;0;
12015.58;9445.695;-1308.067;10767.91;10.80119;0.403915;12598.25;6966.548;-0.03562311;0.1094672;0;
21616.87;17157.07;-543.8551;27006.46;7.105662;-2.476696;23099.45;14171.08;0.09434737;0.3042593;0;
16958.49;13110.53;260.4436;22894.47;25.65267;-1.938344;18229;10496.92;0.09425256;0.1740189;0;
15337.12;11241.1;1800.845;21384.39;31.05288;-5.285482;16690.82;8471.38;0.02919052;-0.2159601;0;
15749.12;11840.22;2935.402;20535.62;11.86432;5.704786;16868.83;9004.533;0.09412853;-0.1507757;0;
-6047.167;-5564.169;2617.08;-5535.018;12.72305;7.373627;-6492.591;-5051.829;0.09403395;0.2391798;0;
-34869.32;-29714.59;1753.726;-37830.45;5.476598;7.567167;-36231.07;-24942.89;-0.03599522;0.4988089;0;
-24384.46;-19269.41;843.3583;-30060.66;6.475473;10.43971;-25568.76;-15320.61;0.02900829;0.4983077;0;
-12811.03;-7634.369;-569.6855;-19328.19;2.316756;1.520731;-14186.83;-3618.181;-0.3608249;0.1080029;0;
-9506.433;-6518.817;-1639.919;-15732.61;-1.436616;0.3804936;-10496.32;-4323.064;-0.490397;0.1078944;0;
12017.52;9478.664;-1292.382;10830.32;37.07867;0.9159747;12581.99;7027.045;0.1597691;0.2377207;0;
21796.32;17340.64;-521.1268;27191.93;44.5435;-0.3576214;23279.06;14344.19;-0.1002608;0.1075471;0;
17113.52;13264.35;268.344;23040.21;61.57903;1.719209;18383.85;10651.83;-0.1651274;0.4322758;0;
15313.42;11211.34;1791.465;21352.05;78.06157;1.114635;16670.69;8441.72;0.2248426;0.2369394;0;
15738.09;11845.95;2936.089;20645.24;32.63679;4.93142;16823.19;9003.591;0.1596493;-0.0881354;0;
-6144.714;-5607.901;2615.08;-5465.659;25.5714;5.931209;-6659.805;-5092.64;0.4843256;0.3017572;0;
-35056.66;-29890.57;1748.105;-38016.05;41.68798;4.183693;-36431.14;-25137.65;0.3539043;0.1715193;0;
-24289.67;-19183.97;864.7292;-30009.98;39.10049;4.313455;-25465.19;-15359.17;0.2885813;0.04141229;0;
-12403.42;-7207.062;-535.7174;-18961.06;37.18617;3.103428;-13795.3;-3338.331;0.2882914;0.1713054;0;
-9095.407;-6152.112;-1612.669;-15300.21;35.2728;3.167293;-10048.3;-4056.099;-0.1018023;0.1061659;0;
12217.15;9605.776;-1275.779;11166.87;39.79268;-1.122675;12838;7105.728;-0.1666674;0.1710266;0;
21752.79;17291.37;-517.7529;27184.06;37.94404;-2.059247;23235.4;14301.69;-0.1664999;0.3007894;0;
17034.67;13191.7;279.0859;22938.74;51.83738;-3.597786;18296.76;10576.29;-0.1013653;0.1705525;0;
15258.3;11151.68;1798.791;21333.58;57.07756;-6.34041;16621.72;8374.702;0.02867125;0.1054138;0;
15613.5;11732.29;2926.947;20373.38;37.5954;5.320747;16689.5;8891.086;0.02864244;-0.02462684;0;
-6216.538;-5662.028;2617.598;-5771.646;36.15111;7.793647;-6741.208;-5165.912;-0.1662884;-0.5443408;0;
-34977.5;-29797.69;1761.99;-37979.11;25.79965;2.092511;-36352.91;-25046.33;0.3536175;-0.2839245;0;
-24200.29;-19097.53;874.165;-29892.12;19.27602;2.894082;-25379.6;-15237.48;0.4831968;0.1711322;0;
-12668.51;-7474.848;-531.9445;-19177.22;28.63475;-1.864432;-14052.34;-3570.429;-0.2319295;-0.0239418;0;
-9553.945;-6574.942;-1614.709;-15765.75;25.92666;-3.403166;-10504.56;-4446.165;-0.03679438;0.1060169;0;
12123.98;9539.365;-1278.724;10962.11;37.35384;-4.404429;12730.31;7057.444;-0.1017248;0.3008125;0;
21873.25;17408.32;-524.0361;27281.09;42.74229;-6.811328;23353.55;14415.88;-0.3614919;0.2355428;0;
17089.92;13249.44;258.3474;23004.68;27.69516;-2.584681;18354.1;10633.78;0.1586101;0.4302082;0;
15258.89;11147.8;1768.735;21321.51;27.59999;-2.916999;16624.48;8373.661;0.2883854;0.1049392;0;
15607.66;11740.78;2909.165;20433.52;25.76457;-1.641392;16679.73;8895.996;-0.1017085;-0.2200029;0;
-6253.513;-5680.983;2611.39;-5701.459;21.51814;0.2357184;-6783.917;-5202.126;-0.1665736;0.1050548;0;
-35182.89;-29974.4;1750.51;-38119.86;36.43335;-7.735304;-36550.43;-25230.08;0.0284958;-0.2848548;0;
-24417.66;-19311.62;866.7253;-30088.46;38.2054;-8.799259;-25583.62;-15467.86;-0.2963696;-0.4794706;0;
-13070.27;-7869.125;-529.2256;-19528.27;31.73665;-7.986622;-14441.36;-3949.471;-0.4260064;-0.1541521;0;
-10314.86;-7077.549;-1618.302;-16539.62;33.84822;-10.25596;-11300.5;-4836.29;-0.1007417;-0.5438012;0;
11629.21;9290.011;-1289.185;10352.81;15.86327;-0.3324206;12183.66;6868.533;-0.1656078;-0.08848346;0;
21773.03;17289.68;-526.1784;27142.36;9.551665;1.476453;23253.41;14276.73;-0.2953761;0.6262462;0;
17000.24;13152.35;265.7025;22939.7;23.40717;-3.816622;18271.56;10543.46;-0.2301119;0.04091088;0;
15213.71;11111.09;1773.334;21285.44;22.3783;-3.745804;16579.26;8335.063;0.1599233;-0.478869;0;
15559.79;11688.05;2903.702;20324.54;24.16447;-9.30144;16622.41;8845.068;0.22473;-0.1535511;0;
-6444.218;-5841.918;2597.062;-5997.757;25.0782;-11.56945;-6998.237;-5339.412;0.02960216;0.2364073;0;
-35224.1;-30029.26;1732.917;-38225.2;17.34984;-14.10312;-36606.54;-25269.64;0.2244744;0.3011371;0;
-24282.27;-19197.31;841.5599;-29997.5;13.38029;-17.30407;-25454.47;-15309.18;0.02934686;0.1708998;0;
-13223.37;-8029.895;-574.5431;-19673.42;21.80694;-13.93766;-14580.86;-4065.25;0.159252;-0.0891413;0;
-10542.34;-7328.706;-1673.882;-16823.95;24.33062;-14.39247;-11530.02;-5075.452;0.3539941;-0.2189864;0;
11694.06;9345.046;-1330.715;10268.98;-1.548994;-17.92804;12217.34;6925.602;-0.101133;0.04110299;0;
21805.13;17325.34;-563.1382;27150.16;-8.580035;-19.11566;23277.61;14307.15;-0.1659987;0.2359637;0;
16943.28;13086.45;214.8806;22897.58;2.815441;-16.14933;18214.69;10480.06;0.2239721;0.300694;0;
15158.28;11064;1719.814;21205.14;1.740885;-15.06137;16515.69;8273.013;0.1587797;0.2354245;0;
15629.27;11725.99;2859.075;20430.01;5.289109;-18.52929;16718.79;8908.126;-0.1662165;-0.2845508;0;
-6211.772;-5718.902;2552.261;-5706.497;7.963112;-17.238;-6714.282;-5133.084;0.4836239;-0.5441343;0;
-35522.18;-30356.11;1668.421;-38471.04;9.762795;-20.16786;-36881.21;-25526.63;0.7430072;-0.2187508;0;
-24800.61;-19699.5;771.4448;-30496.11;13.30296;-20.28156;-25965.98;-15687.47;0.222522;-0.08859632;0;
-13272.46;-8102.102;-625.9409;-19752.96;13.15587;-10.48192;-14629.7;-4004.292;0.09236372;0.2363294;0;
-10730.52;-7416.567;-1724.478;-16964.5;14.54917;-6.854372;-11748.86;-5107.009;-0.2325658;0.430994;0;
11422.96;9199.131;-1393.161;10115.86;17.08015;-3.699347;11922.69;6813.976;-0.3622668;0.1706915;0;
21853.61;17369.13;-625.2402;27211.32;15.99126;0.3902066;23328.55;14349.03;-0.1670008;0.1055527;0;
16953.99;13097.54;156.4329;22896.71;25.95552;2.064388;18227.05;10470.52;0.02806907;-0.2193901;0;
15181.51;11079.64;1652.992;21245.57;30.68487;4.272628;16541.9;8316.529;0.09300821;-0.08923496;0;
15432.78;11572.58;2765.677;20112.14;9.019402;6.679721;16483.08;8708.721;0.1578821;0.3656261;0;
-6566.537;-5892.104;2462.112;-6249.831;5.594087;7.275855;-7144.267;-5365.506;0.09275611;0.1703567;0;
-34730.68;-29527.33;1631.148;-37787.52;9.674303;8.608081;-36108.32;-24802.92;-0.1022391;0.1701855;0;
-23326.03;-18239.32;747.89;-29067.82;7.253685;8.934346;-24496.8;-14645.67;-0.4269731;0.1050472;0;
-12039.08;-6834.375;-676.4272;-18570.96;16.4898;1.691456;-13425.55;-3115.523;-0.1017074;-0.1549277;0;
-9348.272;-6334.068;-1775.32;-15519.06;17.8124;-1.257431;-10306.2;-4204.796;0.2232315;-0.2197394;0;
12252.08;9714.764;-1435.206;11130.4;23.48793;-0.3854507;12843.12;7206.898;-0.2967315;-0.4144206;0;
22060.38;17591.3;-668.18;27479.2;27.08165;-1.92561;23543.61;14595.45;-0.4913354;0.1057345;0;
17298.94;13454.98;114.2234;23215.84;21.42738;-4.201034;18567.02;10830.11;-0.1010376;0.625367;0;
15486.54;11376.29;1620.32;21549.31;21.87534;-5.201556;16847.38;8604.155;-0.1659034;0.1049999;0;
15723.63;11849.87;2729.415;20559.45;12.67634;-5.464262;16805.53;8987.142;-0.1007694;0.03992704;0;
-6230.563;-5645.202;2397.12;-5670.672;6.166863;-6.530437;-6749.404;-5141.417;0.02926654;0.234789;0;
-34455.21;-29272.12;1540.984;-37468.25;7.031323;0.241218;-35824.24;-24551.52;-0.1006975;0.039651;0;
-22966.84;-17880.25;650.9445;-28708.79;-3.625662;2.920171;-24136.04;-14462.1;-0.03562902;-0.2202582;0;
-11904.91;-6716.007;-783.3327;-18357.49;14.1952;-3.512942;-13289.74;-3174.547;0.1593088;-0.5448736;0;
-9658.443;-6536.159;-1890.426;-15777.49;18.33314;-3.643317;-10638.99;-4384.654;-0.0357533;-0.2844567;0;
12056.37;9632.395;-1524.366;10952.11;-36.07396;-0.02269968;12639.33;7136.994;-0.5554561;0.3655025;0;
22028.69;17553.49;-738.4474;27442.48;-48.63001;1.183016;23509.96;14543.64;-0.1650939;0.3651353;0;
17134.33;13281.45;38.74809;23051.23;-43.95945;-0.09084851;18397.42;10670.17;0.3548107;0.1698663;0;
15375.6;11266.52;1561.444;21445.55;-50.8815;0.9139867;16737.64;8482.764;-0.03534988;0.1047283;0;
15644.68;11780.35;2684.341;20425.88;-37.76858;1.984795;16708.15;8929.309;-0.1002817;-0.2202136;0;
-6321.212;-5682.274;2352.34;-5842.109;-34.31438;2.451682;-6856.784;-5195.381;0.3545904;-0.2849597;0;
-34494.32;-29283.25;1509.993;-37523.14;-26.10823;8.74537;-35857.84;-24564.31;0.2242995;0.04016333;0;
-23354.21;-18270.38;617.5483;-29074.12;-19.65261;11.21495;-24529.1;-14629.14;-0.360632;0.04012297;0;
-12624.52;-7429.971;-822.6611;-19069.5;-4.829754;10.93575;-14002.17;-3667.681;-0.5551716;-0.08985202;0;
-9985.371;-6890.585;-1907.539;-16200.16;5.892367;13.00111;-10949.97;-4725.774;-0.4896465;0.1051403;0;
12118.99;9659.132;-1531.841;10882.78;-3.625374;10.17489;12692.12;7170.638;-0.5541218;0.1050346;0;
22090.92;17616.16;-735.5765;27492.6;0.4641061;10.0307;23568.52;14615.76;-0.163761;-0.02500558;0;
17262.75;13409.69;75.63026;23193.31;-6.568958;11.62821;18528.74;10777.59;0.09627295;0.1699216;0;
15506.09;11400.57;1603.068;21564.34;-10.84927;11.01368;16860.9;8635.352;0.09617621;-0.02515119;0;
15682.68;11794.37;2715.616;20516.32;5.170191;14.0837;16761.98;8921.792;0.4858836;-0.1550606;0;
-6168.446;-5587.298;2396.046;-5648.922;5.499789;14.20352;-6677.289;-5055.729;0.3554607;-0.08993746;0;
-33939.14;-28758.56;1571.489;-37014.12;5.427889;11.64402;-35300.42;-24064.44;0.09523419;-0.4796511;0;
-22147.47;-17057.66;699.4729;-27946.36;7.632262;10.02473;-23327.67;-13893.93;0.2900405;-0.2192998;0;
-10925.2;-5720.008;-735.5402;-17455.3;-3.694912;10.88543;-12328.06;-2414.174;0.4846511;0.1057572;0;
-8803.568;-5781.852;-1838.309;-14930.01;-4.830276;10.53958;-9803.469;-3729.195;0.6140988;-0.1542184;0;
12365.08;9840.437;-1462.931;11343.92;-7.638461;2.290333;12936.22;7288.688;0.1587104;0.0408386;0;
22281.23;17821.44;-651.368;27725.96;-9.907962;0.07759456;23762.48;14822.59;-0.1013185;0.1057649;0;
17542.29;13680.54;155.1626;23450.25;-2.931781;-2.266825;18804.69;11061.3;0.1586527;-0.02427605;0;
15611.06;11522.73;1673.681;21688.79;-3.330977;-5.144753;16974.08;8739.063;0.2234606;0.105683;0;
15876.5;11944.3;2780.442;20743.29;8.796159;2.965108;16941.81;9084.604;0.3531708;0.1705442;0;
-5916.758;-5463.681;2440.599;-5339.795;14.01126;4.770668;-6462.608;-4969.496;0.02797921;0.2353402;0;
-33664.8;-28538.11;1587.324;-36723.23;4.217915;1.684781;-35042.26;-23852.63;-0.1669509;0.300071;0;
-22122.1;-17038.84;678.7476;-27907.98;5.084332;2.218952;-23303.34;-13769.35;0.1580535;-0.0250672;0;
-11220.29;-6039.002;-771.7681;-17737.35;-0.212062;3.958156;-12605.71;-2646.596;0.2878294;-0.2849114;0;
-8718.46;-5861.161;-1857.759;-14886.35;-4.163964;4.021162;-9687.662;-3786.706;0.3525075;-0.08972307;0;
12614.08;9901.262;-1484.048;11561.9;6.557489;5.892644;13191.23;7370.368;-0.1026181;0.2352038;0;
22137;17676.43;-682.3651;27591.75;8.627005;7.293365;23615.01;14677.66;-0.1674823;0.2999348;0;
17467.86;13630.63;141.9065;23381.75;-4.442481;-0.617828;18733.13;11006.13;0.3524247;-0.02520328;0;
15706.84;11583.88;1669.215;21774.88;-6.782542;-2.224736;17065.69;8811.211;0.2221359;-0.1551126;0;
15745.25;11884.08;2766.017;20598.83;-3.158404;-0.9498864;16815.78;9015.422;-0.2328587;0.1698799;0;
-6154.506;-5531.001;2426.407;-5574.254;-5.432406;-2.28853;-6681.689;-4999.956;0.09221202;0.03977454;0;
-33765.93;-28567.42;1579.799;-36800.39;4.61976;2.670324;-35128.38;-23884.34;0.4819234;-0.2851021;0;
-21890.63;-16812.3;690.0958;-27663.13;7.428157;3.80635;-23070.12;-13748.38;-0.03829956;-0.4797177;0;
-10747.2;-5539.066;-745.8137;-17260.02;0.1870245;2.596955;-12151.56;-2294.613;-0.2981305;-0.1543989;0;
-8566.132;-5630.936;-1840.201;-14637.75;1.526007;2.72819;-9530.098;-3552.362;-0.1678962;0.1056256;0;
12526.46;9909.43;-1472.474;11600.14;-5.508124;4.667953;13132.5;7363.332;-0.4275969;-0.0893826;0;
22265.34;17808.71;-671.9271;27721.54;-7.3786;5.400075;23746.23;14811.16;-0.03736316;-0.02432545;0;
17571.9;13714.4;139.0908;23459.89;-3.887585;-0.5667098;18835.6;11088.93;0.09260907;0.1056337;0;
15663.22;11560.31;1647.193;21731.09;-5.624991;-2.64255;17018.24;8793.72;-0.297288;0.1704949;0;
15814.6;11916.19;2735.802;20728.99;6.50445;-3.242741;16905.69;9043.098;-0.1020873;0.3652256;0;
-5956.353;-5370.769;2384.604;-5297.811;10.58375;-6.320637;-6446.791;-4817.729;0.09291731;-0.02494544;0;
-33266.56;-28111.84;1538.194;-36342.14;5.884067;-2.697268;-34633.09;-23440.73;-0.03711073;-0.4796917;0;
-20950.37;-15935.08;676.1749;-26809.59;9.963991;-2.828524;-22144.18;-13196.3;-0.1670081;-0.08940572;0;
-9476.185;-4345.479;-747.8829;-16083;-2.973116;-9.590775;-10899.82;-1463.709;-0.03690564;-0.02434855;0;
-7267.737;-4677.631;-1849.234;-13276.82;-7.927598;-10.38493;-8204.655;-2746.202;-0.1018359;-0.2841935;0;
13161.97;10233.09;-1492.398;12437.76;16.73009;-14.5943;13836.29;7619.364;-0.4915376;0.04092882;0;
22359.02;17930.37;-701.42;27856.3;22.20563;-16.18723;23847.76;14945.43;-0.166207;0.2357897;0;
17811.22;13963.15;117.0613;23679.49;8.451941;-12.62093;19067.92;11339.14;0.09382936;-0.08928391;0;
15907.48;11799.36;1627.341;21990.75;8.041307;-13.07713;17268.13;9028.275;-0.1661343;-0.4789982;0;
15969.19;12055.71;2707.943;20876.66;11.31576;-4.892252;17063.23;9175.609;-0.03603267;-0.4135496;0;
-5537.009;-5050.463;2364.549;-4890.126;10.03159;-1.404285;-6015.059;-4567.191;0.09393822;0.04163732;0;
-32732.83;-27582.61;1521.565;-35823.11;12.70083;-5.555755;-34095.96;-22955.75;0.02887649;0.2364975;0;
-20530.98;-15532.03;650.0356;-26377.15;12.68806;-4.009565;-21718.25;-12924.13;-0.1010872;-0.08857683;0;
-9172.693;-4075.939;-783.616;-15768.35;4.704713;-5.546144;-10590.12;-1360.407;-0.2958876;-0.02352049;0;
-7318.607;-4622.895;-1898.205;-13326.67;1.01629;-6.076434;-8273.042;-2692.573;-0.03572099;0.3663072;0;
12974.91;10132.12;-1543.757;12255.28;2.890303;-4.931619;13629.94;7540.865;0.09424958;0.1710371;0;
22366.8;17930.68;-750.1973;27867.39;1.146087;-6.065373;23853.33;14932.18;-0.0357798;0.2358326;0;
17782.56;13940.63;57.77578;23649.22;-2.203967;-2.241313;19038.12;11329.24;-0.2306459;0.6253997;0;
15905.56;11793.01;1568.146;21969.08;-2.13538;-1.167334;17264.01;9012.769;0.09442259;0.3649019;0;
15993;12107.11;2658.927;20979.79;-12.31366;-6.390707;17083.3;9242.436;0.2242624;-0.02526881;0;
-5882.04;-5324.866;2305.744;-5089.086;-16.65555;-6.786184;-6370.563;-4778.48;-0.4256364;-0.09021076;0;
-33177.38;-28018.48;1453.167;-36251.4;-2.639989;-7.851092;-34542.94;-23347.94;-0.6201107;0.2347166;0;
-20790;-15785.85;584.6744;-26657.51;-1.498261;-8.713981;-21977.17;-13085.84;0.0301858;0.03957872;0;
-9492.745;-4364.975;-841.1653;-16037.86;2.120567;-4.418378;-10912.68;-1535.757;0.4199595;-0.1553631;0;
-7494.19;-4808.848;-1942.766;-13509.98;6.940231;-2.873393;-8444.373;-2856.83;0.4195375;0.1696298;0;
12983.3;10120.73;-1589.897;12213.59;-5.926489;-3.607317;13641.64;7529.087;-0.1655901;-0.09041006;0;
22284.28;17849.58;-789.4506;27776.18;-6.523746;-2.130068;23767.96;14856.1;-0.5552278;-0.1552866;0;
17822.43;13975.52;42.45617;23675.74;-2.431355;-0.5203987;19073.07;11364.37;-0.2948005;0.0397715;0;
15926.7;11821.08;1547.626;22004.06;-2.02677;0.618834;17286.46;9044.178;-0.424439;-0.1551705;0;
15934.48;12020.27;2632.243;20834.4;0.9220275;3.498356;17007.47;9144.004;-0.2940778;-0.02507989;0;
-5521.582;-5077.093;2305.667;-4914.461;0.98845;4.365619;-6048.456;-4592.939;0.09602175;0.1698474;0;
-32945.5;-27800.33;1449.842;-36042.3;10.633;7.710379;-34321.29;-23183.35;-0.1639441;0.2996114;0;
-21237.15;-16195.81;553.5541;-27063.25;13.23428;9.778981;-22415.57;-13329.34;-0.03384468;0.03944094;0;
-10166.69;-5022.708;-874.722;-16687.1;11.68074;3.137966;-11582.67;-1989.534;0.2260587;-0.2854354;0;
-8223.81;-5299.301;-1991.141;-14316.08;13.61139;1.86226;-9191.441;-3346.258;-0.1639725;0.2345902;0;
12444.65;9780.134;-1663.538;11462.04;2.679374;1.860389;13073.69;7172.647;-0.03387306;0.0394524;0;
22063.52;17596.04;-870.9829;27491.31;-0.3374288;-0.6868322;23542.92;14615.63;0.6158344;-0.4153586;0;
17539.94;13705.98;-42.80485;23425.21;-0.2697408;4.605388;18794.61;11084.7;0.6152155;-0.09010457;0;
15689.71;11565.8;1471.071;21752.46;-2.747716;4.868692;17049.14;8790.505;-0.1000433;0.1698553;0;
15662.68;11816.96;2567.697;20554.35;-2.678582;-0.2937641;16723.22;8956.021;-0.3598122;0.234652;0;
-6606.729;-5933.899;2238.906;-5956.286;-4.953067;-0.8963153;-7143.825;-5384.71;-0.1645486;0.1694489;0;
-34217.96;-29014.55;1408.104;-37270.7;1.414923;-4.311422;-35595.81;-24331.6;-0.09941593;0.1692786;0;
-21450.37;-16420.51;563.738;-27319.33;1.748294;-5.311834;-22634.18;-13613.72;0.09558599;0.2340759;0;
-10006.76;-4811.619;-845.7453;-16535.27;0.9432299;-4.904599;-11408.54;-1838.043;0.2254246;0.2338407;0;
-8380.11;-5393.786;-1968.018;-14446.87;1.545495;-4.832688;-9357.304;-3357.947;0.2901655;0.1686384;0;
12348.11;9753.272;-1645.983;11353.53;-5.35591;-1.612712;12945.77;7201.09;-0.0349628;-0.09140046;0;
22070.11;17604.8;-855.8505;27488.85;-5.751694;0.06342041;23547.89;14605.07;-0.2298297;-0.156276;0;
17526.63;13680.94;-22.28413;23416.94;-14.58815;2.139827;18783.83;11069.05;0.6149766;0.03878309;0;
15696.24;11579.94;1480.951;21773.3;-17.4529;3.075316;17056.6;8806.218;0.6793261;0.6884176;0;
15555.55;11713.45;2556.391;20350.33;-11.74194;10.30626;16609.04;8847.532;0.02897008;0.5577912;0;
-6851.217;-6152.078;2226.081;-6365.341;-12.06591;13.31002;-7408.667;-5575.738;0.1588757;-0.2873448;0;
-34175.66;-28975.63;1405.13;-37282.67;-2.541966;5.86178;-35545.57;-24329.27;0.2236834;-0.1571214;0;
-21248.02;-16234.34;567.0453;-27127.18;0.5420471;4.71718;-22427.47;-13481.96;0.09352392;-0.1569635;0;
-9819.011;-4658.147;-828.9169;-16398.19;5.497995;5.248304;-11239.14;-1688.012;0.288332;-0.2217731;0;
-7929.042;-5095.932;-1924.845;-14000.43;9.845752;4.573201;-8846.932;-3150.861;0.02817288;0.1032864;0;
12665.78;9941.227;-1582.176;11726.12;1.932605;-0.3210264;13349.38;7312.704;-0.4266268;-0.02675204;0;
22048.05;17589.87;-791.8578;27495.42;1.394799;-2.397114;23531.06;14614.17;-0.1663288;-0.1566598;0;
17545.79;13712.2;34.02317;23427.12;-1.353269;1.222312;18796.57;11092.67;0.3535771;0.1683343;0;
15774.51;11647.56;1540.482;21839.21;-4.232297;1.35505;17138.18;8873.474;0.3532218;0.6229365;0;
15637.83;11807.04;2615.424;20490.64;-2.150963;3.162106;16694.22;8951.515;0.02803019;0.2325066;0;
-6546.227;-5819.955;2273.779;-5960.229;-2.752014;4.096689;-7084.518;-5251.033;0.09296937;-0.2224985;0;
-33832.73;-28607.37;1444.816;-36911.82;-6.566666;6.236027;-35209.16;-23926.12;0.0279086;-0.02737287;0;
-21091.24;-16067.8;595.8215;-26973.46;-7.565422;7.569419;-22282.48;-13371.67;-0.1020541;-0.09231271;0;
-9730.11;-4554.625;-826.5001;-16287.92;-6.888235;6.021206;-11155.72;-1681.444;0.2228851;-0.1571873;0;
-8113.72;-5190.43;-1953.603;-14207.45;-8.823697;6.216105;-9103.072;-3158.698;0.1576938;-0.09206201;0;
12375.78;9744.094;-1631.988;11391.83;3.107887;3.396576;12984.34;7189.807;-0.03736664;-0.2219042;0;
21960.71;17503.23;-856.3307;27396.68;7.325299;1.785694;23442.21;14504.18;0.02763825;-0.1567139;0;
17538.57;13701.65;-23.41982;23422.96;-6.547162;0.3772586;18795.73;11096.66;-0.1672916;0.03834561;0;
15778.56;11647.39;1486.032;21856.79;-7.948079;-2.503325;17139.09;8870.169;-0.03718877;-0.02666026;0;
15458.34;11664.6;2527.765;20183.21;-8.140187;1.986985;16508.2;8809.345;-0.0371514;-0.2865028;0;
-7062.051;-6243.894;2170.029;-6647.112;-11.21347;2.654818;-7609.294;-5682.211;-0.1020814;-0.09131293;0;
-34572.68;-29322.56;1333.674;-37655.5;-2.963177;-5.653611;-35927.71;-24638.17;0.2878252;0.1686482;0;
-21828.18;-16794.73;457.6795;-27723.2;-0.8167461;-6.451664;-22995.03;-13917.37;0.2225687;0.1035114;0;
-10301.73;-5095.395;-959.8806;-16884.4;-9.65816;-10.26315;-11703.79;-2052.579;0.222345;0.1683747;0;
-8422.07;-5492.307;-2062.033;-14554.61;-10.31804;-12.86511;-9350.83;-3485.186;0.1571543;0.1032382;0;
12309.08;9671.296;-1727.394;11198.25;-7.226215;-3.139901;12966.31;7092.454;-0.4926771;0.03816712;0;
21929.09;17463.09;-941.8651;27330.18;-7.085232;-1.730104;23410.19;14476.32;-0.1673453;0.1680635;0;
17392.59;13559.11;-120.9246;23298.37;-2.924927;-0.589717;18645.66;10951.75;0.1576595;0.2978293;0;
15738.69;11607.12;1392.53;21796.17;-1.381746;1.554329;17104.38;8830.56;-0.03740089;0.1675953;0;
15522.34;11720.33;2468.683;20316.1;0.8304448;-3.336926;16558.91;8883.843;0.222506;0.2323943;0;
-7310.994;-6487.942;2115.347;-6814.879;3.709022;-4.204289;-7886.213;-5844.623;0.1573151;0.2971281;0;
-34753.73;-29509.83;1290.76;-37859.63;-4.064237;-3.530297;-36132.96;-24763.8;0.02722238;-0.09297451;0;
-21464.75;-16436.83;451.9468;-27378.82;-6.404677;-4.330484;-22645.67;-13628.58;0.4169991;-0.02791375;0;
-9583.797;-4392.908;-955.5188;-16193.48;3.514744;-4.995962;-11003.33;-1463.478;0.6764494;0.5568204;0;
-7813.427;-4926.161;-2063.142;-13880.57;4.315495;-4.321113;-8791.739;-2960.973;0.350933;0.1014895;0;
12462.91;9820.598;-1726.503;11561.13;0.9622567;-11.55074;13080.48;7240.579;-0.4290277;-0.3533839;0;
21950.41;17494.99;-931.9478;27414.98;0.9612898;-14.21839;23431.96;14506.2;-0.1037599;-0.0281921;0;
17504.11;13666.19;-83.62482;23389.44;-5.80483;-2.884297;18757.97;11059.91;0.2211811;0.1667383;0;
15905.89;11767.09;1455.935;21981.71;-9.41632;-1.54174;17270.56;8997.949;-0.3637472;-0.09329865;0;
15570.54;11796.83;2518.625;20225.83;-4.717809;2.277775;16590.02;8942.229;-0.03854503;-0.3530743;0;
-7327.528;-6410.32;2151.34;-7016.408;-5.182559;6.428306;-7932.781;-5828.711;-0.03850631;-0.2227848;0;
-34370.12;-29088.46;1334.994;-37480.46;-11.74144;-5.031991;-35746.51;-24403.34;-0.6231737;0.03730841;0;
-21216.75;-16174.41;480.4877;-27073.31;-13.4036;-6.969378;-22391.01;-13379.54;-0.2977108;0.1022383;0;
-9702.773;-4495.991;-949.7452;-16324.83;-13.12269;-1.53688;-11126.97;-1563.45;0.02742504;-0.02779915;0;
-7557.129;-4829.397;-2042.866;-13604.74;-13.51164;-2.808012;-8482.616;-2923.882;-0.1675045;-0.2226732;0;
12756.2;9973.877;-1689.365;11886.39;-12.62644;0.2759639;13435.49;7346.021;-0.1673362;-0.09251482;0;
21940.52;17500.64;-897.1273;27404.74;-12.01151;1.213448;23425.05;14528.56;0.02773393;-0.1573892;0;
17595.3;13749.2;-38.68817;23469.56;-8.248399;-5.820858;18844.51;11135.22;0.2226081;-0.2221984;0;
16038.93;11922.34;1507.449;22080.07;-5.628143;-7.556504;17397.73;9149.819;0.09244972;-0.1570078;0;
15822.4;11972.87;2561.403;20736.95;-6.493144;-7.883826;16888.95;9128.429;-0.3624146;0.038052;0;
-6787.581;-6077.738;2173.742;-6116.866;-5.0801;-10.68913;-7310.897;-5475.642;-0.6868871;0.1029811;0;
-33884.82;-28690.17;1327.42;-36994.7;-0.1848751;-6.391539;-35263.51;-23968.44;-0.4263276;-0.09202439;0;
-20656.86;-15678.96;465.9868;-26568.36;2.092486;-6.519083;-21849.49;-13080.05;-0.1010625;-0.02696459;0;
-8718.784;-3598.723;-962.6697;-15374.4;1.35345;-13.41165;-10153.56;-997.2679;-0.1009609;0.1029972;0;
-6778.947;-4133.852;-2063.539;-12769.02;2.021675;-15.47459;-7759.76;-2311.246;0.09404255;-0.1569757;0;
12923.73;10079.39;-1704.942;12293.14;1.350058;-16.59769;13564.24;7479.125;0.02898071;-0.4166873;0;
21995.76;17566.64;-909.7213;27519.05;-0.7274032;-17.25084;23480.53;14582.88;0.2238536;-0.02646457;0;
17670.77;13819.67;-55.2363;23510.48;6.574345;-21.52029;18923.64;11215.35;0.483498;0.1034967;0;
16113.71;11996.78;1504.848;22169.41;8.844915;-22.36944;17469.55;9226.246;-0.0367265;-0.221444;0;
15963.76;12094.85;2567.957;20857.6;-4.694281;-19.3328;17047.63;9256.565;0.2231798;-0.0912868;0;
-6718.233;-6032.428;2169.388;-6036.104;-6.229805;-18.71058;-7210.311;-5385.802;0.5477922;0.1037069;0;
-33671.87;-28496.4;1319.915;-36770.88;-5.888753;-11.79266;-35034.61;-23782.92;0.1574377;-0.02633194;0;
-20288.65;-15347.55;463.9872;-26214.21;-6.217628;-8.90061;-21468.58;-12914.68;0.02734487;-0.09127282;0;
-8480.893;-3397.721;-952.2361;-15134.3;-2.460337;-6.949223;-9907.731;-921.0833;0.1572521;0.1037209;0;
-6455.432;-4036.578;-2048.774;-12405.83;-1.855628;-4.664882;-7403.265;-2194.876;0.2220614;-0.09128533;0;
13249.06;10192.09;-1714.055;12647.47;13.55256;-3.65545;13935.53;7593.098;0.2218383;-0.4160303;0;
22070.18;17663.56;-934.6298;27593.59;20.77261;-1.106487;23556.86;14680.06;0.2865827;-0.09077558;0;
17735.81;13896.17;-80.05731;23585.35;13.51806;-10.61677;18984.68;11290.6;-0.1035093;-0.02571703;0;
16247.83;12120.03;1476.366;22286.35;15.04472;-13.15139;17602.07;9349.379;-0.6881114;0.1692109;0;
16093.99;12258.21;2536.255;21100.34;18.51223;-6.172074;17180.35;9407.841;-0.2326486;0.3639429;0;
-6419.545;-5675.318;2139.374;-5548.073;17.08711;-6.098889;-6892.651;-5121.625;0.1573893;-0.0262269;0;
-33177.95;-27975.18;1296.74;-36242.99;18.74488;-3.078651;-34547.07;-23281.27;-0.4274749;-0.2860699;0;
-19616.54;-14756.38;438.7116;-25573.31;16.44887;-0.463284;-20813.68;-12501.42;-0.4920128;0.1040216;0;
-7431.804;-2410.607;-984.2954;-14199.86;13.01609;-4.280724;-8885.565;-471.8102;0.09318769;0.1039171;0;
-5599.301;-3175.924;-2076.866;-11548.01;13.13673;-3.807542;-6593.3;-1680.15;0.2230287;-0.02612204;0;
13434.98;10387.87;-1719.442;13048.98;-11.39149;0.5500526;14099.71;7778.503;0.1578373;0.2337736;0;
22157.46;17757.3;-922.8953;27744.37;-19.95386;1.152346;23646.52;14775.06;0.02774401;0.1685714;0;
17879.73;14031.89;-70.92696;23699.29;-5.19805;6.308752;19128.05;11433.12;-0.1022185;0.03846727;0;
16352.94;12245.99;1498.949;22395.37;-6.197205;8.847643;17703.42;9477.56;0.09278619;0.103396;0;
16324.53;12421.78;2571.965;21368.65;0.4404541;2.877515;17433.65;9577.622;0.1576603;0.1682594;0;
-5958.083;-5399.017;2164.272;-5011.973;4.525848;2.472726;-6392.444;-4793.595;0.0275672;0.298025;0;
-32678.77;-27526.92;1299.031;-35733.79;2.44422;1.532481;-34030.7;-22830.27;0.09250684;-0.02711114;0;
-19824.65;-14890.88;412.4209;-25722.2;4.585217;-0.2775982;-21017.33;-12433.06;0.09241389;-0.2219859;0;
-8076.497;-3085.453;-1016.931;-14732.24;5.518616;6.420852;-9529.882;-694.1514;-0.03761365;-0.09182819;0;
-5640.711;-3405.362;-2097.147;-11534.02;5.379349;9.42851;-6615.251;-1705.804;0.02739148;-0.3516053;0;
13587.86;10409.66;-1753.899;13230.19;8.923917;-2.168706;14278.24;7776.316;0.2872333;-0.2213173;0;
22022.77;17638.36;-966.6254;27610.15;11.0584;-4.175954;23511.01;14673.53;0.2219774;0.3636112;0;
17808.75;13967.4;-96.52854;23629.72;-2.684087;4.334831;19057.44;11367.93;-0.2330171;0.03840908;0;
16281.36;12161.48;1464.471;22333.49;-5.293358;3.459697;17633.83;9397.098;-0.622587;-0.09156419;0;
16199.36;12332.67;2526.278;21217.1;-2.27393;13.50342;17308.59;9495.508;-0.4920267;0.4282666;0;
-6084.251;-5434.032;2127.751;-5174.212;-3.811886;17.10693;-6515.099;-4852.795;0.1581411;0.03803217;0;
-32789.63;-27629.94;1267.732;-35871.32;5.435345;5.367968;-34154.42;-22915.2;0.3528842;-0.1569081;0;
-19409.58;-14618.39;407.3273;-25399.06;7.773432;4.290847;-20610.71;-12381.94;0.09266027;-0.2217177;0;
-7186.62;-2264.47;-998.6567;-13972.4;9.306839;-1.205881;-8644.221;-401.8721;0.2874692;-0.2864623;0;
-5224.21;-2903.717;-2082.311;-11130.47;10.50294;-5.022636;-6230.572;-1474.242;0.222213;0.1036296;0;
13572.66;10462.8;-1736.657;13266.44;14.84566;-2.27135;14238.7;7851.506;-0.102847;-0.1563439;0;
22100.74;17717.32;-958.4275;27696.6;17.71113;-3.742631;23590.19;14744.91;-0.03777631;-0.2861215;0;
17786.1;13944.11;-115.9812;23603.88;6.373832;-4.341717;19032.71;11348.08;0.1571637;0.0390027;0;
16213.4;12099.2;1441.478;22257.89;6.032635;-4.538303;17563.12;9343.304;-0.1028636;-0.2858732;0;
16240.71;12375.18;2517.894;21309.47;-3.886412;-5.337538;17347.66;9528.692;-0.3626296;-0.2206186;0;
-5934.502;-5287.442;2130.932;-4939.818;-9.575934;-6.202892;-6373.324;-4696.596;0.2874082;0.5592112;0;
-32511.29;-27338.23;1282.653;-35583.42;7.512993;0.9703313;-33873.73;-22654.79;0.3520867;0.6236166;0;
-19503.2;-14659.23;415.7373;-25471.46;8.242378;4.117432;-20703.72;-12319.99;-0.4278752;-0.1566181;0;
-7815.659;-2863.406;-1008.527;-14538.16;13.66008;-6.067806;-9267.563;-679.78;0.02732616;-0.4163301;0;
-5591.326;-3337.367;-2094.452;-11500.08;17.66484;-7.200418;-6540.742;-1732.521;0.2222007;0.03885962;0;
13570.96;10380.76;-1750.66;13239.02;9.409045;-4.045047;14288.99;7756.202;-0.1678266;0.2337226;0;
21960.6;17570.26;-982.2548;27545.41;10.2029;-4.308914;23445.04;14605.74;0.2221461;0.03858573;0;
17626.14;13792.31;-143.6576;23435.64;1.819902;-0.2187476;18866.35;11200.08;0.4168249;-0.1563551;0;
16131.62;12013.99;1407.457;22189.05;-1.664551;1.857943;17489.74;9252.193;0.09156937;-0.09123062;0;
16139.46;12256.89;2479.253;21087.88;2.824124;-0.5553093;17232.57;9428.897;-0.1034247;0.1687304;0;
-6372.445;-5808.338;2097.016;-5579.542;1.214672;-0.3538025;-6838.06;-5195.168;0.02661394;0.1035935;0;
-33391.74;-28258.21;1247.335;-36511.04;3.490627;5.206014;-34763.55;-23511.14;0.09155454;-0.2863146;0;
-20094.28;-15115.76;395.4464;-26039.35;3.084978;6.406476;-21283.73;-12685.37;0.2863646;-0.2210596;0;
-7814.216;-2757.037;-993.3156;-14549.95;8.306791;7.203834;-9253.517;-575.1291;0.3510442;0.3638687;0;
-5516.203;-3246.036;-2073.368;-11419.97;11.91479;8.670098;-6505.892;-1660.646;0.2207568;0.168601;0;
13509.95;10373.96;-1742.981;13213.78;-0.01989928;3.704771;14172.89;7775.999;0.3504696;-0.1564051;0;
21947.49;17571.57;-985.2032;27556.74;-1.35905;3.299151;23435.16;14601.09;0.2201828;0.03865404;0;
17595.1;13759.49;-159.2842;23406.47;2.192289;2.827078;18844.16;11174.92;0.09002686;0.2335172;0;
16044.34;11922.52;1403.184;22094.88;1.185708;2.355356;17394.98;9161.963;0.1549037;0.6230866;0;
16124.81;12282.67;2495.568;21144.61;6.207383;4.094424;17227.53;9456.854;-0.04015392;0.4275585;0;
-6542.331;-5861.405;2110.097;-5583.896;6.535938;3.889361;-6991.291;-5222.431;-0.2999829;-0.2875118;0;
-33927.44;-28730.94;1249.533;-36921.64;10.34776;9.11;-35285.54;-23979.66;-0.2996815;-0.287223;0;
-20944.39;-15866.63;386.1174;-26792.75;12.68189;10.17257;-22135.82;-13188.38;-0.1044784;-0.221967;0;
-8753.433;-3570.065;-1009.819;-15400.16;3.023606;13.24344;-10192.3;-991.77;0.2204633;-0.09180928;0;
-5965.112;-3675.423;-2071.833;-11898.73;0.8771142;16.1104;-6893.808;-1999.173;0.1552745;0.1681523;0;
13545.76;10391.01;-1723.925;13175.53;1.814238;6.984781;14272.84;7754.653;0.09015109;0.1679834;0;
21889.75;17510.12;-965.1667;27491.9;-0.197317;6.106984;23376.28;14559.26;0.2849625;0.2327819;0;
17464.14;13629.96;-128.9605;23285.08;-1.201497;5.364036;18707.5;11035.95;0.02480683;0.2975154;0;
15995.31;11883.75;1433.415;22053.25;-3.142673;3.215192;17354.76;9125.266;-0.3000548;0.1672818;0;
15986;12130.97;2507.122;20890.77;-1.197132;12.65643;17068.66;9313.763;0.2199854;0.232081;0;
-6831.918;-6177.364;2112.8;-6082;-0.5936925;15.52386;-7310.867;-5509.384;0.739503;0.2968152;0;
-33965.21;-28792.1;1261.853;-37066.8;-7.625694;9.145004;-35334.07;-24035.44;0.4139234;-0.02831981;0;
-20400.58;-15451.3;422.2568;-26343.73;-9.694137;8.198054;-21588.02;-12919.79;0.02370339;-0.5480301;0;
-8151.576;-3096.786;-963.7523;-14865.54;-3.656176;15.35687;-9583.244;-696.0356;0.08864691;-0.4175447;0;
-5877.883;-3563.767;-2044.022;-11779.61;-2.447053;15.27446;-6848.469;-1900.605;-0.04137684;-0.09228848;0;
13422.67;10304.81;-1709.135;13053.51;-3.784741;15.99592;14088.53;7706.367;-0.2362373;-0.02722841;0;
21938.72;17553.81;-955.9205;27518.5;-1.502786;16.85063;23422.16;14592.67;0.08883679;0.167701;0;
17459.87;13630.34;-151.4264;23287.69;-6.65884;4.040197;18707.39;11047.55;0.1537149;0.2974672;0;
15930.56;11813.05;1389.607;21977.55;-8.460811;0.3521987;17276.09;9049.449;0.02362573;0.03729889;0;
16003.5;12158.52;2484.816;20936.87;6.216099;-2.863275;17115.6;9354.309;0.4783734;-0.2875753;0;
-6775.853;-6087.551;2116.285;-5951.883;9.626104;-7.883996;-7201.029;-5379.939;0.54286;-0.222319;0;
-33923.54;-28747.67;1272.55;-36983.46;5.597944;0.8315243;-35275.32;-23958.63;0.02257585;-0.09216093;0;
-20742.42;-15719.96;412.6717;-26625.78;7.333632;2.036381;-21936.17;-13006.1;-0.3022836;0.1678011;0;
-8383.215;-3264.74;-986.165;-15085.6;1.565487;-4.52987;-9821.317;-711.5292;-0.1720451;0.3625345;0;
-5394.32;-3220.309;-2050.201;-11295.76;-0.645913;-4.458335;-6340.006;-1635.225;0.2179318;-0.02763386;0;
13697.76;10465.11;-1724.273;13450.35;4.311229;-2.109514;14407.19;7821.712;0.2826802;-0.0276061;0;
21727.25;17358.24;-974.4787;27355.1;4.574341;-0.8347797;23212.48;14414.46;0.4123308;0.2972584;0;
17321.49;13494.57;-134.2339;23127.01;-0.5204704;0.03683721;18565.51;10903.01;0.4768838;0.167025;0;
15759.29;11633.72;1409.125;21829.41;-1.324231;1.309476;17114.98;8874.587;-0.3032034;0.1018898;0;
15690.28;11875.17;2482.794;20507.71;-1.724066;3.719424;16782.91;9067.412;-0.1079968;0.2317221;0;
-7083.332;-6327.571;2111.859;-6454.31;-3.598343;4.854396;-7538.061;-5609.67;0.5417852;-0.09334743;0;
-34178.54;-28955.66;1260.977;-37286.15;4.375875;8.13156;-35536.85;-24183.72;0.1514367;-0.2881556;0;
-20938.23;-15898.17;400.3602;-26827.53;5.845347;10.0659;-22135.48;-13183.99;0.02134989;0.03697059;0;
-8401.062;-3269.593;-987.4384;-15167.03;2.691642;5.635029;-9843.267;-683.9557;0.3461652;-0.09300124;0;
-5255.744;-3079.214;-2047.319;-11134.94;3.760664;4.624623;-6185.179;-1565.481;0.3458173;-0.09290779;0;
13829.77;10601.46;-1712.835;13646.81;-4.348416;6.361532;14552.1;7902.427;-0.04433421;0.1670549;0;
21852.29;17488.4;-964.6458;27497.23;-7.089736;4.948498;23337.21;14567.1;-0.1742243;0.1019197;0;
17427.66;13588.69;-148.024;23235.74;-2.996776;6.41715;18670.89;10986.71;0.2807221;0.1667847;0;
15853.3;11750.76;1398.754;21902.3;-3.730699;6.544669;17203.19;9001.741;0.02057067;-0.1582196;0;
16161.29;12279.29;2503.198;21188.58;-3.659601;-0.1600787;17272.64;9452.652;-0.1093847;-0.02812597;0;
-6240.775;-5688.099;2131.244;-5257.849;-3.589551;-1.499516;-6667.098;-5067.474;0.3454966;0.101837;0;
-33567.78;-28420.7;1260.726;-36617;-1.978354;-2.100855;-34946.07;-23692.24;-0.04465459;-0.2231021;0;
-20573.63;-15595.8;398.2987;-26499.73;-0.6362196;-2.768574;-21794.35;-12877.34;-0.6942831;-0.0929432;0;
-8400.472;-3319.384;-1000.43;-15105.75;-3.717039;-0.8233477;-9853.189;-664.0793;0.02105524;-0.1578172;0;
-5715.985;-3379.813;-2074.384;-11625.38;-4.516612;-0.7555375;-6696.636;-1719.319;0.3458708;-0.3525606;0;
13641.27;10520.97;-1724.475;13359.42;0.4444198;4.7377;14311.96;7875.149;-0.1742155;0.0375977;0;
21999.15;17618.27;-959.813;27619.13;1.5157;6.206564;23481.52;14681.31;0.08582895;0.1025273;0;
17635.52;13797.97;-115.8973;23444.5;-2.437938;7.807918;18885.3;11211.26;0.2156774;-0.4173145;0;
16206.23;12106.52;1459.771;22220.73;-3.306144;9.072626;17545.4;9364.173;-0.1743434;-0.4818625;0;
16345.27;12448.47;2538.792;21457.78;1.117807;3.972929;17494.21;9630.922;-0.3690702;-0.221509;0;
-6048.199;-5509.799;2141.159;-4923.941;3.728652;2.562418;-6405.958;-4864.802;-0.5636014;-0.2212864;0;
-33053.09;-27916.09;1264.01;-36075.52;-8.130464;-2.128901;-34390.97;-23186.4;-0.3031657;-0.02616202;0;
-20371.52;-15385.39;370.3443;-26302.6;-11.33747;-5.408864;-21557.81;-12683.81;0.2168776;0.03883161;0;
-8339.898;-3307.726;-1040.756;-15078.74;3.208604;-5.336447;-9773.424;-686.6385;0.08672503;-0.3510115;0;
-5193.034;-3090.666;-2092.244;-11100.8;5.482555;-6.871631;-6114.063;-1484.094;0.02167055;-0.1557567;0;
13990.42;10686.09;-1730.541;13797.42;7.353057;-7.869471;14746.72;8025.665;0.08661611;0.2342038;0;
21889.73;17528.54;-966.9977;27533.4;12.10109;-7.3257;23376.72;14602.81;-0.0434056;0.2989359;0;
17442.47;13617.32;-128.9156;23248.92;1.907526;-9.729664;18681.14;11031.01;-0.1732967;0.4285702;0;
15855.84;11742.63;1434.522;21917.81;0.7001601;-10.12179;17212.63;8998.041;-0.04318786;-0.09159922;0;
15966.18;12100.88;2515.037;21010.08;10.41235;-0.2653673;17071.49;9283.586;0.1517576;-0.4163439;0;
-6104.936;-5568.104;2135.917;-5164.015;10.93775;3.016941;-6536.433;-4929.603;0.02167039;-0.02612149;0;
-33178.29;-28005.59;1271.142;-36245.36;16.62019;2.612134;-34530.93;-23279.14;0.08661596;0.2337741;0;
-20848.66;-15757.98;372.1915;-26699.19;19.81769;4.48491;-22030.61;-12941.58;0.2164636;-0.02633014;0;
-8936.702;-3777.16;-1050.093;-15626.74;10.15321;4.614369;-10361.97;-1035.77;-0.1085906;-0.2212057;0;
-5912.098;-3487.165;-2104.32;-11786.51;8.400722;4.676715;-6846.083;-1909.695;-0.2384162;0.1038533;0;
13556.61;10516.91;-1740.044;13401.07;12.74654;3.600289;14265.2;7831.766;0.08666009;0.1687163;0;
21886.59;17497.97;-969.5566;27536.54;12.73373;2.659033;23367.77;14582.92;0.02160568;-0.2212573;0;
17407.91;13573.01;-120.6336;23204.08;7.898163;1.986531;18657.47;10987.99;-0.1733181;-0.2860023;0;
15862.05;11768.75;1444.264;21912.97;5.947844;2.989157;17209.34;9023.898;0.02175812;-0.2207476;0;
15987.92;12100.01;2520.052;20973.86;8.688534;-7.395896;17121.72;9300.235;0.0867036;0.03934355;0;
-6308.418;-5745.766;2136.743;-5405.305;7.540727;-10.46962;-6671.907;-5046.388;0.2815185;-0.09063067;0;
-33430.46;-28275.28;1259.129;-36487.75;8.872321;0.5928416;-34751.68;-23494.07;0.2812356;-0.0905396;0;
-20968.47;-15957.07;355.6927;-26856.34;8.797033;0.9271605;-22160.65;-13029.56;-0.04388366;0.2343881;0;
-8712.461;-3654.995;-1048.209;-15468.37;4.568635;8.896954;-10156.69;-782.7869;0.08609512;-0.1556515;0;
-5356.249;-3165.848;-2089.398;-11276.97;3.424969;12.23716;-6306.521;-1561.796;-0.2388281;-0.09052774;0;
13884.56;10658.31;-1721.404;13705.81;0.005275728;7.937957;14594.25;7973.762;-0.1086534;0.5592366;0;
21945.88;17574.51;-945.5634;27597.45;-1.736042;9.537571;23428.42;14664.55;0.2812598;0.6886094;0;
17463.07;13637.63;-103.3487;23261.31;-2.873373;-0.2512761;18709.08;11048.63;0.08607515;0.4930155;0;
15910.65;11803.86;1462.781;21952.35;-4.277006;-3.332177;17258.08;9065.395;0.345858;0.2976181;0;
16097.34;12221.61;2547.702;21137.93;0.0815485;-2.859949;17229.09;9416.917;0.4104778;0.1673843;0;
-6158.918;-5628.97;2156.962;-5181.501;2.358642;-6.005212;-6537.518;-4915.768;0.02026135;0.03728144;0;
-33163.42;-28009.72;1283.827;-36227.56;-4.140462;-1.310434;-34501.28;-23264.77;-0.174661;-0.0926907;0;
-20717.38;-15620.71;392.0154;-26581.37;-5.543797;-1.443083;-21907.96;-12846.51;-0.04455085;-0.2225322;0;
-8847.692;-3702.339;-1014.703;-15518.08;6.853981;-2.178445;-10280.09;-958.2774;0.1503959;-0.2223087;0;
-5682.982;-3370.128;-2055.769;-11593.17;9.994926;-1.57341;-6611.833;-1815.883;0.08527748;0.1027514;0;
13712.89;10593.15;-1686.122;13485.69;5.430532;-5.05488;14443.62;7888.861;0.2151265;-0.1572212;0;
21814.36;17435.48;-916.2518;27456.11;6.16201;-5.920579;23297.57;14529.23;0.08497563;-0.2220305;0;
17305.22;13477.13;-78.25188;23110.55;5.820049;-6.450433;18547.02;10892.55;0.0199229;-0.02690542;0;
15783.58;11683.54;1481.105;21827.68;6.082621;-7.850593;17137.18;8934.521;0.5396416;-0.5466171;0;
15913.94;12045.52;2558.575;20891.15;2.258116;-8.713483;17015.48;9238.822;0.3441974;-0.6110352;0;
-6400.075;-5808.221;2181.192;-5531.292;0.9166766;-10.78114;-6833.246;-5157.323;0.2139168;-0.09068251;0;
-33604.55;-28419.64;1319.683;-36661.18;3.997214;-8.225014;-34949.29;-23675.89;0.5385386;0.2992127;0;
-21641.4;-16531.84;414.0925;-27460.95;4.059571;-7.814852;-22831.75;-13351.78;0.2131608;0.1689773;0;
-9901.607;-4725.767;-999.6445;-16592.71;5.796804;-15.10796;-11329.54;-1521.179;0.1479792;-0.1560292;0;
-6060.053;-3811.085;-2027.014;-11991.4;6.326843;-16.1645;-6943.016;-2160.063;0.0828632;-0.02593771;0;
13836.94;10632.89;-1663.83;13607.54;7.861703;-18.02372;14590.97;7936.658;-0.04715475;-0.1558463;0;
21817.54;17444.06;-914.1595;27451.04;8.121247;-19.54616;23295.6;14547.04;0.2777293;-0.3505917;0;
17255.62;13429.21;-78.66048;23050.4;7.175082;-12.22556;18496.89;10830.38;0.1475156;-0.1553375;0;
15739.7;11643.11;1475.481;21784.8;6.163495;-9.601003;17087.84;8905.024;0.01743269;-0.02524669;0;
15886.38;12001.12;2551.957;20848.5;5.688787;-10.46213;16999.8;9188.117;0.2772845;0.03974602;0;
-6326.25;-5800.516;2176.049;-5484.24;6.151585;-8.10728;-6737.981;-5094.3;0.2120386;-0.02526126;0;
-33264.82;-28114.17;1301.082;-36360.75;-5.709965;-4.817031;-34624.25;-23392.23;-0.04804385;-0.09020322;0;
-20947.47;-15874.36;392.8559;-26797.21;-9.254201;-2.735781;-22155.38;-12973.48;-0.2428976;-0.349982;0;
-9192.309;-4063.788;-1019.548;-15882.85;-5.694929;0.8170025;-10622.97;-1132.814;0.1471505;-0.4145976;0;
-5638.76;-3415.638;-2062.405;-11569.52;-8.636944;2.356789;-6568.579;-1884.282;0.4718394;0.1055577;0;
13983.41;10770.71;-1696.797;13764.19;2.95966;3.493009;14684.84;8038.344;0.2764632;-0.02448305;0;
21958.62;17590.91;-930.7571;27612.69;5.769725;4.293294;23435.87;14707.3;0.1462508;-0.2843278;0;
17440.57;13614.19;-104.1431;23234.64;-2.340397;-0.2657372;18683.49;11009.22;0.2110711;-0.2840421;0;
15877.24;11783.94;1438.592;21908.5;-2.740187;-2.274897;17220.68;9058.787;0.1458917;-0.6085934;0;
16062.17;12174.74;2509.202;21104.16;-6.755921;-0.598099;17177.19;9340.383;0.2107125;-0.2181779;0;
-5958.346;-5443.188;2129.682;-5031.012;-9.428451;-0.4635322;-6389.767;-4786.922;0.4054028;0.1718454;0;
-32495.31;-27349.49;1263.852;-35629.15;-9.887491;-6.692296;-33855.21;-22691.98;-0.1147433;-0.153164;0;
-20292.76;-15216.09;342.2631;-26154.74;-11.15035;-7.288418;-21490.27;-12500.15;-0.6343668;0.04189196;0;
-9150.059;-4046.252;-1098.982;-15797.45;-14.15326;-6.94618;-10596.2;-1170.423;-0.1139906;0.1717846;0;
-5658.427;-3529.21;-2150.536;-11558.41;-13.80425;-7.943944;-6532.636;-1913.077;0.08102596;0.366514;0;
14036.08;10765.61;-1800.206;13828.63;-15.73276;6.264114;14824.15;8019.104;-0.1139575;0.5610477;0;
21822.03;17473.38;-1057.645;27448.95;-15.58323;11.61633;23300.96;14580.49;-0.04887563;0.1706799;0;
17315.35;13488.36;-243.6154;23096.76;-7.262175;7.116926;18545.51;10894.94;-0.04882652;-0.0243936;0;
15752.03;11660.83;1289.015;21806.48;-5.71366;9.721988;17104.39;8918.417;-0.2436795;-0.02436909;0;
15944.31;12047.27;2363.086;20874.37;7.151828;9.310321;17033.56;9236.666;-0.1135;-0.08931194;0;
-6063.762;-5600.373;1985.244;-5295.629;13.10649;8.229239;-6524.551;-4910.165;0.2764181;0.3005819;0;
-32787.56;-27648.71;1103.691;-35927.36;4.720575;15.99087;-34157.77;-22961.31;0.2761404;0.2353125;0;
-20586.39;-15558.71;184.9497;-26445.29;6.457144;17.51541;-21792.93;-12739.33;-0.04897378;-0.02479333;0;
-9648.55;-4555.752;-1244.299;-16295.4;-0.04607863;9.995842;-11075.58;-1582.917;0.01604277;0.1051663;0;
-6455.034;-4084.363;-2294.239;-12421.58;-2.525255;9.985798;-7368.295;-2416.719;0.01602665;0.04009325;0;
13626.56;10522.37;-1937.612;13308.28;-0.5129855;1.402193;14334.36;7821.33;-0.1139241;0.1050203;0;
21724.51;17342.47;-1193.101;27355.9;-3.25816;-2.484165;23200.62;14447.11;0.211027;0.2348495;0;
17064.75;13256.94;-385.5573;22865.29;5.117858;7.766537;18306.08;10669.57;0.5356517;0.03971146;0;
15498.8;11392.58;1138.314;21574.52;7.121471;8.227491;16857.5;8658.188;0.08034209;-0.09026312;0;
15566.81;11718.79;2207.32;20350.42;2.827408;10.2957;16614.36;8918.68;-0.3095427;0.169697;0;
-6954.218;-6328.609;1847.688;-6437.578;5.03537;11.75898;-7507.027;-5593.819;0.01560506;0.2994611;0;
-33659.71;-28467.96;1007.378;-36841.31;-2.003263;11.2113;-35039.94;-23748.91;0.4053934;0.1042582;0;
-21109.49;-15984.35;113.3459;-26939.83;-3.876285;11.93684;-22298.97;-13025.71;0.2100841;-0.02578126;0;
-10162.49;-4974.661;-1306.71;-16793.19;7.916606;8.843634;-11598.73;-1781.939;0.07993829;-0.09072269;0;
-6601.331;-4297.016;-2324.869;-12531.88;10.45327;8.298884;-7464.182;-2556.93;0.27476;-0.1555989;0;
13809.69;10679.1;-1942.802;13477.59;6.62535;4.472641;14579.58;7962.791;-0.0503528;-0.2204099;0;
21775.1;17405.56;-1191.789;27402.45;5.748037;3.195471;23255.96;14516.27;-0.3751389;-0.2851557;0;
17124.81;13306.72;-371.7846;22933.82;12.17262;2.254621;18361.16;10708.2;-0.2448273;-0.2199019;0;
15575.61;11473.97;1159.413;21623.56;11.95932;1.113645;16930.35;8747.143;-0.04967926;-0.08974624;0;
15618.63;11778.95;2241.516;20528.44;9.80385;6.337073;16690.7;8963.755;0.015338;-0.2845581;0;
-6671.899;-6009.823;1898.716;-5969.52;10.53093;7.201484;-7173.635;-5300.898;0.1452573;-0.4791742;0;
-33082.9;-27879.07;1071.192;-36272.75;-7.364213;12.28483;-34442.29;-23192.45;0.3400133;-0.08888865;0;
-20282.75;-15183.06;204.0826;-26151.47;-12.84917;15.35358;-21460.94;-12542.22;0.209737;-0.1537667;0;
-9194.307;-4004.889;-1205.726;-15808.77;-11.49611;12.32404;-10625.38;-1248.151;-0.1153104;-0.4134815;0;
-6012.834;-3743.572;-2237.761;-11809.76;-16.44203;13.98611;-6866.227;-2164.935;0.0147401;-0.3480987;0;
13950.83;10769.4;-1859.842;13815.68;-2.827851;11.42683;14737.39;8044.984;0.2096273;0.04205509;0;
21888.57;17522.35;-1110.318;27548.16;0.3228219;11.41534;23363.73;14635.1;0.4043187;0.4318169;0;
17195.23;13370.93;-289.3331;22989.11;-3.49492;13.74815;18428.3;10781.56;0.5338472;0.236481;0;
15591.89;11498.29;1248.903;21656.19;0.7954999;14.20322;16946.25;8771.808;0.3384087;0.56108;0;
15713.35;11846.6;2322.389;20621.98;-10.12364;18.14082;16789.23;9030.516;0.1431666;0.1707122;0;
-6388.81;-5790.867;1962.923;-5681.012;-12.86013;19.59622;-6868.099;-5086.498;0.07805543;-0.4141653;0;
-32479.32;-27296.25;1118.999;-35683.61;4.166698;21.2511;-33826;-22637.33;0.01300966;0.1059895;0;
-19856.67;-14874.77;225.0731;-25739.85;7.242993;21.83259;-21042.66;-12224.04;-0.1169381;0.3657524;0;
-9484.28;-4418.73;-1209.495;-16103.53;5.695474;23.95399;-10915.17;-1560.72;-0.2467553;0.04054816;0;
-6364.673;-4099.324;-2245.024;-12214.77;8.703861;24.26483;-7194.647;-2456.294;-0.4414093;-0.3492966;0;
13971.49;10772.21;-1862.131;13777.45;3.40383;19.28384;14775.64;8042.679;-0.3759985;-0.219011;0;
21844.64;17470.16;-1116.29;27496.86;3.534132;17.32208;23319.13;14587.12;-0.05078397;0.2359805;0;
17170.64;13364.94;-289.771;22961.54;2.860995;11.27633;18403.17;10772.81;-0.05073295;0.3007107;0;
15653.61;11549.73;1253.151;21709.54;0.447223;6.978213;17009.09;8817.85;-0.245584;0.2354412;0;
15650.94;11814.22;2313.733;20544.01;10.89562;7.373099;16726.68;9000.019;-0.0504352;-0.2195667;0;
-6465.478;-5824.433;1939.939;-5783.742;12.15747;4.954305;-6953.966;-5139.203;0.3394195;-0.4792155;0;
-32758.61;-27551.33;1077.578;-35960.95;8.193142;1.198405;-34137.11;-22870.44;0.4040458;0.04100475;0;
-20308.21;-15226.03;173.1995;-26194.31;8.519702;-1.147202;-21514.81;-12491.19;0.2737052;0.1708982;0;
-9623.448;-4458.416;-1261.066;-16272.87;0.2721187;0.2605924;-11061.57;-1544.888;0.1434954;-0.2840449;0;
-6416.558;-4087.761;-2303.884;-12238.65;-2.875987;-0.141567;-7302.592;-2425.345;0.1433513;-0.4136941;0;
13810.29;10689.14;-1918.339;13666.87;-2.805748;-1.012203;14561.96;7969.383;0.2081746;-0.2183764;0;
21883.27;17516.24;-1162.26;27522.74;-5.348524;-0.4083394;23357.18;14629.49;0.0780307;-0.1531897;0;
17237.56;13413.81;-343.253;23013.37;-4.874635;-1.81451;18469.19;10816.09;-0.05198239;-0.08806841;0;
15672.03;11587.49;1196.037;21720.84;-5.740393;-0.9419694;17025.07;8866.918;-0.1818648;-0.02301258;0;
15697.2;11829.66;2257.27;20611.29;-8.547665;-1.208955;16743.72;9002.42;-0.05174742;-0.02298945;0;
-6552.287;-5929.717;1873.787;-5862.465;-10.74988;-0.7388593;-7099.504;-5243.172;0.1432066;0.1069683;0;
-32327.01;-27143.08;1038.261;-35588.64;-4.040296;4.687378;-33703.04;-22547.42;0.07809536;0.2367955;0;
-19002.69;-14083.17;172.7773;-24975.95;-2.697065;6.625174;-20193;-11853.97;0.4028536;0.301525;0;
-8273.014;-3271.865;-1266.766;-14998.52;-8.856297;9.69961;-9724.756;-964.2962;0.7922528;0.4311567;0;
-5426.237;-3292.8;-2314.201;-11020.2;-7.976742;12.43616;-6216.149;-1872.323;0.4666201;0.2358214;0;
14417.21;11135.13;-1910.78;14623.52;-16.20775;9.878316;15281.92;8375.221;-0.0535875;0.04068242;0;
22197.95;17851.19;-1143.089;27875.33;-19.0045;10.27029;23671.32;14982.75;0.01143369;-0.0243258;0;
17598.88;13769.95;-319.7912;23347.47;-8.804002;11.13075;18830.04;11168.52;-0.05354514;-0.154236;0;
15943.1;11877.98;1217.664;22007.09;-7.053843;10.24878;17293.85;9164.535;-0.3783281;-0.4139504;0;
15957.75;12027.37;2270.379;20942.29;-3.898924;12.31496;17062.67;9197.524;0.2717255;-0.4135345;0;
-5632.032;-5169.968;1892.568;-4806.152;0.1244579;11.90069;-6045.755;-4542.956;0.6612566;0.1066198;0;
-30951.08;-25848.63;1062.957;-34185.83;-4.095226;9.075444;-32294.34;-21259.69;0.1408534;0.366382;0;
-17572.41;-12875;186.0482;-23597.77;-4.895394;7.994598;-18780.17;-11098.22;0.2706465;-0.0237902;0;
-6664.789;-1938.044;-1253.134;-13503.69;6.831172;2.829002;-8139.592;-389.2124;0.3353419;-0.08873364;0;
-4351.455;-2450.947;-2307.001;-9932.905;8.900413;-0.120968;-5212.912;-1227.822;0.1401029;0.1712249;0;
14609.03;11173.28;-1931.745;14958.18;2.193664;3.027229;15431.36;8482.485;0.2049295;0.1060855;0;
22234.38;17914.72;-1164.564;27935.1;1.253455;2.957205;23710.68;15018.11;-0.2500478;-0.02395578;0;
17715.98;13898.53;-321.2545;23439.09;-6.115195;-3.274997;18946.99;11322.39;-0.1848292;0.2359377;0;
16076.9;11995.18;1221.48;22116.22;-9.993816;-5.482081;17421.41;9281.544;0.2051606;0.5605373;0;
16115.46;12218.4;2273.942;21248.58;-11.32392;1.087632;17234.45;9385.489;0.07501972;0.4300394;0;
-5369.984;-4883.708;1885.195;-4301.702;-13.65707;2.426076;-5774.626;-4237.77;0.009977001;0.1697379;0;
-30565.31;-25462.73;1028.106;-33813.86;-16.79118;-2.198001;-31927.24;-20882.46;-0.3148697;-0.02533467;0;
-17720.4;-12991.72;123.246;-23761.23;-19.11883;-2.731656;-18926.3;-10979.78;-0.6393901;-0.02530921;0;
-7469.847;-2667.378;-1335.52;-14211.88;-12.20074;-0.9204329;-8922.849;-669.3033;-0.1839762;0.03968357;0;
-4862.398;-2869.47;-2378.075;-10487.55;-10.64727;-1.388389;-5693.752;-1494.716;-0.3786934;0.03964369;0;
14605.45;11235.57;-1964.814;14859.26;-11.97671;-0.4492325;15455.64;8497.858;-0.5082476;-0.02536349;0;
22216.07;17896.24;-1182.732;27905.68;-11.1604;0.2210482;23691.27;15021.74;-0.2478675;-0.1552727;0;
17639.82;13815.63;-336.7179;23378.51;-8.804658;-5.338635;18868.65;11236.95;-0.3775531;-0.09014932;0;
16026.66;11959.61;1221.962;22076.11;-7.054499;-6.605947;17374.08;9245.072;-0.3122064;0.3647127;0;
16064.08;12150.29;2280.483;21141;-11.80283;-4.187923;17182.36;9325.207;-0.2469254;0.4942809;0;
-5347.043;-4909.739;1890.543;-4371.9;-11.7246;-4.04981;-5743.598;-4264.149;0.07815947;-0.09092186;0;
-30588.93;-25491.08;1034.853;-33851.19;-11.10961;-3.844792;-31944.08;-20909.82;0.01311359;-0.4156672;0;
-17666.18;-12953.32;132.6103;-23740.18;-9.960344;-3.706963;-18876.55;-11023.07;-0.441671;-0.2853149;0;
-7210.985;-2440.927;-1325.103;-14035.67;-13.70138;-0.4211359;-8690.549;-599.6805;-0.05142313;-0.2200608;0;
-4835.555;-2770.979;-2369.48;-10518.56;-16.7681;0.3160996;-5709.857;-1467.485;-0.1163388;0.104997;0;
14504.13;11192.96;-1941.985;14709.91;4.548594;1.923372;15332.31;8463.779;-0.5709933;0.1048915;0;
22337.77;18006.39;-1134.751;28015.37;10.10373;3.595891;23812.55;15128.95;0.01428651;0.03981875;0;
17771.44;13959.65;-277.6346;23514.19;-1.69542;-2.235054;18998.05;11381.34;0.3391089;0.5595175;0;
16108.45;12032.56;1278.519;22140.66;-0.9567822;-3.103587;17450.65;9316.598;0.1438661;0.3640532;0;
16094.49;12207.76;2326.238;21219.86;-6.917668;-2.69857;17209.26;9396.987;0.3386236;-0.1560513;0;
-5505.681;-4953.962;1927.475;-4422.002;-9.991199;-3.566637;-5894.023;-4289.564;0.3382833;0.03900753;0;
-30721.64;-25590.8;1076.246;-33950.15;-7.168121;-1.821497;-32074.58;-20967.03;0.1430414;-0.025999;0;
-17669.2;-12962.93;181.895;-23747.29;-8.366367;-2.422513;-18884;-10989.71;0.2728323;0.03899446;0;
-7264.052;-2471.472;-1268.652;-14038.5;-9.764481;1.196938;-8723.181;-649.1426;0.1426235;0.2988247;0;
-4850.713;-2845.861;-2311.4;-10446.57;-10.08946;2.066514;-5725.371;-1507.527;-0.4422259;0.1036224;0;
14487.99;11111.67;-1902.61;14790.05;-8.070568;0.7247786;15299.05;8434.288;-0.3118468;-0.09138379;0;
22139.11;17815.49;-1123.682;27841.82;-6.789661;1.795777;23615.96;14922.33;0.2082052;-0.02632462;0;
17531.39;13731.96;-278.1964;23266.6;-2.161138;-6.377823;18755.97;11170.78;0.01309401;0.1036365;0;
15950.96;11857;1270.18;22030.3;2.462734;-9.184575;17308.55;9143.283;0.2079829;0.03856504;0;
15775.05;11939.98;2303.509;20750.47;-3.165819;-4.084766;16832.14;9136.376;0.4676433;-0.02644105;0;
-6218.583;-5591.055;1905.986;-5422.894;-2.560402;-4.884457;-6730.05;-4863.397;0.07736932;0.03855286;0;
-31607.37;-26414.69;1052.562;-34903.08;5.882264;-3.071071;-32980.17;-21775.58;0.1422589;-0.02645322;0;
-18596.43;-13723.49;144.8662;-24620.56;5.474212;-1.795309;-19798.87;-11509.45;0.337018;0.103508;0;
-8290.085;-3349.85;-1302.771;-15014.14;20.27182;-5.879403;-9752.94;-1077.527;0.2067447;0.103404;0;
-5668.272;-3495.159;-2335.567;-11391.26;26.0786;-5.940478;-6525.086;-2008.163;-0.3781691;-0.2865039;0;
14132.75;10916.31;-1919.428;14163.24;8.034107;-5.800543;14944.15;8207.174;-0.6376585;-0.3511834;0;
22063.87;17728.2;-1125.803;27710.27;7.356449;-6.866381;23539.93;14853.99;0.1425903;-0.2858632;0;
17430.71;13625.14;-273.3502;23191.4;-1.625924;-0.4293031;18655.18;11054.56;0.4672838;-0.02570656;0;
15769.47;11690.62;1267.65;21825.96;-7.183996;1.44665;17127.33;8982.425;-0.1178919;0.104254;0;
15596.55;11761.17;2302.449;20577.18;3.875285;-3.779411;16641.59;8964.825;-0.3776428;-0.3506222;0;
-6527.383;-5862.557;1910.144;-5736.672;3.000735;-3.373716;-7076.874;-5128.212;-0.0524266;-0.4802046;0;
-31941.23;-26761;1068.366;-35228.85;9.293384;-6.250531;-33327.25;-22090.3;0.01259342;-0.2198527;0;
-18482.14;-13679.33;182.5183;-24508.77;12.16443;-7.85178;-19665.74;-11564.22;-0.3122559;-0.2196318;0;
-7805.488;-2888.706;-1263.907;-14547.8;9.540242;-1.547617;-9251.486;-809.9413;-0.2469748;-0.02450907;0;
-5376.877;-3190.213;-2327.617;-11070.53;11.87518;-0.6083615;-6242.292;-1749.077;-0.116792;0.1054502;0;
14099.19;10864.84;-1959.447;14197.37;5.030746;-0.4737844;14887.67;8185.953;-0.3115767;0.235279;0;
21929.61;17589.52;-1200.202;27601.84;3.619171;1.201265;23405.41;14709.27;-0.2462963;0.3000099;0;
17322.37;13528.81;-362.1981;23072.78;6.763366;-3.019806;18553.6;10967.73;-0.2460488;0.03983908;0;
15741.48;11652.47;1164.055;21792.91;6.086985;-4.423352;17090.37;8942.233;-0.05089952;-0.155103;0;
15575.04;11761.95;2188.464;20512.97;9.831913;1.408486;16664.22;8977.195;0.1440537;-0.08997978;0;
-6702.126;-5992.342;1789.652;-5932.104;11.83177;2.0769;-7150.72;-5200.719;0.2088763;0.2349474;0;
-32070.81;-26850.44;931.3151;-35342.37;8.87214;-0.001658064;-33416.23;-22155.97;0.4035684;-0.02515811;0;
-18625.9;-13759.98;29.48843;-24633.02;9.53281;0.6681729;-19821.55;-11569.08;0.2732282;-0.4149369;0;
-8543.513;-3565.759;-1422.03;-15198.09;10.52859;-4.757994;-9979.354;-1265.034;-0.3117524;-0.2196179;0;
-6243.502;-3925.009;-2474.462;-11927.74;9.044138;-6.226838;-7090.743;-2334.256;-0.2464718;-0.02449523;0;
13871.71;10749.95;-2077.175;13850.18;17.27407;-4.14411;14668.71;8071.751;0.0136452;0.3653334;0;
21956.83;17599.81;-1302.335;27581.69;18.06002;-5.814519;23427.66;14719.45;0.1435662;0.299999;0;
17212.58;13426.36;-477.503;22972.68;13.6886;0.7555286;18441.13;10871.65;-0.05148011;0.1047955;0;
15603.27;11496.92;1040.651;21647.8;14.47815;1.893479;16957.72;8786.644;-0.1813631;0.1046902;0;
15373.32;11629.44;2080.302;20309.61;0.06263677;-1.792424;16425.87;8846.483;0.3385579;-0.4151537;0;
-7409.821;-6512.369;1697.996;-6606.086;-3.754843;-1.388786;-7908.353;-5742.233;0.1433157;-0.4797039;0;
-33301.84;-28006.31;851.0585;-36519.43;-3.282556;-7.080757;-34648.87;-23303.46;-0.2466324;-0.02445048;0;
-19415.23;-14456.11;-15.23668;-25412.97;-6.360716;-8.346317;-20605.97;-12195.17;-0.05148252;-0.08939325;0;
-8500.343;-3413.379;-1423.014;-15186.64;5.367322;-9.007761;-9964.242;-1106.01;0.07850389;-0.2192381;0;
-6146.996;-3737.832;-2474.695;-11919.17;8.242317;-9.802444;-7035.65;-2192.883;0.1433924;0.04085155;0;
13725.04;10699.84;-2098.225;13636.8;9.104692;-6.510491;14505.99;8023.842;0.01331359;0.2357125;0;
21901.87;17538.79;-1323.442;27515.06;11.70849;-5.432284;23377.08;14657.24;-0.05166713;-0.08936103;0;
17273.81;13479.15;-475.2569;23024.96;11.56202;-2.345672;18497.72;10934.03;0.07831947;-0.1542386;0;
15650.92;11556.02;1062.073;21725.59;11.55041;-1.338632;17004.27;8837.249;0.1432081;-0.02414892;0;
15272.83;11507.33;2091.707;20041.03;12.27573;6.901492;16321.05;8748.191;0.4029336;-0.1540593;0;
-7552.879;-6695.853;1709.327;-7014.25;12.19703;11.04738;-8064.086;-5856.435;0.272594;-0.4787412;0;
-33435.39;-28149.2;877.1209;-36690.97;0.2620541;0.1183028;-34792.73;-23394.7;-0.1824513;-0.2833582;0;
-20230.52;-15172.27;-16.74904;-26158.74;-4.494607;-1.891243;-21418.84;-12465.89;0.01263409;0.3666;0;
-10043.9;-4865.943;-1450.636;-16634.95;-1.07384;1.39276;-11483;-1854.117;0.3374581;0.4961663;0;
-7196.808;-4788.996;-2489.125;-13194.06;-1.742346;-0.1492469;-8115.431;-2947.266;-0.05268502;0.4307004;0;
13392.78;10343.81;-2120.245;12873.96;-7.768815;-3.632149;14107.35;7685.836;-0.3125015;0.495235;0;
21583.34;17218.23;-1361.901;27153.75;-8.832736;-6.039824;23051.93;14345.03;-0.1172854;0.1049333;0;
16907.65;13122.45;-526.702;22709.98;-4.604302;-6.703523;18136.79;10557.03;0.2726365;0.03986052;0;
15357.06;11248.39;995.5311;21386.31;-5.402983;-8.706275;16704.65;8547.768;0.5322319;0.2996899;0;
15162.72;11448.14;2048.719;20047.24;9.539274;-8.898476;16207.95;8668.52;0.4017624;-0.09041535;0;
-7810.496;-6834.215;1687.185;-7121.949;15.08842;-9.291371;-8324.251;-6054.653;0.1414894;0.03961018;0;
-33924.04;-28593.5;852.9711;-37178.96;5.696135;-13.9038;-35278.82;-23877.26;0.01141251;0.4943418;0;
-19899.96;-14915.9;-11.88913;-25938.88;7.833865;-14.96149;-21097.86;-12497.65;-0.0535663;-0.02589367;0;
-9241.58;-4075.053;-1429.383;-15883.79;-3.560861;-13.53988;-10676.52;-1450.391;0.1413895;-0.5456064;0;
-7178.92;-4508.317;-2490.429;-13065.57;-9.25071;-12.92343;-8073.412;-2768.599;0.1412475;-0.3501561;0;
13220.23;10405.7;-2113.74;12790.32;4.623686;-12.70949;13943.56;7748.102;0.07613821;0.4298038;0;
21788.32;17403.94;-1334.772;27332.98;4.61904;-12.02689;23258.44;14522.45;-0.1188403;0.4943393;0;
17094.74;13293.98;-494.6333;22891.38;-1.547543;-5.115748;18328.14;10745.64;-0.5734923;0.03907117;0;
15507.59;11429.18;1035.376;21537.48;-3.019856;-1.292642;16855.02;8719.516;-0.378014;0.2989013;0;
15282.49;11503.28;2081.091;20144.92;-3.084171;-3.702729;16354.28;8731.931;-0.05279749;0.03873157;0;
-7476.902;-6630.828;1714.308;-6800.991;-2.946374;-1.756503;-7949.584;-5853.125;-0.1177118;-0.3511114;0;
-33392.03;-28122.59;871.1022;-36647.95;-12.92375;0.7905521;-34741.69;-23388.85;0.01234119;-0.02592189;0;
-20029.87;-14979.19;-31.4448;-26003.08;-16.79553;1.392604;-21229.01;-12392.88;0.5320675;0.1690062;0;
-9758.861;-4565.542;-1468.66;-16352.17;-10.88415;5.142127;-11179.62;-1751.815;0.5315329;0.2987711;0;
-7084.942;-4645.193;-2513.424;-13036.22;-12.68188;4.936011;-7963.734;-2841.194;-0.2486093;0.3634382;0;
13474.67;10442.81;-2126.857;13016.23;-7.17678;7.744213;14209.59;7800.579;-0.3782942;0.2331383;0;
21717.92;17355.36;-1345.674;27296.96;-4.490252;9.210056;23190.31;14476.74;0.1418247;-0.2218673;0;
17151.01;13358.87;-486.5965;22938.63;-12.79211;-1.784094;18385.6;10807.56;0.07671483;-0.2866117;0;
15640.23;11553.49;1053.556;21665.32;-10.9706;-3.322909;16988.32;8845.137;0.0116704;0.4932843;0;
15374.2;11587.92;2083.292;20250.42;-21.14;-9.5488;16449.53;8831.423;0.07662602;0.0380173;0;
-7435.6;-6643.643;1689.208;-6729.793;-26.34367;-14.02694;-7896.818;-5818.091;0.07654902;-0.4817596;0;
-33619.09;-28342.7;837.5317;-36804.94;-0.3956629;-2.827001;-34956.18;-23579.99;0.1414395;0.1683979;0;
-19885.9;-14901.63;-38.36999;-25868.36;5.298162;-2.757177;-21069.52;-12404.51;0.01136264;0.2981634;0;
-9244.208;-4097.801;-1465.864;-15885.22;-2.476694;1.264508;-10651.5;-1413.468;0.07631857;0.1679291;0;
-7155.417;-4475.101;-2523.281;-12991.31;1.143117;3.540535;-8037.965;-2683.753;0.2061766;-0.1570764;0;
13216.18;10383.02;-2132.55;12892.27;-5.824256;-2.223371;13941.79;7765.021;0.01106737;-0.4167879;0;
21734.84;17344.07;-1352.704;27318.73;-7.627065;-1.953206;23206.1;14462.65;0.01105625;0.1033696;0;
17150.56;13357.5;-486.3109;22938.72;-0.05094041;-8.783381;18383.37;10816.45;-0.0539222;-0.2865383;0;
15661.02;11569.19;1070.77;21684.4;-0.4520548;-11.18588;17005.04;8867.825;-0.4436721;-0.8709565;0;
15314.19;11552.67;2094.648;20175.46;2.427811;-10.1699;16388.87;8791.793;0.07651247;-0.610212;0;
-7578.201;-6666.142;1698.398;-6884.169;3.765519;-10.56157;-8044.435;-5842.814;0.726109;-0.2847621;0;
-33600.21;-28333.52;836.7483;-36820.12;-4.409939;-11.68961;-34946.17;-23565.16;0.5304774;-0.02460662;0;
-19908.08;-14896.21;-63.1718;-25889.54;-6.817381;-12.41468;-21104.59;-12424.86;0.464977;-0.1545166;0;
-9083.722;-3930.794;-1487.767;-15729.24;-4.667077;-2.555956;-10504.68;-1318.331;0.2046404;-0.3492633;0;
-6455.816;-4194.506;-2529.81;-12270.92;-6.001558;0.05888566;-7313.119;-2473.503;-0.1853692;-0.1540104;0;
13689.55;10534.32;-2132.529;13466.12;-8.742194;1.465468;14453.45;7888.244;-0.1202156;-0.08888829;0;
21752.26;17412.45;-1348.811;27359.69;-10.27365;3.942242;23225.54;14535.46;0.3346766;0.1710704;0;
17261.01;13462.13;-487.1689;23020.78;-10.93291;-0.147556;18492.4;10923.35;0.6591769;0.3658005;0;
15802.57;11708.92;1062.105;21842.33;-11.72621;-0.2813736;17150.47;9002.738;0.2687106;-0.4141751;0;
15393.1;11609.69;2081.962;20258.3;-13.0536;-2.826381;16461.15;8858.119;-0.1213635;-0.5436937;0;
-7446.329;-6662.105;1680.664;-6763.612;-13.57635;-3.493371;-7917.566;-5819.361;-0.1862089;0.2364608;0;
-33411.45;-28138.91;816.1279;-36659.68;-13.49633;-7.240783;-34760.29;-23370.86;-0.3159564;0.04132114;0;
-19696.41;-14698.72;-93.86019;-25710.11;-13.81756;-9.041986;-20887.08;-12245.15;-0.2506716;-0.02368773;0;
-9047.211;-3911.694;-1539.445;-15703.43;-11.5265;-4.009302;-10469.99;-1329.431;-0.4453218;0.2362055;0;
-6871.084;-4283.168;-2589.62;-12744.21;-10.77799;-4.273205;-7788.391;-2570.518;-0.379907;-0.0888686;0;
13323.53;10431.69;-2176.677;13038.83;-11.36939;2.496243;14025.94;7799.229;0.07524615;-0.1537466;0;
21781.87;17399.92;-1387.027;27377.2;-10.55466;4.771032;23249.44;14513.23;0.07517054;-0.02365748;0;
17133.18;13345.25;-527.4393;22898.15;-10.61043;1.752128;18366.05;10808.44;-0.1847744;0.04133363;0;
15734.48;11639.46;1036.399;21769.03;-9.059528;2.286231;17079.44;8923.117;0.01031333;-0.02367524;0;
15172.03;11436.05;2041.976;19874.77;-13.94055;-2.672742;16233.12;8706.849;0.5300417;0.1712506;0;
-8180.98;-7182.28;1625.258;-7705.789;-15.6005;-4.478535;-8657.91;-6234.784;0.7244111;0.5608826;0;
-33494.52;-28200.24;788.7008;-36797.68;-3.9969;-7.555188;-34831.21;-23398.51;0.2039445;0.4303843;0;
-19483.67;-14538.57;-116.1997;-25524.12;-1.179845;-9.891938;-20667.64;-12048.67;-0.4459338;-0.3496563;0;
