Fp1;Fp2;O1;O2;POLY3;POLY4;A1;A2;Video;Audio;event;
-18930.23;-12882.3;2151.111;-19223.64;4.569295;-5.229218;-18332.49;-9522.39;-0.09875036;0.143318;0;13:06:42 Глаза закрыты;
-22302.88;-14067.22;804.0629;-23442.01;-8.094949;2.277881;-21310.4;-10108.01;-0.1636185;0.07820661;0;
-17787.09;-10536.51;-1273.514;-18786.77;-12.03795;4.887927;-16893.61;-7659.466;0.0964153;0.01316068;0;
-25833.71;-17065.65;-3102.923;-26772.43;-14.37038;7.294279;-24779.69;-11518;0.1612858;-0.05181989;0;
-3707.735;-2705.855;-3291.849;-4561.287;-21.1211;10.6361;-3403.087;-3020.831;-0.163713;0.01319952;0;
19270.72;12517.59;-2498.532;19844.42;-15.87594;11.22826;18557.4;8774.729;-0.2285158;-0.1167484;0;
17937.39;11116.63;-1289.785;19111.82;-14.31877;14.09712;17089.36;8418.759;0.09655047;-0.2465658;0;
17176.07;10918.63;898.256;18116.58;-17.58691;10.33203;16407.32;7989.855;0.03148611;-0.246318;0;
20407.34;13300.46;2805.207;21481.72;-18.50627;9.115955;19553.03;10277.2;-0.03351286;-0.3110379;0;
9625.477;6042.063;3004.162;10290.13;-18.62237;5.288891;9153.082;3361.38;0.2913575;0.07907871;0;
-18775.03;-12677.83;2141.606;-19061.23;-17.66565;0.8628249;-18181.41;-9415.546;0.2260974;0.403836;0;
-22125.66;-13965.55;786.0724;-23254.13;-21.13053;2.000546;-21145.02;-9993.836;-0.03399913;0.5983322;0;
-17718.63;-10548.29;-1281.647;-18737.99;-24.99504;1.194862;-16822.29;-7493.5;-0.09893231;0.2079269;0;
-25600.06;-16829.56;-3112.251;-26529.44;-21.3526;1.327628;-24536.79;-11149.99;-0.3587023;-0.6368574;0;
-3472.575;-2517.447;-3294.015;-4250.018;-20.46049;1.058362;-3194.111;-2828.883;-0.6831785;-0.3113808;0;
19357.74;12579.81;-2489.593;19968.54;-21.7791;3.401579;18625.65;8830.397;-0.4875901;0.2086708;0;
18166.78;11354.25;-1268.61;19329.7;-19.94855;3.867042;17325.25;8666.853;0.0326386;-0.05140823;0;
17426.08;11155.2;938.4312;18363.47;-25.82301;7.480113;16655.04;8227.923;0.1625405;0.01361076;0;
20415.56;13325.45;2849.152;21494.44;-28.81117;11.08967;19561.7;10304.06;0.09740982;0.1435318;0;
9800.868;6115.557;3066.054;10460.69;-28.11264;7.997317;9323.304;3427.518;0.2272466;-0.1164818;0;
-18240.19;-12301.63;2237.013;-18544.34;-28.75397;9.596871;-17661.05;-9095.556;-0.03285108;-0.1813321;0;
-22209.93;-13903.75;865.86;-23319.33;-27.58698;0.8796913;-21222.52;-9896.009;-0.2277201;-0.05121524;0;
-18332.91;-10964.41;-1224.054;-19315.05;-29.90379;-7.09204;-17428.06;-7766.443;0.09734543;0.07877093;0;
-25625.04;-16894.63;-3039.286;-26576.47;-19.95978;-4.606545;-24565.91;-11261.69;0.09724762;0.2086265;0;
-3249.146;-2322.061;-3220.78;-4073.237;-12.70605;-8.218994;-2962.305;-2755.474;-0.03278478;-0.2463546;0;
19327.37;12571.69;-2424.583;19925.79;-13.83236;-4.794607;18602.02;8833.658;-0.03275184;-0.3110744;0;
18143.27;11321.04;-1203.54;19311.15;-7.856617;-0.3690374;17297.55;8636.361;0.1621831;-0.05089244;0;
17379.6;11116.69;995.9391;18319.86;-16.08775;-6.798906;16608.36;8176.895;0.2269875;-0.3107107;0;
20431.96;13332.49;2903.198;21505.14;-20.89435;-7.796818;19579.16;10318.99;0.09682471;-0.1804638;0;
9752.496;6094.679;3102.71;10415.09;-19.39949;-7.855967;9275.988;3397.016;0.2916294;-0.05034777;0;
-18638.83;-12632.64;2247.802;-18932.23;-25.67664;-9.589508;-18058.77;-9397.89;-0.03350029;0.07963751;0;
-22133.48;-13949.44;890.4122;-23281.05;-14.93357;-4.489291;-21154.32;-10014.05;-0.293336;0.2094922;0;
-17702.54;-10493.18;-1182.66;-18736.99;-7.884987;-3.413054;-16819.13;-7592.735;-0.2280739;-0.0505877;0;
-25524.31;-16704.39;-3012.114;-26492.91;-14.57585;2.417647;-24479.02;-11255.6;-0.1628774;0.2093325;0;
-3430.861;-2381.092;-3193.307;-4271.196;-15.02971;8.510543;-3140.297;-2778.332;-0.03277905;0.3390568;0;
19445.04;12691.8;-2388.111;20035.91;-17.895;4.885035;18722.68;8956.25;0.09718856;-0.05108789;0;
18239.8;11408.72;-1175.648;19408.71;-19.95313;5.014092;17392.37;8710.604;0.3569603;-0.1160039;0;
17449.71;11197.7;1023.117;18382.45;-21.27322;2.8656;16677.54;8271.631;0.6814383;0.01404734;0;
20553.71;13440.54;2922.446;21624.88;-21.38557;0.786372;19698.06;10405.12;0.2909496;0.1439679;0;
9645.378;6040.462;3091.61;10295.17;-25.1815;-2.831496;9171.842;3379.033;-0.2290815;-0.1160461;0;
-18494.33;-12415.99;2224.813;-18812.02;-30.11366;-9.794632;-17903.32;-9129.842;-0.09891666;-0.1808968;0;
-21711.54;-13608.21;852.6099;-22860.03;-22.58132;-5.16309;-20733.04;-9691.694;0.09608475;0.209089;0;
-17613.59;-10461.98;-1244.006;-18645.15;-22.22383;-2.880605;-16734.66;-7490.651;0.0959882;0.2088789;0;
-25081.99;-16433.79;-3048.145;-26052.46;-11.88638;-9.374811;-24042.11;-10945.32;0.2258264;0.3386037;0;
-2744.374;-2050.53;-3204.143;-3560.046;1.053639;-9.633323;-2475.423;-2531.516;0.2255995;0.3382635;0;
19460.08;12620.8;-2409.837;20067.88;-11.406;-15.91992;18726.46;8877.544;-0.03449652;-0.0518805;0;
18079.95;11299.77;-1194.166;19246.19;-15.414;-20.79355;17236.6;8613.689;-0.2943312;0.07810633;0;
17425.85;11139.79;1003.555;18362.29;-13.8573;-17.35665;16654.36;8199.66;-0.09913346;0.1429952;0;
20477.83;13392.85;2890.191;21550.74;-15.45096;-19.34858;19623.58;10372.86;-0.1640012;0.01291681;0;
9796.908;6130.677;3071.601;10461.32;-15.9713;-10.28668;9317.872;3433.838;-0.03390172;0.2078059;0;
-18318.57;-12355.71;2211.164;-18613.85;-17.89764;-3.846108;-17736.94;-9145.9;0.4858711;0.3375317;0;
-21926.86;-13758.83;830.4166;-23062.01;-15.13396;-2.435724;-20948.29;-9808.467;-0.0993232;0.2722253;0;
-17975.18;-10743.61;-1255.62;-18993.07;-14.78397;3.862997;-17093.16;-7667.198;-0.4890274;0.07704969;0;
-25499.87;-16743.78;-3053.797;-26479.67;-10.21378;-1.365431;-24457.19;-11213.11;-0.09873202;-0.2478645;0;
-3098.075;-2216.95;-3206.104;-3941.453;-6.117683;-3.842306;-2823.168;-2685.909;0.03130187;-0.182648;0;
19476.01;12666.88;-2388.979;20073.91;-5.977814;-2.230977;18746.11;8933.217;0.1612051;-0.05252984;0;
18197.6;11391.3;-1162.553;19361.96;-4.163146;-2.831581;17356.57;8707.021;0.09607577;-0.1824117;0;
17423.96;11154.68;1030.982;18360.9;-3.82417;-4.905085;16653.3;8215.812;0.0310119;0.01267357;0;
20455.25;13357.33;2916.935;21526.81;-1.543152;-7.914388;19601.71;10345.86;0.09594808;-0.1172739;0;
9815.407;6144.576;3094.476;10462.17;-6.02958;-5.227118;9351.355;3436.929;0.5506231;-0.2470907;0;
-18256.9;-12294.91;2224.146;-18558.73;-7.898556;-4.284105;-17661.97;-9123.713;0.4851024;0.01302695;0;
-21911.33;-13680.1;836.0453;-23031.98;-8.292761;-3.476006;-20919.75;-9759.439;-0.3599604;0.07798122;0;
-18077.21;-10777.98;-1251.433;-19086.8;-10.76267;-0.9942663;-17172.49;-7735.568;-0.1646967;0.2078375;0;
-25639.26;-16926.73;-3047.21;-26603.07;-5.594296;-3.337548;-24591.17;-11366.36;0.0303708;0.1426614;0;
-3177.568;-2302.016;-3203.474;-3987.393;-4.91909;-6.080494;-2899.069;-2691.837;-0.2944964;0.07755068;0;
19386.08;12610.07;-2394.458;20001.12;1.851007;-0.5149234;18661.79;8873.384;0.0306362;0.1424401;0;
18098.91;11293.6;-1169.276;19262.34;6.470848;2.499704;17252.03;8596.946;0.1605401;-0.2475071;0;
17394.77;11120.32;1017.457;18333.25;9.478456;0.3538604;16622.63;8190.43;0.2253461;-0.05235637;0;
20395.54;13296.29;2892.554;21469.14;17.84168;2.027956;19538.71;10261.11;0.4200217;0.272533;0;
9469.688;5905.471;3072.462;10119.96;6.102101;-3.935318;9002.733;3250.379;0.484567;0.01238974;0;
-18748.49;-12670.82;2214.398;-19044.19;0.3361698;-8.285254;-18159.07;-9377.666;0.8089168;0.142312;0;
-22102.49;-13907.49;842.6429;-23221.65;-0.2000314;-7.406152;-21116.55;-9836.852;0.6781694;0.2721037;0;
-18668.99;-11453.27;-1240.501;-19643.86;-6.898612;-9.74299;-17750.61;-8067.165;0.02781451;0.3367976;0;
-27233.48;-18340.9;-3048.064;-28132.93;0.2082669;-7.924784;-26158.75;-12306.74;-0.1671155;0.2065245;0;
-4286.719;-3027.663;-3181.854;-5100.026;3.021097;-8.251736;-3978.338;-3162.351;-0.1669475;0.0763823;0;
19490.61;12825.65;-2336.315;20070.28;2.884339;-5.63111;18780.16;9098.353;-0.1667798;0.3361749;0;
18273.33;11408.92;-1124.638;19445.71;6.297693;-2.075478;17423.01;8696.424;-0.2315796;-0.05396694;0;
17413.67;11167.07;1046.714;18358.32;3.612047;-4.752588;16642.1;8242.003;0.0285225;-0.3137821;0;
20443.1;13332.9;2931.433;21518.13;1.532313;-3.207205;19589.85;10309.21;0.09346119;0.07633728;0;
9559.312;5985.81;3120.141;10205.25;6.353545;-7.557873;9094.224;3270.821;0.02839993;0.4010973;0;
-18238.76;-12172.14;2278.677;-18557.49;9.897134;-13.04276;-17641.28;-9031.033;0.1583061;0.2707596;0;
-21562.21;-13480.11;914.9783;-22686.32;4.327484;-5.594668;-20574.41;-9600.887;0.09317967;-0.3791859;0;
-17548.05;-10361.37;-1159.024;-18547.17;-0.4996355;-2.039073;-16650.2;-7417.754;0.2230207;-0.2488702;0;
-24800.84;-16088.91;-2950.88;-25765.8;4.65843;-4.113373;-23749.16;-10752.61;0.1578293;0.2061512;0;
-2643.079;-1861.65;-3117.876;-3484.195;10.6156;-4.243206;-2352.632;-2423.326;0.09270336;-0.18386;0;
19515.8;12707.05;-2305.666;20103.58;-1.988349;-2.832423;18796.68;8971.023;0.2225449;-0.3136099;0;
18358.92;11558.31;-1061.302;19524.42;-10.96133;-1.422935;17513.59;8876.146;-0.2324501;0.01154193;0;
17777.35;11499.58;1142.907;18710.7;-2.577574;-2.761164;17007.83;8556.634;-0.3621512;0.141465;0;
20894.02;13806.61;3030.747;21965.18;-1.235813;-2.356492;20040.27;10789.42;0.02801672;-0.05357916;0;
10209.4;6379.354;3217.481;10870.33;2.382751;-4.899354;9734.612;3682.729;0.2228906;-0.2484273;0;
-18040.05;-12275.92;2355.43;-18342.43;7.738991;-7.640731;-17466.31;-9102.282;0.2226666;-0.0532757;0;
-21834.31;-13704.83;968.1657;-22961.9;5.38669;-4.484856;-20852.35;-9709.373;0.09250821;0.1416799;0;
-18368.52;-11167.31;-1112.887;-19363.08;4.711692;-3.07383;-17452.39;-7866.398;0.1573826;0.07657017;0;
-26375.11;-17566.21;-2909.63;-27315.37;8.859168;-2.467895;-25309.51;-11749.58;0.09225712;-0.1833761;0;
-3671.272;-2553.471;-3062.613;-4489.052;10.99372;-1.058774;-3370.872;-2853.369;-0.2976396;-0.4430613;0;
19494.23;12791.29;-2234.45;20083.66;10.17937;0.08100004;18780.84;9065.149;-0.0374712;-0.3776487;0;
18293.76;11446.86;-1014.411;19455.95;12.78111;0.750748;17443.77;8743.104;0.2874032;-0.1173999;0;
17556.81;11304;1165.014;18493.96;3.859656;4.099018;16785.22;8372.875;0.02724501;-0.05231459;0;
20717.77;13603.67;3064.856;21781.57;-4.650689;7.644873;19860.81;10578.54;0.1571523;0.07767267;0;
9724.125;6121.86;3261.801;10376.28;2.119138;4.891013;9258.021;3426.013;0.3518964;0.2075293;0;
-18457.98;-12400.38;2406.327;-18760.77;3.92567;3.412474;-17854;-9151.422;0.2216082;0.01241874;0;
-21576.24;-13585.98;1059.429;-22700.96;0.3044034;4.480772;-20584.59;-9648.347;0.2863528;-0.1175284;0;
-17241.16;-10122.46;-978.7682;-18242.6;-2.576291;2.801697;-16339.04;-7322.566;0.2210978;-0.05244298;0;
-24345.37;-15738.29;-2759.155;-25315.8;1.847904;4.406472;-23311.94;-10628.71;0.2208756;0.1425118;0;
-2108.149;-1602.914;-2932.247;-2929.522;7.338403;6.277566;-1863.864;-2273.292;0.02575164;0.07740121;0;
19670.6;12771.52;-2154.003;20288.58;-1.176413;1.046712;18934.84;9045.694;-0.1691763;-0.2475133;0;
18198.55;11429.46;-949.5369;19363.29;-5.193718;-1.097794;17358.5;8750.858;-0.1040389;0.07757214;0;
17524.38;11238.65;1226.386;18462.54;-2.576532;-3.17304;16752.63;8298.179;-0.2338691;0.4672982;0;
20453.75;13361.17;3099.337;21530.97;-3.309901;-5.514254;19603;10344.64;-0.3635688;0.4018614;0;
9696.958;5963.6;3303.462;10336.92;-0.1587433;-5.977594;9229.524;3268.434;-0.1683014;0.0116535;0;
-18028.45;-12137.84;2471.997;-18349.86;2.453385;-10.39234;-17440.19;-8919.351;0.2216717;-0.2482276;0;
-21044.12;-13130.21;1119.754;-22171.96;2.450919;-1.808325;-20065.89;-9309.391;0.8061551;-0.4428802;0;
-17121.78;-10077.6;-939.3992;-18127.27;1.510452;4.82468;-16234.22;-7308.553;0.4805083;-0.3125005;0;
-24581.36;-15999.6;-2732.35;-25548.69;8.408786;-0.6056635;-23543.38;-10721.94;-0.2995826;0.2725196;0;
-2197.029;-1719.978;-2905.782;-3011.085;15.43293;0.2657232;-1935.932;-2270.194;-0.6890856;0.7270172;0;
19719.32;12797.52;-2135.685;20337.19;9.522929;-4.222278;18983.95;9065.734;-0.2985892;0.791254;0;
18188.08;11435.7;-934.1111;19360.31;9.982851;-8.504822;17344.25;8753.934;0.2864169;0.2057529;0;
17535.36;11240.78;1259.413;18476.5;5.15005;-7.558637;16762.11;8299.58;0.1561945;0.07561144;0;
20570.95;13472.86;3141.295;21646.3;-2.825728;-10.16325;19714.76;10459.31;0.09107018;0.1405028;0;
9704.187;6087.417;3318.142;10351.96;6.353163;-8.143676;9229.851;3382.583;0.4158154;-0.1844751;0;
-18384.14;-12339.24;2451.647;-18710.65;6.815294;-5.79109;-17800.56;-9124.343;0.2854629;0.07557965;0;
-21488.8;-13471.37;1084.37;-22624.59;10.62684;-9.871108;-20503.12;-9574.865;0.2202087;0.5302751;0;
-17187.76;-10072.07;-983.3057;-18185.51;17.58239;-10.66498;-16285.35;-7312.674;0.2199874;0.1399382;0;
-24460.14;-15803.7;-2780.351;-25428.81;5.373581;-11.05617;-23415.08;-10665.04;-0.1050703;-0.1850391;0;
-2327.037;-1717.459;-2952.876;-3150.02;0.7464815;-13.65727;-2061.819;-2317.83;-0.4298014;0.2049509;0;
19557.37;12679.98;-2175.829;20171.16;-4.612903;-7.414378;18825.83;8961.222;-0.03956553;0.3346796;0;
18135.73;11368.93;-971.6844;19297.18;-11.70821;-3.12002;17292.21;8678.261;0.2203436;0.2044087;0;
17390.15;11101.94;1205.823;18322.49;-12.03124;-4.724476;16618.21;8169.386;-0.3645839;-0.1206334;0;
20291.73;13190.97;3063.458;21370.12;-16.50713;-3.982916;19436.23;10165.51;-0.2342829;-0.1854796;0;
9222.301;5702.018;3239.134;9862.915;-13.27536;-4.380812;8755.151;3019.792;0.1557566;0.1395435;0;
-18750.41;-12604.2;2393.521;-19097.02;-11.92188;-5.180205;-18155.44;-9393.941;-0.03930194;0.269338;0;
-21598.1;-13489.29;1024.085;-22751.21;-10.90552;-5.241983;-20619.18;-9659.863;0.02570489;0.5289367;0;
-17607.81;-10398.19;-1058.71;-18625.77;-6.876077;-5.035767;-16716.49;-7484.855;0.09064641;0.2035685;0;
-25001.07;-16333.05;-2848.793;-25991.4;-10.955;-8.245766;-23950.96;-10978.65;-0.03937936;-0.3163747;0;
-2445.037;-1815.066;-2994.684;-3281.844;-13.08647;-9.979036;-2174.573;-2392.931;0.0905949;0.0737472;0;
19569.36;12701.93;-2197.918;20180.26;-9.054837;-11.10772;18835.1;8968.967;0.2204385;0.3335425;0;
18079.38;11308.67;-998.1861;19244.96;-4.290317;-12.63717;17234.02;8623.437;-0.169587;0.2032726;0;
17420.6;11127.76;1187.844;18350.76;-13.39568;-11.01688;16645.41;8194.67;-0.2993513;0.3330031;0;
20545.27;13451.28;3074.014;21608.08;-23.63;-11.07279;19689.07;10417.99;0.2206882;0.1377664;0;
9615.515;6023.565;3245.337;10246.91;-9.540088;-5.502203;9147.712;3386.469;0.2204665;0.07266067;0;
-18828.99;-12807.4;2366.517;-19157.19;-2.095762;0.732616;-18248.4;-9517.605;0.02534294;0.07258766;0;
-22290.44;-14014.34;977.5231;-23434.25;-8.725089;-1.54554;-21315.02;-10014.02;0.3501542;-0.1873547;0;
-18951.66;-11569.79;-1120.499;-19957.54;-7.175104;-2.615714;-18056.26;-8170.21;0.02496564;-0.05723172;0;
-27104.8;-18260.58;-2918.422;-28047.82;-14.26784;4.955864;-26046.28;-12289.25;-0.04002679;0.1377278;0;
-3860.427;-2770.57;-3033.383;-4690.725;-20.41642;9.907499;-3548.54;-3008.643;0.4147848;0.0726221;0;
19462;12757.14;-2201.97;20043.07;-16.37644;8.758834;18751.97;9041.856;0.08953134;0.3973858;0;
18117.4;11271.36;-978.153;19283.1;-15.75775;10.49159;17265.51;8557.135;-0.1054607;0.3320192;0;
17518.15;11258.98;1236.561;18451.43;-17.48323;7.734747;16746.46;8344.108;-0.3002567;-0.4479225;0;
20702.19;13586.72;3112.531;21769.75;-20.54712;4.779849;19846.01;10535.13;-0.3649223;-0.3175378;0;
9354.031;5841.549;3251.27;10008.99;-13.09076;5.980738;8882.924;3218.408;0.4800198;0.3974221;0;
-18908.49;-12755.29;2369.788;-19222.97;-7.718974;4.568087;-18329.06;-9478.648;0.5445048;0.2670881;0;
-22038.96;-13796.82;991.0674;-23151.45;-12.40027;4.1616;-21058.01;-9837.064;-0.04074841;0.136885;0;
-18767.34;-11441.82;-1101.19;-19722.74;-14.9334;3.822503;-17850.82;-7986.667;0.2191619;0.1367474;0;
-26517.25;-17767.29;-2899.07;-27470.45;-13.17708;1.809297;-25454.42;-11863.63;0.1539743;-0.05829199;0;
-3226.577;-2323.349;-3032.666;-4087.957;-10.75197;2.008427;-2933.56;-2728.245;-0.2359844;-0.1232008;0;
19563.98;12784.02;-2213.966;20147.36;-21.32471;-2.213516;18845.88;9061.071;-0.365682;-0.4479137;0;
18160.89;11346.53;-982.5784;19322.58;-26.59457;-6.899974;17310.75;8648.545;-0.3003472;-0.4474636;0;
17528.95;11250.54;1229.141;18463.11;-32.59607;-2.137375;16755.44;8321.483;0.154726;-0.252112;0;
20542.25;13429.87;3096.342;21612.17;-43.41431;-1.130484;19684.11;10390.3;0.02463582;-0.5766953;0;
9129.694;5735.85;3230.943;9760.974;-31.18052;-0.2585695;8667.529;3114.305;-0.170291;-0.5111485;0;
-19346.75;-13064.17;2340.58;-19682.2;-21.23523;3.023732;-18746.19;-9722.373;-0.3000545;-0.1208309;0;
-22445.55;-14032.44;939.2751;-23586.85;-30.92679;-1.534024;-21465.29;-10110.4;-0.6895571;0.2041272;0;
-18414.78;-10877.08;-1177.012;-19431.01;-34.04354;-2.537226;-17528.25;-7764.279;-0.2990602;0.1389548;0;
-25722.95;-16992.47;-2977.97;-26712.25;-25.43552;-4.008179;-24688.03;-11392.21;-0.2337923;-0.1860216;0;
-2891.977;-2142.464;-3089.733;-3742.539;-24.13717;-6.750452;-2617.381;-2590.887;-0.6233615;-0.1208673;0;
19574.06;12762.78;-2244.098;20174.31;-12.39126;-4.93513;18850.29;9047.056;-0.3628657;0.009188832;0;
18096.53;11282.27;-1018.521;19262.85;1.217867;-8.212213;17249.31;8576.385;-0.2975338;-0.1207551;0;
17385.49;11116.82;1174.807;18319.38;-10.43765;-0.9700486;16609.45;8190.332;-0.1023328;0.1392356;0;
20494.11;13371.78;3045.217;21570.84;-14.71407;5.126251;19635.06;10326.17;0.4824761;0.2040631;0;
9141.618;5698.426;3203.014;9753.815;-11.14932;-2.112935;8677.204;3063.528;0.417024;0.07392334;0;
-18939.97;-12712.71;2347.692;-19325.19;-12.47728;-1.708914;-18354.26;-9423.197;-0.03816645;-0.05608563;0;
-21695.52;-13541.15;974.1475;-22851.92;-12.26465;-9.142058;-20726.51;-9611.582;0.09180658;-0.1209966;0;
-18488.41;-11225.81;-1118.186;-19489.78;-14.26108;-14.08949;-17607.6;-7947.818;0.02674699;-0.0559077;0;
-26251.86;-17564.96;-2899.042;-27250.08;-12.238;-14.47723;-25218.8;-11875.32;-0.2981166;0.1390505;0;
-2846.389;-2109.104;-3024.533;-3720.484;-11.01928;-18.95041;-2555.328;-2607.449;-0.1678824;0.07394345;0;
19651.74;12839.72;-2211.745;20241.26;-12.54942;-10.22384;18936.67;9116.779;0.09215569;-0.3159349;0;
18115.15;11315.31;-989.6358;19278.07;-11.06294;-4.721086;17259.51;8618.114;0.02709576;0.009219253;0;
17580.99;11293.56;1210.847;18505.09;-15.13766;-1.501283;16803.84;8361.485;0.09203587;0.1391447;0;
20641.59;13530.81;3075.973;21705.36;-18.53871;3.255892;19780.36;10482.36;0.09194339;-0.2507992;0;
9239.177;5784.559;3220.121;9868.882;-14.50061;8.812081;8779.236;3178.897;0.02688367;-0.3155145;0;
-19098.32;-12898.82;2337.921;-19452.35;-12.54366;14.09476;-18498.63;-9550.416;0.286726;-0.2502302;0;
-21994.63;-13806.96;951.0178;-23152.01;-12.32999;15.82215;-21021.72;-9862.189;0.3514053;-0.120044;0;
-18545.22;-11241.16;-1143.823;-19550.33;-11.24685;18.6864;-17650.25;-7926.311;0.02621546;-0.4447601;0;
-26439.77;-17631.49;-2940.457;-27422.06;-9.024742;14.17989;-25400.4;-11815.11;0.1561238;-0.7041826;0;
-3219.986;-2303.302;-3073.341;-4078.18;-8.077669;8.740143;-2959.32;-2701.153;0.2209343;0.07613308;0;
19605.06;12825.46;-2249.509;20195.22;-3.180409;10.07102;18874.54;9109.095;0.09077758;0.4658606;0;
18230.67;11399.22;-1019.553;19388.06;2.985705;11.06564;17383.19;8691.366;-0.03924831;0.2055232;0;
17643.88;11378.74;1184.895;18574.8;-2.979142;-0.8012103;16866.72;8448.594;-0.1691436;0.3352513;0;
20700.73;13580.16;3050.953;21766.26;-7.932642;-7.632542;19842.49;10533.54;0.1558631;0.2699471;0;
9365.513;5843.365;3192.159;9972.931;0.9839368;-11.04088;8901.589;3195.339;0.6754452;-0.05516083;0;
-18641.56;-12510.17;2320.044;-19019.97;8.150244;-18.59861;-18055.56;-9270.561;0.4798645;0.204764;0;
-21559.55;-13434.76;933.003;-22726.02;-1.63721;-10.47523;-20595.02;-9570.09;-0.1702911;0.2695256;0;
-18353.27;-11076.66;-1169.909;-19370.69;-9.205002;-7.718532;-17476.37;-7851.911;0.0897494;-0.250484;0;
-25823.68;-17165.68;-2958.084;-26840.17;0.7845822;-2.687178;-24789.33;-11599.93;0.1546266;-0.05533028;0;
-2533.096;-1890.366;-3108.816;-3428.076;5.807636;5.688267;-2250.518;-2518.068;-0.4952022;0.009692653;0;
19661.5;12823.15;-2307.781;20240.8;2.3182;0.6589531;18939.02;9097.281;-0.1049006;-0.5100558;0;
18170.36;11369.7;-1064.086;19328.54;4.124532;-0.8823164;17317.06;8683.031;0.4799109;-0.3146413;0;
17615.59;11332.91;1134.379;18543;-0.9034547;2.936475;16837.81;8388.497;0.154592;0.2703809;0;
20597.04;13475.97;2985.495;21662.2;-8.269938;4.608098;19739.55;10443.84;0.08946928;0.400044;0;
9240.818;5768.048;3142.072;9853.995;2.0535;1.85729;8775.903;3129.021;-0.04055529;0.1397726;0;
-18906.11;-12692.55;2279.565;-19277.24;6.673137;3.060994;-18321.78;-9369.482;-0.3653513;-0.4450739;0;
-21202.05;-13310.42;914.3972;-22364.52;3.853392;-5.582636;-20246.37;-9496.781;-0.4949188;-0.1847573;0;
-17319.14;-10351.3;-1169.1;-18327.21;8.806013;-14.28456;-16457.45;-7476.452;-0.2345522;0.2052324;0;
-25355.91;-16644.91;-2981.217;-26340.23;-4.331001;-5.897588;-24350.2;-11256.54;0.02555288;-0.05484322;0;
-2573.935;-1857.528;-3132.253;-3414.052;-14.97657;-3.815191;-2337.379;-2402.28;0.1554619;0.07514659;0;
19756.35;12883.21;-2322.699;20369.38;-6.455055;-1.199145;19012.39;9153.608;0.3502077;0.2699731;0;
18211.53;11421.06;-1110.442;19374.48;-5.109398;3.490743;17364.7;8720.951;0.4148231;0.2697018;0;
17611.1;11325.12;1072.952;18544.86;-4.769472;2.080716;16834.86;8401.923;0.349439;0.3993655;0;
20661.21;13545.95;2928.722;21729.44;-2.553877;1.27483;19801.02;10481.57;0.2191532;0.009160168;0;
9186.315;5717.236;3085.699;9811.945;-1.814376;6.230164;8727.461;3131.76;0.02403096;-0.2507184;0;
-18918.78;-12761.24;2226.404;-19274.35;0.1962029;9.706895;-18330.59;-9403.807;-0.2358626;0.3342396;0;
-21520.2;-13540.91;848.764;-22673.87;1.134011;6.415099;-20565.35;-9614.528;-0.3005929;0.4638385;0;
-18192.25;-11044.71;-1244.162;-19178.11;1.066498;7.614224;-17306.73;-7761.731;-0.04042149;-0.2512684;0;
-25541.72;-16943.79;-3027.827;-26535.71;6.423085;-0.966998;-24499.63;-11429.66;-0.4301849;-0.1860486;0;
-2109.966;-1609.078;-3156.141;-2998.18;12.91434;-10.20943;-1844.493;-2323.39;-0.6246547;-0.1208943;0;
19790.83;12901.48;-2351.373;20383;4.32755;-2.898273;19060.49;9184.927;-0.234223;0.009161868;0;
18183.29;11414.29;-1127.733;19340.63;-2.441952;-0.08207762;17331.37;8724.705;-0.104053;0.269022;0;
17744.91;11443.83;1069.484;18669.37;3.722443;-3.832917;16965.06;8500.797;-0.2988504;-0.3809217;0;
20693.47;13585.38;2913.669;21760.34;2.848047;-4.030015;19833.64;10539.02;-0.4284848;-0.2506043;0;
9176.086;5702.086;3059.854;9793.372;5.725573;-3.423119;8718.051;3099.059;-0.1032176;0.1394516;0;
-19025.31;-12844.62;2203.521;-19380.82;13.28926;-4.290458;-18432.96;-9488.183;0.1567555;-0.1205579;0;
-21541.51;-13451.84;846.2379;-22706.5;-2.063065;1.206332;-20578;-9600.416;0.156598;0.1394326;0;
-18069.85;-10861.84;-1228.664;-19090.07;-10.76853;5.491905;-17188.89;-7708.06;0.5462447;-0.05560952;0;
-25991.26;-17218.82;-3029.898;-26975.72;-7.006665;4.347677;-24961.22;-11609.62;0.4157611;-0.1854883;0;
-2811.239;-1977.511;-3166.783;-3679.455;-11.22016;5.482018;-2536.183;-2515.952;0.02553933;0.009600078;0;
19751.37;12939.87;-2347.949;20332.42;-2.433999;5.677459;19031.48;9226.19;0.1554483;-0.2502789;0;
18235.89;11419.38;-1137.01;19396.84;4.13253;7.078396;17382.57;8715.969;0.1552922;0.1397766;0;
17596.05;11317.96;1055.969;18524.91;1.247989;3.722137;16818.2;8387.246;0.2850708;0.2046035;0;
20688.51;13568.5;2921.407;21755.96;1.180362;0.1684234;19828.13;10510.09;0.414719;-0.3153408;0;
9223.829;5757.441;3064.367;9856.849;5.466084;3.919176;8754.54;3150.069;0.02449828;-0.05515461;0;
-18848.94;-12686.48;2190.694;-19202.39;10.41708;3.915238;-18272.66;-9326.483;-0.2353957;0.2697375;0;
-21555.6;-13455.33;812.3409;-22702.83;2.637085;5.050014;-20600.51;-9537.22;-0.4950285;0.00959712;0;
-18400.22;-11110.7;-1272.24;-19402.45;-2.323033;4.977957;-17514.62;-7835.487;-0.4945311;-0.05537986;0;
-25790.88;-17184.51;-3054.144;-26813.82;-1.315345;6.178648;-24770.39;-11555.05;-0.1691975;0.1395778;0;
-2336.431;-1812.347;-3209.402;-3216.587;-2.65417;8.717669;-2098.045;-2417.982;-0.4288969;-0.3153338;0;
19700.09;12830.04;-2417.433;20303.32;-5.062401;2.345653;18961.32;9104.109;-0.623368;-0.509919;0;
18105.57;11323.04;-1174.502;19260.52;-6.664905;0.6688446;17253.74;8624.417;-0.4278395;0.07529945;0;
17641.01;11342.38;1038.316;18566.03;-7.797283;-4.824306;16859.36;8407.294;-0.297475;0.07522379;0;
20670.39;13560.03;2901.961;21733.34;-11.80794;-9.173227;19810.04;10506.69;-0.1672414;-0.0547865;0;
9153.964;5709.097;3057.996;9769.332;-3.959191;-8.762112;8680;3115.392;0.09279603;0.1401706;0;
-18906.09;-12698.37;2189.296;-19290.74;1.604493;-11.56659;-18335.6;-9327.72;-0.1021992;-0.1198396;0;
-21308.12;-13218.67;815.3482;-22511.92;-2.148164;-4.186968;-20358.56;-9459.339;-0.3619659;-0.2496539;0;
-17797.25;-10562.19;-1260.209;-18837.6;-0.5384147;0.03704149;-16923.6;-7575.698;0.1581365;0.01046632;0;
-25417.45;-16727.1;-3036.362;-26432.36;-3.485611;5.261551;-24403.68;-11236.58;0.5477816;0.1403905;0;
-2288.787;-1677.722;-3165.276;-3161.127;-3.281038;10.88271;-2064.332;-2294.409;-0.03747481;0.01031474;0;
19785.2;12887.44;-2348.723;20384.56;-7.430927;13.88588;19035.59;9158.5;-0.2973065;-0.1845977;0;
18167.48;11379.04;-1111.297;19323.74;-12.84847;19.23044;17321.85;8686.452;-0.2320404;0.2053919;0;
17635.16;11343.99;1099.865;18560.01;-7.544271;15.19227;16856.2;8403.706;-0.4267093;0.5300222;0;
20683.57;13568.39;2959.918;21750.53;-11.8236;13.03355;19824.82;10525.52;-0.2313785;0.1396856;0;
9238.044;5741.952;3096.78;9856.111;3.459902;11.14505;8772.667;3113.991;0.2885927;0.009610554;0;
-18890.34;-12770.08;2216.266;-19256.59;19.86712;7.382808;-18308.79;-9489.602;0.4182374;0.07456826;0;
-21630.38;-13457.72;835.357;-22774.65;1.7625;4.763178;-20665.09;-9660.319;0.1579478;0.07449333;0;
-18224.61;-10853.74;-1246.686;-19210.07;-2.794599;1.208418;-17334.97;-7760.921;-0.232015;0.2693205;0;
-25493.46;-16893.74;-3017.324;-26473.22;-4.599476;-0.668318;-24466.2;-11393.37;-0.1668145;0.3340172;0;
-2181.395;-1684.42;-3142.634;-3010.837;-10.82415;-1.739373;-1934.895;-2306.751;0.02825513;0.008844883;0;
19727.58;12840.88;-2338.16;20351.09;-6.125196;-4.550787;18992.56;9117.966;-0.0367406;-0.2510334;0;
18106.17;11330.59;-1100.526;19268.48;-8.127797;-6.28777;17259.03;8634.777;-0.296573;-0.1208465;0;
17652.06;11349.78;1116.966;18589.19;-0.6848904;-4.673862;16875.76;8419.923;-0.3612424;0.2041117;0;
20625.37;13514.02;2966.164;21700.05;5.344018;-6.276756;19767.26;10455.48;0.2238267;0.1389393;0;
9007.643;5628.208;3106.236;9645.417;4.735435;2.838986;8544.845;3042.182;0.2885691;-0.05610238;0;
-19141.54;-12875.95;2237.425;-19479.92;10.35773;11.14189;-18543.29;-9513.44;-0.2314596;-0.1210134;0;
-21749.38;-13565.23;835.7556;-22891.28;3.447472;6.442016;-20775.1;-9707.576;0.2885117;0.00904293;0;
-18545.11;-11208.72;-1285.737;-19538.25;-2.249419;6.83744;-17655.19;-7932.459;0.6780258;-0.0559335;0;
-26039.25;-17328.94;-3076.529;-27032.06;4.250552;6.428673;-25013.71;-11660.38;-0.1022635;-0.2507793;0;
-2457.689;-1785.453;-3176.151;-3315.367;5.987593;4.881606;-2228.392;-2391.563;-0.8168015;-0.2505273;0;
19799.67;12934.87;-2331.492;20407.28;4.842501;5.412564;19052.36;9211.399;-0.6210788;-0.3802103;0;
18183.35;11379.91;-1090.85;19340.53;6.646296;5.407125;17339.52;8683.904;0.2241207;-0.4447956;0;
17659.83;11373.28;1128.131;18584.61;2.888573;2.722375;16882.69;8441.156;0.09396086;-0.314414;0;
20750.82;13635.07;2994.028;21815.66;-0.5969534;0.9112225;19893.22;10575.08;-0.4908396;-0.1841634;0;
9109.449;5718.485;3114.864;9732.068;3.623205;0.8433239;8648.762;3140.969;-0.1005424;-0.119011;0;
-19176.68;-12938.99;2216.121;-19535.47;2.414116;-0.8990797;-18590.51;-9580.404;0.09446067;0.2059453;0;
-21658.29;-13502.67;818.5021;-22808.14;7.702976;2.651797;-20700.83;-9731.197;-0.1655036;0.01083635;0;
-18301.27;-10932.76;-1295.008;-19303.55;12.78643;4.85957;-17409.94;-7764.215;-0.2303047;-0.5089133;0;
-25617.66;-17035.6;-3074.281;-26615.86;6.209496;5.725464;-24590.46;-11462.04;-0.3600079;-0.3784672;0;
-1952.804;-1581.411;-3166.409;-2793.859;5.801115;8.867787;-1743.61;-2265.354;-0.2297115;-0.2481523;0;
19946.76;13007.88;-2340.438;20562.43;-1.573081;6.112699;19188.54;9281.15;0.09535602;-0.3128703;0;
18179.99;11405.95;-1092.775;19332.92;-7.59972;3.89612;17338.67;8713.527;0.2901622;0.1422155;0;
17797.26;11503.36;1146.073;18726.04;-8.261669;7.24123;17017.35;8559.563;0.4847727;0.2720073;0;
20742.77;13625.9;2996.959;21809.67;-13.07614;8.238698;19883.12;10580.43;0.1594489;0.2067667;0;
9213.129;5744.847;3110.795;9835.821;-7.570644;7.09171;8749.473;3120.931;0.09432133;-0.1182778;0;
-18430.21;-12281.84;2224.114;-18804.5;-3.543573;6.347894;-17840.86;-8956.183;0.1591939;-0.6378977;0;
-20642.5;-12764.87;830.4847;-21834.98;-4.545366;5.53772;-19690.04;-9071.574;-0.1658028;-0.1824854;0;
-17427.09;-10334.96;-1277.697;-18470.64;-3.602794;5.934053;-16570.43;-7486.455;-0.2955709;0.3374367;0;
-24912.63;-16337.68;-3059.251;-25918.87;1.022526;1.172424;-23917.31;-11012.8;-0.1653392;-0.05270638;0;
-1663.352;-1320.555;-3166.45;-2476.117;4.705194;-2.914712;-1462.226;-2022.884;-0.2301404;-0.4424575;0;
19977.04;13019.81;-2342.743;20614.53;4.164603;-1.706091;19217.18;9293.164;0.09492756;-0.1171762;0;
18251.09;11492.34;-1102.449;19402.29;3.758277;-3.044035;17406.39;8801.568;0.2247669;0.2727456;0;
17824.28;11520.27;1121.76;18753.39;5.697859;-2.237181;17043.2;8576.974;-0.165263;0.2075042;0;
20859.52;13757.56;2983.665;21920.9;9.041037;-1.096224;19998.79;10712.09;-0.2950317;0.2072957;0;
9536.136;5966.977;3107.135;10145.22;0.05599545;-3.171471;9075.593;3332.703;0.1600362;0.1421201;0;
-18157.97;-12144.11;2207.87;-18537.7;-4.967903;-3.436216;-17566.11;-8906.386;0.09490804;-0.3777615;0;
-20469.54;-12649.97;797.8587;-21676.58;-7.039016;-4.03561;-19532.24;-9098.914;-0.1000893;-0.3124145;0;
-17219.2;-10155.87;-1321.128;-18290.85;-14.66775;-4.500435;-16376.82;-7440.959;0.1598806;-0.05223126;0;
-24684.45;-16173.23;-3094.94;-25693.37;-5.007473;-4.160999;-23701.78;-10924.62;0.4195893;0.07775593;0;
-1452.765;-1229.729;-3176.881;-2236.983;1.1595;-4.491732;-1281.816;-1954.894;0.09433099;0.5324492;0;
20094.18;13107.33;-2332.018;20746.81;-4.200299;-2.611819;19319.98;9375.969;-0.2306005;0.4669468;0;
18312.59;11564.38;-1084.426;19457.1;-4.463522;-0.5327236;17473.92;8876.045;0.3543373;-0.0532611;0;
17953.72;11648.18;1133.862;18877.53;-3.588381;-1.670898;17170.62;8708.378;0.5488833;-0.05320758;0;
20896.93;13797.08;2982.574;21958.79;-1.642393;-2.740946;20038.93;10749.53;0.1585277;0.01181322;0;
9529.288;5926.699;3110.667;10122.18;-4.855923;0.8119034;9069.154;3291.399;0.7430744;0.3366381;0;
-17683.55;-11739.63;2230.389;-18098.46;-7.12822;3.021402;-17108.9;-8517.896;0.6773605;0.2063651;0;
-19767.12;-12185.07;827.7267;-20972.8;-5.714538;2.549486;-18833.75;-8685.499;-0.2328629;-0.313581;0;
-16659.56;-9783.576;-1278.172;-17705.81;-8.991325;4.623395;-15802.55;-7197.5;-0.2975963;0.01157083;0;
-23882.96;-15478.24;-3042.937;-24874.91;-2.350858;1.202742;-22896.47;-10432.03;-0.1023952;0.1414939;0;
-831.5823;-838.5824;-3146.67;-1586.169;1.53627;-1.544767;-665.9376;-1677.598;-0.1022923;-0.183485;0;
20212.85;13155.09;-2313.207;20877.23;-1.009893;1.203086;19439.17;9440.781;0.02774514;-0.05336595;0;
18410.09;11698.48;-1053.546;19554.47;2.340024;0.6660132;17569.21;9015.879;0.1576519;0.01165502;0;
18037.47;11721.85;1177.861;18967.57;-7.642662;4.014369;17251.29;8770.563;-0.1673432;-0.2482261;0;
21041.73;13931.16;3043.083;22112.52;-14.26641;7.091428;20180.19;10906.11;-0.2971097;-0.118042;0;
9649.651;6085.474;3166.43;10272.6;-12.10863;5.208902;9169.813;3403.418;0.02802554;-0.05295601;0;
-17813.42;-11780.15;2276.288;-18212.57;-12.6987;5.069703;-17252.41;-8600.11;0.09296472;-0.3777395;0;
-19613.79;-12130.54;896.8495;-20835.53;-13.49022;4.729694;-18688.7;-8634.339;0.4826753;-0.3123926;0;
-16208.25;-9455.2;-1196.25;-17290.98;-16.42343;3.385283;-15371.83;-7058.232;0.2872883;0.07772535;0;
-23617.38;-15240.26;-2968.735;-24621.63;-5.489559;4.453608;-22652.12;-10374.95;-0.1677717;0.3375166;0;
-670.152;-763.5867;-3072.948;-1380.387;2.420187;6.056724;-533.2337;-1603.51;0.2871682;0.1422755;0;
20248.99;13177.6;-2253.536;20937.27;1.680821;1.161005;19456.55;9460.665;0.3518471;-0.1177369;0;
18329.05;11627.22;-1016.018;19462.88;2.147646;-1.452495;17492.99;8940.697;0.1565915;-0.05265124;0;
18003.65;11682.72;1190.239;18934.55;10.11609;-1.852934;17219.48;8741.153;0.2863688;0.012369;0;
20877.68;13785.48;3029.368;21944.16;21.15799;-5.601994;20016.8;10745.83;0.02621171;0.07732393;0;
9605.658;5962.417;3173.562;10213.17;5.195523;0.8338745;9143.374;3318.726;0.15612;-0.1176558;0;
-17208.26;-11318.16;2306.683;-17615.3;-2.981371;4.918873;-16623.62;-8053.957;0.09099584;-0.3124396;0;
-18832.54;-11564.83;915.188;-20058.05;-1.571856;2.435562;-17891.83;-8114.111;-0.1039976;-0.3121257;0;
-15804.68;-9249.208;-1173.807;-16893.43;-9.674602;2.968979;-14959.69;-6956.161;0.2859109;-0.3767794;0;
-23379.33;-15042.09;-2945.033;-24387.56;1.118762;3.233927;-22408.99;-10158.25;0.350591;-0.05156409;0;
-566.3085;-674.3638;-3061.186;-1285.199;5.203475;6.378876;-418.8079;-1486.955;0.1553367;0.1433898;0;
20252.73;13177.95;-2244.27;20933.54;6.136251;-0.526654;19469.97;9455.884;0.09021326;0.01331099;0;
18429.65;11741.72;-1013.382;19562.93;12.62682;-6.018603;17592.75;9063.84;-0.1047794;0.1432323;0;
18059.4;11733.13;1189.186;18987.6;4.37511;0.4846667;17276.82;8784.728;-0.2346088;0.07812105;0;
20969.55;13882.95;3039.029;22036.1;2.428331;1.421941;20110.85;10859.63;-0.2993404;-0.3767289;0;
9785.434;6097.2;3176.967;10395.6;-2.262182;6.44411;9304.833;3405.277;-0.03917027;-0.2464156;0;
-17492.69;-11619.68;2290.219;-17903.86;-10.03042;10.72442;-16930.99;-8456.31;0.1557711;0.143636;0;
-19380.67;-11999.46;903.0203;-20611.38;-4.058492;11.91934;-18451.39;-8525.773;0.2855493;-0.1163777;0;
-15875.75;-9214.598;-1175.843;-16972.11;-2.915338;14.11768;-15045.54;-6953.742;0.220295;-0.1162607;0;
-23199.62;-14858.56;-2940.117;-24242.24;-3.716692;15.51013;-22235.74;-10150.54;0.09013898;-0.05117658;0;
-460.8547;-601.7573;-3046.702;-1221.471;-0.6988477;18.97754;-307.8275;-1487.217;-0.169821;-0.1810598;0;
20312.12;13217.81;-2234.891;20978.52;-6.190502;11.65757;19529.87;9509.735;-0.2346177;0.01402412;0;
18336.13;11656.82;-1014.039;19466.67;-11.14077;6.35433;17498.87;8975.318;0.02548745;-0.05095731;0;
17980.25;11657.62;1180.315;18905.09;-4.364426;6.682859;17197.22;8720.938;-0.3643422;0.01406123;0;
20847.27;13762.14;3021.859;21913.12;-3.02087;3.126049;19983.44;10724.62;-0.5588781;0.1439818;0;
9504.399;5906.109;3183.896;10137.45;-1.209174;4.395584;9029.264;3270.349;0.2862588;-0.1160323;0;
-17139.61;-11248.47;2349.146;-17514.81;3.614813;5.060997;-16567.68;-7959.076;-0.03886548;-0.05094833;0;
-18718.55;-11488.92;978.692;-19934.91;-4.962635;2.711509;-17792.39;-7971.303;-0.2986958;-0.05089713;0;
-16005.35;-9425.779;-1110.429;-17090.27;-7.569617;2.641801;-15166.27;-7021.938;0.2213431;-0.3756827;0;
-23458.76;-15142.95;-2868.617;-24468.22;-13.25544;1.902334;-22476.91;-10227.5;0.02621863;-0.0504685;0;
-422.8178;-600.454;-2971.791;-1136.744;-23.69097;0.9627838;-269.0982;-1435.109;-0.03877505;0.469321;0;
20276.31;13196.7;-2158.259;20965.95;-11.61072;3.440063;19491.66;9485.829;-0.03873609;0.3389147;0;
18330.3;11657.8;-928.4883;19462.26;-3.963247;3.97247;17491.37;8982.858;-0.1036645;-0.1161973;0;
17954.61;11627.09;1270.371;18882.22;-12.73415;6.580812;17168.96;8693.099;0.02637434;-0.3109825;0;
20873.29;13794.07;3120.32;21934.58;-14.86481;9.186413;20012.15;10758.84;-0.2984889;0.01416666;0;
9508.223;5929.715;3272.451;10135.87;-13.30866;7.502609;9034.298;3304.533;-0.1682543;-0.05081492;0;
-17514.97;-11563.7;2412.093;-17896.56;-13.83115;8.365848;-16933.39;-8257.212;0.2217188;-0.3756006;0;
-19071.04;-11775.64;1041.764;-20291.3;-10.26728;4.941434;-18132.5;-8274.637;-0.03837331;-0.2452885;0;
-15906.56;-9313.34;-1048.421;-16994.7;-5.970051;2.190169;-15085.32;-6973.175;-0.2332368;-0.1151073;0;
-23280.96;-14943.29;-2821.382;-24337.21;-8.778068;2.321934;-22333.33;-10134.39;-0.1680351;-0.2449263;0;
-428.6496;-567.8812;-2922.994;-1207.88;-9.170413;0.4442011;-292.1181;-1466.464;-0.3627683;-0.1147456;0;
20205.58;13113.88;-2108.653;20881.29;-6.281786;1.582465;19418.56;9410.902;-0.4923384;0.08027177;0;
18279.66;11609.53;-879.3382;19420;-7.346225;1.045011;17444.68;8941.615;-0.4268764;-0.04974358;0;
17951.1;11627.71;1323.626;18877.94;1.769859;3.12031;17168.67;8694.109;-0.4264475;-0.1146609;0;
20828.86;13747.45;3153.657;21894.9;9.136447;6.064424;19967.3;10719.2;0.09371977;0.01538896;0;
9424.794;5830.546;3288.356;10044.16;6.113157;2.776166;8953.059;3191.047;0.4834296;0.01537349;0;
-17636.83;-11675.89;2421.83;-18050.54;7.848327;1.902599;-17063.44;-8431.288;-0.1017622;0.2102601;0;
-19474.16;-11921.45;1018.101;-20711.05;5.696987;2.570516;-18537.91;-8416.913;-0.296562;0.2750162;0;
-16540.63;-9680.687;-1093.424;-17605;3.213016;3.17078;-15691.8;-7206.544;0.02857275;0.3397072;0;
-23807.43;-15381;-2849.598;-24841.11;5.821756;1.961901;-22834.66;-10467.25;-0.2313253;0.2743985;0;
-714.2613;-719.0898;-2938.017;-1488.832;7.892987;-0.5852997;-561.7946;-1589.287;-0.2960602;-0.05071396;0;
20122.26;13081.38;-2110.714;20803.63;4.267734;4.706818;19346.09;9383.795;-0.1658281;0.0792717;0;
18278.21;11588.19;-852.1622;19416.84;1.383057;7.381284;17439.85;8914.191;-0.2306288;-0.310612;0;
17963.06;11652.89;1370.64;18886.69;6.338161;7.641799;17180.93;8724.855;-0.1654297;-0.3752673;0;
20868.8;13783.98;3194.345;21932.75;7.470868;10.78232;20010.44;10750.3;-0.2951982;0.1448486;0;
9206.952;5769.749;3302.673;9823.868;10.87961;6.082801;8739.756;3173.771;-0.03503218;0.07973567;0;
-18239.73;-12139.92;2412.644;-18631;12.60999;2.928491;-17641.99;-8776.413;0.4197744;0.1446229;0;
-19795.4;-12356.05;1016.233;-21031.64;16.61581;4.466156;-18845.8;-8784.93;0.2894179;-0.1153918;0;
-16478.95;-9728.198;-1081.953;-17586.34;24.63707;3.389941;-15648.93;-7187.12;0.2241598;-0.05030851;0;
-23958.88;-15509.11;-2847.056;-24978.18;12.42215;3.252569;-22986.29;-10454.53;0.09399986;0.5344481;0;
-890.0729;-855.3021;-2932.385;-1616.469;5.845584;3.048352;-723.1112;-1641.75;-0.2309313;0.3390091;0;
20132.5;13093.14;-2094.921;20815.26;8.183259;2.174511;19354.2;9388.715;0.1591048;0.07879908;0;
18220.59;11534.54;-844.3807;19355.56;4.692412;2.03836;17385.32;8859.84;0.2888796;0.2086546;0;
17928.46;11618.92;1381.381;18856.59;9.443119;0.3618609;17148.03;8700.7;-0.3610841;0.01354289;0;
20829.29;13746.7;3209.698;21890.98;11.10857;-2.31782;19969.73;10703.52;-0.2957539;-0.1164054;0;
9082.883;5661.102;3314.481;9693.811;13.44193;0.3638262;8625.729;3067.493;0.2892493;0.1435809;0;
-18080.35;-11943.19;2431.187;-18489.38;16.64361;1.301222;-17491.72;-8664.631;0.5488281;0.208404;0;
-19838.32;-12161.59;1020.889;-21062.21;15.95632;-0.5756079;-18898.91;-8617.866;0.2234399;-0.1166421;0;
-17137.06;-10138.81;-1100.852;-18189.67;16.27508;0.2957486;-16282.65;-7379.309;-0.3614907;-0.3114269;0;
-24223.35;-15807.2;-2858.175;-25253.7;16.92929;-4.929095;-23233.08;-10698.18;-0.2311928;-0.311114;0;
-686.1382;-715.068;-2935.997;-1485.114;19.72532;-7.737426;-513.851;-1626.059;0.1588436;-0.4407361;0;
20133.68;13111.37;-2095.858;20789.48;12.27076;-9.270137;19362.36;9414.964;0.09371662;-0.05048918;0;
18193.37;11507.94;-829.6374;19325.14;8.708456;-13.48075;17354.7;8841.584;-0.2312143;0.2743983;0;
17913.25;11599.43;1398.171;18835.63;6.757322;-7.438859;17132.57;8666.924;-0.1660146;-0.3105835;0;
20783.42;13711.36;3220.786;21845.22;0.05175138;-3.412409;19924.15;10682.4;0.1589889;-0.1803368;0;
9151.189;5705.759;3320.311;9757.503;10.09938;-5.418468;8687.578;3106.985;-0.1010402;0.2096485;0;
-18255.17;-12158.67;2415.147;-18654.95;14.10772;-6.417767;-17666.25;-8843.928;-0.360808;-0.2453336;0;
-20193.1;-12491.4;986.6868;-21413.57;17.5098;-0.5839255;-19259.68;-8885.548;-0.2305108;-0.3100544;0;
-17234.33;-10260.65;-1140.986;-18308.28;26.13239;5.177072;-16407.81;-7481.461;0.1595249;-0.04987349;0;
-24645.51;-16099.9;-2907.779;-25680.85;19.87684;0.2152545;-23666.37;-10877.41;0.1593646;0.1450787;0;
-1388.333;-1080.003;-2986.019;-2176.319;21.73288;0.2150382;-1199.418;-1832.907;-0.2305996;0.4048023;0;
19969.45;13019.36;-2135.726;20628.69;19.96973;-2.933376;19202.83;9326.561;0.1594362;0.0795588;0;
18170.56;11444.71;-864.6553;19304.57;18.07366;-8.489768;17328.01;8763.108;-0.03562608;0.0145115;0;
17740.37;11451.14;1371.09;18661.31;22.61082;-1.180341;16957.88;8536.085;-0.6852637;0.3393337;0;
20724.12;13626.74;3194.139;21780.94;15.28709;1.634128;19859.27;10574.67;-0.2947711;0.209058;0;
8761.247;5521.444;3268.89;9358.644;42.33137;0.6947247;8299.511;2965.673;-0.03460554;0.2738153;0;
-18777.81;-12447.33;2352.315;-19207.64;63.99081;0.8279925;-18191.71;-9059.124;-0.0995381;0.4034748;0;
-20312.65;-12613.42;929.5715;-21563.15;50.73198;2.166697;-19384.64;-8950.071;0.2253986;0.2081674;0;
-17515.79;-10500.44;-1203.572;-18583.17;55.03428;5.111769;-16668.97;-7577.342;0.4200742;0.01305618;0;
-24786.43;-16354.7;-2959.917;-25822.91;41.71709;-0.4528286;-23789.28;-11029.18;0.22475;-0.376761;0;
-993.4734;-976.6179;-3026.736;-1813.676;25.59927;-2.059964;-808.2592;-1731.075;-0.1003125;-0.5063171;0;
20103.64;13096.13;-2190.379;20752.88;39.63972;-4.670106;19334.63;9402.834;-0.03524436;-0.1809716;0;
18138.29;11442.78;-926.9369;19276;44.89118;-7.746629;17294.05;8760.813;-0.03520894;0.1440469;0;
17915.17;11608.29;1302.78;18831.78;34.39722;-5.595391;17131.79;8699.021;-0.2300756;0.01396749;0;
20847.5;13761.37;3115.216;21905.72;31.21483;-8.603879;19987.34;10703.35;-0.1648771;-0.3108833;0;
8801.329;5496.421;3204.633;9399.065;28.83894;2.255635;8343.579;2972.317;0.1601253;-0.1156689;0;
-18748.83;-12474.54;2305.551;-19166.67;21.91109;10.42516;-18160.81;-9083.564;0.3548664;0.01438205;0;
-20514.11;-12728.61;880.2619;-21733.06;34.07923;7.869338;-19576.36;-9040.876;0.1596078;-0.05059974;0;
-17777.27;-10671.13;-1240.744;-18831.28;40.34163;11.00963;-16913.47;-7562.827;-0.2303566;-0.3753856;0;
-24672.47;-16187.95;-2979.998;-25716.18;40.36746;7.984334;-23679.21;-10873.14;-0.6199292;-0.4399758;0;
-871.0574;-797.2586;-3044.985;-1684.63;48.29848;6.971568;-705.6079;-1711.156;-0.6193063;0.01523772;0;
20064.36;13060.12;-2208.953;20721.19;34.11643;4.419333;19291.05;9382.269;-0.0339779;0.2101244;0;
18151.65;11447.96;-955.4565;19289.97;22.62795;0.5300044;17312.99;8777.438;0.2259256;0.144946;0;
17821.41;11524.46;1265.325;18743.82;28.8345;1.40025;17039.2;8599.891;0.03079657;0.07983299;0;
20738.82;13646.11;3086.856;21800.47;25.05448;-1.146508;19877.95;10609.59;-0.03420172;-0.1801166;0;
8796.712;5493.891;3178.957;9408.941;25.69987;2.605566;8341.143;2936.473;0.225702;-0.244903;0;
-18783.52;-12530.4;2272.592;-19185.44;30.49682;6.420975;-18191.05;-9119.232;0.4203773;0.1451472;0;
-20460.28;-12748.74;863.3277;-21678.95;12.24682;2.194598;-19523.51;-9022.582;0.2900202;0.2099687;0;
-17607.55;-10574.27;-1241.982;-18657.23;1.584591;0.4509589;-16759.8;-7618.499;0.2897288;-0.115079;0;
-24703.67;-16203.15;-2988.465;-25763.94;2.721098;3.598582;-23709.21;-11016.44;-0.1003664;-0.1149634;0;
-1072.823;-890.5271;-3063.954;-1922.786;-0.3621188;5.671437;-869.8737;-1769.86;-0.4900696;0.2749562;0;
19878.15;12928.2;-2237.055;20531.92;3.254591;4.594011;19123.31;9253.3;0.1600962;0.1447452;0;
17972.17;11263.25;-971.3796;19117.96;7.605578;4.589395;17129.15;8584.771;0.03000068;-0.2452043;0;
17705.22;11402.29;1266.035;18625.72;10.00883;5.589528;16926.47;8487.533;-0.5547355;-0.1799906;0;
20657.51;13574.11;3082.942;21719.41;11.00413;5.985809;19798.96;10523.68;-0.1643741;-0.1148424;0;
8557.204;5307.871;3175.796;9152.582;25.46041;6.046777;8106.982;2781.242;0.0306931;-0.114727;0;
-19284.61;-12934.11;2278.211;-19703.85;32.40105;3.897247;-18685.32;-9516.372;-0.09927242;-0.3095137;0;
-20929.99;-13027.31;878.4995;-22165.99;45.16187;8.180117;-19996.19;-9332.319;-0.16414;-0.2442354;0;
-17997.48;-10824.71;-1213.738;-19063.28;64.40758;11.05216;-17155.72;-7691.091;-0.03404041;-0.1790226;0;
-25243.79;-16672.97;-2958.157;-26277.58;42.23874;7.42398;-24253.85;-11201.14;0.03096114;-0.3087774;0;
-1406.835;-1114.354;-3029.46;-2233.222;31.27893;9.492991;-1212.545;-1902.258;-0.03403731;-0.2434998;0;
19927.53;12984.04;-2191.695;20569.03;31.38122;-0.2288284;19164.79;9296.588;0.03096423;0.08158158;0;
17984.41;11254.06;-946.8045;19125.84;19.56069;-7.730565;17140.45;8578.712;0.09590046;0.4713036;0;
17547.7;11262.62;1261.725;18468.85;26.77471;-4.641582;16766.69;8345.299;-0.2939999;0.3408954;0;
20566.87;13466.03;3086.664;21625.21;29.56182;-8.253997;19705.93;10417.7;-0.5535739;-0.2441532;0;
8497.811;5264.755;3203.283;9090.181;20.82458;-0.8777026;8043.357;2734.522;0.09665574;-0.1139732;0;
-19334.38;-13002.48;2327.628;-19760.71;20.73631;4.280743;-18749.15;-9577.991;0.4213953;0.210978;0;
-20884.38;-13030.38;940.6418;-22116.84;11.73951;3.405664;-19953.45;-9299.237;-0.03379948;0.08083136;0;
-18111.21;-10907.53;-1158.343;-19166.62;1.346216;6.215525;-17261.79;-7782.682;-0.4885369;0.01578278;0;
-25343.68;-16799.08;-2904.816;-26371.65;12.86544;4.869621;-24352.9;-11360.9;-0.488046;0.1457016;0;
-1313.104;-1090.037;-2982.747;-2132.546;14.25903;5.132659;-1106.542;-1858.836;-0.4875556;0.01562052;0;
19867.85;12930.84;-2177.091;20509;20.74241;3.452929;19116.09;9249.668;-0.3571311;-0.2442645;0;
17906.57;11188.06;-946.8956;19039.73;33.58132;2.377733;17058.93;8502.244;-0.0319355;-0.2440191;0;
17619.24;11326.3;1259.198;18532.78;17.00316;-1.241613;16837.89;8414.601;-0.1618381;0.1460302;0;
20503.7;13409.01;3067.429;21560.58;13.56982;-6.598878;19641.35;10349.39;0.09819389;0.2108508;0;
8259.885;5094.758;3183.256;8854.183;5.519212;-2.841325;7801.959;2582.231;0.617834;-0.1791652;0;
-19550.36;-13127.88;2308.933;-19987.1;-12.97313;-1.69976;-18967.8;-9662.335;0.2923765;-0.1140178;0;
-21173.83;-13232.52;904.0363;-22411.13;14.09954;-3.707418;-20242.77;-9399.379;-0.2926234;0.4708028;0;
-18539.29;-11268.4;-1203.313;-19589.56;31.16566;-2.431139;-17679;-7982.922;-0.3572967;0.7301992;0;
-25585.84;-17037.32;-2949.429;-26642.34;16.59965;-6.045653;-24583.09;-11598.52;-0.032101;0.4695961;0;
-1306.795;-1072.636;-3021.615;-2167.344;16.24818;-8.852739;-1099.318;-1914.225;-0.3569055;0.3391896;0;
19920.22;12989.11;-2186.2;20558.69;14.42319;-5.561802;19165.65;9315.977;0.09822456;0.1439467;0;
17948.11;11229.54;-929.6031;19093.11;10.32286;-4.886384;17099.25;8544.701;0.7477992;-0.1160673;0;
17583.44;11284.24;1288.748;18501.13;16.94392;-2.738143;16800.07;8371.87;0.1623418;-0.2458854;0;
20531.58;13444;3108.85;21586.71;21.28018;-0.3240062;19669.14;10378.34;-0.09769067;-0.1157036;0;
8290.261;5177.36;3201.678;8873.997;17.10659;-0.7255782;7836.348;2704.775;0.03234217;0.07931468;0;
-20036.43;-13556.93;2293.634;-20469.03;14.47645;-0.1220027;-19442.77;-10026.75;-0.2275597;-0.1156671;0;
-21795.53;-13709.99;902.8712;-23022.94;20.29003;0.07906865;-20847.52;-9917.066;-0.1623637;-0.1805182;0;
-18795.83;-11413.56;-1182.27;-19841.16;23.08269;0.5478697;-17926.89;-8068.073;0.09766881;-0.05040211;0;
-26057.08;-17407.76;-2929.484;-27073.95;23.19321;-1.060271;-25060.14;-11699.79;0.09757067;-0.1802861;0;
-1893.778;-1451.143;-3007.515;-2711.338;23.16991;-2.197916;-1694.442;-2118.878;-0.03246205;0.1447317;0;
19704.85;12810.8;-2190.98;20345.73;25.15636;-3.133468;18947.96;9130.613;0.09750525;0.469423;0;
17787.94;11036.16;-952.9627;18931.84;26.67132;-5.206668;16940.11;8346.734;0.227342;0.01417993;0;
17451.77;11173.15;1258.165;18374.6;24.70214;-4.330659;16669.36;8271.709;0.09717884;-0.115769;0;
20372.92;13260.36;3060.432;21435.17;29.1653;-4.862171;19512.45;10186.35;0.03211385;0.1442167;0;
7768.193;4813.427;3155.995;8365.203;14.26554;-4.05349;7316.779;2347.881;-0.09785309;0.01413709;0;
-20304.72;-13644.07;2281.824;-20739.58;0.1860085;-1.303239;-19716.47;-10116.68;-0.2276895;0.1440576;0;
-21663.88;-13589.34;900.5991;-22891.5;14.72051;-7.397254;-20718.32;-9739.593;-0.2274607;0.4687496;0;
-19097.16;-11700.28;-1197.002;-20128.29;18.79155;-12.74833;-18213.58;-8247.91;-0.2921995;0.1434418;0;
-26328.96;-17734.16;-2946.06;-27353.9;20.11184;-6.774166;-25315.53;-12065.4;-0.6167426;-0.05160434;0;
-1733.279;-1430.695;-3022.263;-2566.083;23.57523;-3.686144;-1523.161;-2168.045;-0.4861882;0.1433496;0;
19716.35;12798.64;-2203.511;20359.57;27.57003;-7.433484;18965.42;9127.051;-0.03092826;0.3381076;0;
17697.08;10964.97;-964.8875;18841.58;37.12053;-8.49762;16849.43;8270.712;0.2939395;0.2728005;0;
17396.56;11100.91;1244.659;18317.76;24.28985;-8.154289;16614.42;8200.713;0.2286768;0.07762434;0;
20410.73;13306.9;3052.281;21463.64;12.34273;-9.083735;19547.38;10219.19;-0.161357;-0.1173557;0;
7731.086;4839.305;3143.167;8322.184;25.2584;-6.998258;7285.553;2439.014;0.1636418;-0.4420745;0;
-20806.45;-14080.94;2249.081;-21231.09;25.76888;-4.11096;-20207.34;-10443.87;0.2934121;-0.1817609;0;
-22211.38;-14071.6;852.4908;-23456.08;25.87671;-7.121061;-21280.91;-10181.67;-0.2915888;0.2082258;0;
-19360.29;-11939.29;-1254.901;-20428.1;31.07465;-7.180889;-18496.76;-8350.889;0.0335409;0.07808186;0;
-26627.07;-17963.82;-3002.557;-27662.45;14.09784;-6.838759;-25623.88;-12129.55;0.1634419;0.07800341;0;
-1980.452;-1516.673;-3065.179;-2811.347;8.322896;-8.640305;-1787.397;-2204.936;-0.3564611;0.2078597;0;
19737.54;12854.41;-2227.8;20373.9;-5.215775;-1.263744;18977.34;9180.558;-0.03126619;-0.05221853;0;
17767.08;11008.52;-958.4797;18898.07;-22.49189;2.75638;16918.21;8305.612;0.3585693;-0.2470681;0;
17427.92;11142.87;1269.801;18342.47;-9.005351;6.839569;16642.21;8240.998;0.09833961;0.1429842;0;
20300.26;13189.08;3060;21355.83;-4.509301;13.79868;19435.28;10101.5;0.2281755;0.01290586;0;
7678.989;4733.587;3145.131;8244.392;-5.710218;8.493282;7220.595;2304.823;0.3578809;-0.3769112;0;
-20499.52;-13813.61;2263.475;-20960.84;-3.895819;3.6621;-19915.1;-10231.71;-0.03228275;-0.4414998;0;
-22393.58;-14014.61;837.2911;-23630.02;3.877627;11.83022;-21456.76;-10044.33;0.2925864;-0.3760888;0;
-19812.13;-12105.25;-1289.419;-20866.72;12.11275;15.90417;-18950.87;-8398.949;0.4222271;-0.05087421;0;
-26171.93;-17616.96;-3005.323;-27227.7;10.49299;10.19476;-25180.17;-11943.74;0.03199878;0.338981;0;
-1429.116;-1165.553;-3052.965;-2280.757;13.09442;9.112787;-1223.526;-2040.803;-0.03300072;0.1437383;0;
19756.91;12863.1;-2215.379;20392.34;11.74209;3.34322;19006.27;9207.953;-0.3578043;-0.3111775;0;
17818.91;11064.12;-945.1033;18959.11;12.13243;-2.353566;16965.67;8366.119;-0.2275101;-0.5057668;0;
17499.59;11215.47;1274.856;18419.98;8.100778;-1.212492;16714.32;8302.663;0.2924573;-0.2453893;0;
20405.2;13284.35;3058.865;21460.7;3.60466;-2.818864;19538.15;10204.67;0.03229405;0.274596;0;
7717.732;4793.111;3125.038;8292.74;6.548775;-2.615083;7258.724;2356.406;-0.2276078;0.4692221;0;
-20523.19;-13830.72;2236.062;-20976.59;4.934604;-3.416128;-19941.53;-10236.98;0.09745764;0.01397926;0;
-21649.63;-13603.62;835.924;-22901.89;9.216554;-0.1306538;-20731.43;-9839.87;0.1623271;-0.1159695;0;
-18868.72;-11499.34;-1293.533;-19928.88;10.41274;3.084536;-18023.7;-8164.694;-0.03273807;-0.0508856;0;
-26236.92;-17607.23;-3029.111;-27292.61;14.35439;2.47859;-25247.62;-12011.19;0.03226216;-0.1807691;0;
-1690.165;-1308.862;-3051.492;-2555.45;20.09977;5.557315;-1486.397;-2090.371;-0.1626723;-0.05065283;0;
19888.36;12986.46;-2195.167;20520.55;13.98498;1.331928;19133.89;9312.811;-0.1625088;0.01436541;0;
17858.67;11110.8;-922.1001;18999.94;14.57316;-1.884591;17007.3;8409.527;-0.03241085;0.209253;0;
17607.29;11308.81;1326.759;18522.61;7.324853;1.399466;16823.83;8405.092;-0.4871497;0.3389774;0;
20527;13421.38;3124.272;21579.53;0.6860611;0.2593503;19660.6;10318.76;-0.4216928;0.01380011;0;
7690.504;4787.053;3184.569;8277.3;3.230967;4.076995;7245.743;2403.113;0.1634369;-0.1811158;0;
-20418.04;-13716.38;2279.26;-20861.45;-1.929843;7.488906;-19823.08;-10090.32;0.03333804;-0.3108685;0;
-22100.73;-13831.96;840.5671;-23327.57;9.391602;3.462527;-21162.74;-9881.983;-0.2265648;-0.1156541;0;
-19985.15;-12412.81;-1299.202;-21004.69;18.62556;2.521287;-19095.13;-8585.404;-0.2913045;0.07936416;0;
-26677.46;-18076.45;-3010.552;-27738.05;12.17649;0.1744727;-25667.77;-12227.8;-0.09610979;-0.1156176;0;
-1652.564;-1253.518;-3031.562;-2524.932;12.36532;-2.438037;-1458.977;-2079.235;-0.09601321;0.2093353;0;
19643.47;12769.94;-2181.941;20288.39;12.08546;-3.306365;18888.46;9107.326;0.03401795;0.2740923;0;
17706.2;10943.87;-897.7678;18839.06;10.46572;-4.575597;16857.7;8240.747;0.3588205;-0.3108892;0;
17463.21;11171.36;1348.318;18377.15;10.79;-6.513504;16679.61;8256.048;0.2285253;-0.5704462;0;
20371.74;13258.38;3142.249;21424.85;9.573709;-8.315498;19508.75;10170.93;0.2282956;-0.180069;0;
7522.87;4655.061;3201.466;8085.175;7.621706;-7.168433;7085.816;2251.151;0.1630989;0.3398507;0;
-21167.69;-14423.33;2282.553;-21620.57;6.943486;-6.826316;-20565.1;-10764.99;0.09796766;0.1446072;0;
-22506.49;-14226.67;863.9717;-23745.66;1.176709;-5.345832;-21582.85;-10328.29;-0.0970328;-0.05044015;0;
-19472.65;-11859.81;-1249.241;-20523.79;-4.718971;-3.933819;-18620.28;-8298.635;-0.4867393;0.07954523;0;
-26625.19;-17967.59;-2978.178;-27679.75;-0.7621147;-3.929866;-25625.7;-12170.25;-0.2913482;0.1444326;0;
-1940.859;-1518.962;-3012.854;-2815.064;2.587554;-5.332559;-1727.135;-2194.485;-0.5509248;0.3391896;0;
19790.7;12910.8;-2160.785;20413.96;-3.644337;-1.576279;19042.37;9249.125;-0.9401754;-0.1159227;0;
17778.05;11003.9;-893.0315;18921.1;-6.989578;1.975278;16926.38;8288.028;-0.2245899;0.01412848;0;
17354.48;11068.92;1335.309;18275.21;-3.03044;-4.255875;16571.31;8168.788;0.2304072;0.4688857;0;
20306.93;13186.08;3135.968;21358.48;-3.831678;-4.653496;19444.03;10084.08;0.03527363;-0.05132419;0;
7538.635;4650.492;3219.054;8108.59;2.803605;-12.8876;7096.457;2259.768;-0.0946965;0.07866208;0;
-20761.38;-14067.21;2328.047;-21220.49;8.426866;-21.24727;-20168.54;-10416.98;-0.224536;0.2085177;0;
-21923.81;-13837.67;920.8829;-23171.13;5.873779;-15.46551;-21005.7;-10032.21;-0.09437573;0.07837351;0;
-19114.21;-11678.3;-1183.11;-20154.95;8.613567;-15.51696;-18260.46;-8232.734;0.2955231;0.3381641;0;
-26069.11;-17515.92;-2892.031;-27117.54;2.2419;-11.88441;-25077.29;-11870.99;0.03535684;0.01298762;0;
-1420.449;-1147.57;-2929.479;-2281.469;-2.583124;-7.987578;-1228.767;-1972.421;-0.02964603;-0.1169601;0;
19744.28;12821.97;-2091.018;20388.15;-0.03493307;-6.171013;18984.89;9143.381;-0.09458359;0.01309209;0;
17647.61;10904.25;-823.3347;18789.77;0.96948;-1.94501;16798.03;8203.489;-0.54926;-0.0518884;0;
17366.63;11057.57;1404.155;18286.88;-0.1032211;-1.943055;16581.48;8148.286;-0.2238713;-0.1168036;0;
20288.6;13177.27;3194.499;21342.24;0.7675388;-1.137308;19423.18;10076.47;0.231125;0.1431831;0;
7398.694;4558.796;3263.003;7974.396;5.52219;2.748723;6961.605;2188.6;-0.09394394;0.07807192;0;
-21166.24;-14389.81;2365.331;-21609.11;9.468756;7.702576;-20566.68;-10694.05;-0.2237842;-0.1818759;0;
-22373.34;-14082.86;968.3424;-23615.69;15.48746;2.135375;-21453.61;-10244.91;-0.09362468;0.01320887;0;
-19249.56;-11632.56;-1127.515;-20294.2;14.53487;-3.091317;-18397.73;-8158.802;-0.02856326;0.07816295;0;
-26108.12;-17497.32;-2851.749;-27188.06;36.22225;5.552465;-25124.79;-11839.66;0.1014001;0.01311706;0;
-1528.949;-1202.139;-2899.671;-2435.157;55.81075;9.09686;-1340.208;-2015.27;-0.1585711;-0.1168308;0;
19836.61;12920.5;-2061.911;20471.5;42.09064;9.690565;19083.34;9253.155;-0.2233791;-0.7014195;0;
17769.01;11007.35;-810.6548;18912.71;41.84728;12.49399;16920.23;8297.88;0.03671468;-0.8956167;0;
17424.62;11128.99;1405.515;18342.19;33.83463;11.67776;16638.46;8225.637;-0.2881589;-0.4399454;0;
20419.25;13295.46;3194.359;21477.05;23.8203;13.00556;19555.79;10182.2;-0.3528367;-0.179634;0;
7376.761;4558.425;3260.552;7949.213;24.86809;11.38503;6943.316;2204.001;-0.02764548;-0.1144861;0;
-20971.59;-14184.08;2372.252;-21424.89;18.9486;9.3641;-20371.89;-10492.5;0.1672843;-0.1793385;0;
-21985.38;-13778.37;977.4744;-23234.13;21.80995;12.3688;-21066.78;-9974.311;0.4919529;0.01574378;0;
-19326.03;-11769.68;-1124.889;-20375.27;25.07057;12.95922;-18472.39;-8214.542;0.1016546;0.08069531;0;
-26000.86;-17489.1;-2833.009;-27085.63;19.08353;14.62077;-25018.13;-11879.94;-0.02838225;-0.5040919;0;
-1128.486;-953.8933;-2874.593;-2030.903;14.71107;17.55321;-937.4476;-1940.026;0.03661361;-0.04881395;0;
19830.18;12901.29;-2050.305;20470.36;23.67127;14.72241;19080.79;9233.792;-0.2232925;0.6009085;0;
17848.24;11098.38;-794.1566;18993.29;26.86267;13.30097;16997.86;8408.361;0.1667359;0.275468;0;
17673.16;11363.67;1421.559;18588.9;32.66283;16.43581;16888.81;8441.704;0.491405;0.01532185;0;
20519.93;13404.17;3204.984;21575.3;43.481;18.42866;19656.19;10317.15;0.2960092;0.08027381;0;
7719.473;4797.305;3282.535;8304.253;31.11342;17.4054;7275.107;2391.246;0.2307445;-0.04974155;0;
-20691.44;-14025.74;2381.282;-21112.43;26.52683;15.78044;-20091.47;-10381.41;0.29548;-0.4394956;0;
-21986.38;-13873.8;969.3791;-23211.53;26.29911;20.52025;-21056.64;-10049.26;0.100281;-0.5040213;0;
-19211.02;-11761.43;-1125.199;-20249.78;18.97166;23.84866;-18344.37;-8199.795;0.03521293;-0.04874352;0;
-26231.25;-17645.41;-2852.262;-27262.94;29.93829;21.1455;-25228.23;-11829.65;-0.02978979;-0.1136619;0;
-1547.588;-1224.74;-2921.329;-2392.91;37.07453;20.9233;-1354.307;-1954.22;-0.0947272;-0.6982538;0;
19841.98;12917.32;-2101.616;20487.46;31.0764;18.95977;19082.92;9242.601;0.1652374;-0.3727154;0;
17760.35;11004.06;-854.9115;18910.54;29.70503;16.59644;16912.5;8292.755;0.489908;-0.04750422;0;
17441.7;11135.12;1364.489;18364.83;34.02944;16.31183;16657.52;8235.463;0.3594811;-0.2423585;0;
20468.33;13350.38;3162.494;21517.95;38.81802;14.68785;19605.38;10234.33;-0.1606189;-0.1121803;0;
7430.557;4602.835;3229.5;8001.569;33.75517;13.60137;6994.2;2256.369;-0.2903922;0.0178671;0;
-21096.7;-14325.93;2331.33;-21553.26;30.03756;12.24804;-20494.67;-10621.46;-0.1601657;-0.04711819;0;
-22193.28;-13949.25;945.4016;-23436.57;36.16932;10.56128;-21275.24;-10111.43;0.2297993;0.08286384;0;
-19425.61;-11819.67;-1140.656;-20463.22;36.53512;8.4742;-18575.02;-8228.817;0.2945358;0.08278058;0;
-26006.63;-17511.82;-2853.29;-27077.6;42.66035;7.594907;-25012.81;-11870.76;-0.2904663;0.4075341;0;
-1003.246;-908.7961;-2912.735;-1888.248;51.12395;6.046791;-815.8602;-1856.236;-0.2252071;0.3421573;0;
19877.25;12897.69;-2102.667;20524.28;40.69108;4.232175;19116.39;9223.998;-0.03007877;-0.1129579;0;
17668;10936.67;-847.3405;18821.37;33.68397;3.357145;16822.5;8239.017;0.0349188;-0.2427791;0;
17517.08;11199.77;1368.46;18439.71;40.41528;-0.933014;16734.2;8283.181;0.1648184;-0.04763314;0;
20375.87;13260.31;3149.783;21436.63;40.10625;-3.142513;19512.24;10151.48;0.09968545;0.1473168;0;
7440.18;4590.693;3235.417;8030.351;41.53982;-6.421397;6997.745;2233.658;0.09958528;0.2121361;0;
-20869.12;-14127.95;2352.827;-21308.96;47.25885;-9.630004;-20277.13;-10448.07;0.2294199;-0.04794646;0;
-22279.07;-14017.66;955.2576;-23503.89;31.8724;-8.079843;-21353.23;-10100.99;0.0992547;0.08203642;0;
-19933.77;-12351.02;-1135.964;-20941.41;18.17634;-8.205689;-19060.9;-8528.114;-0.03077972;0.1469213;0;
-26828.36;-18171.64;-2847.493;-27845.27;29.67866;-6.254939;-25824.29;-12263.19;-0.1606835;0.08180636;0;
-1777.513;-1317.082;-2893.201;-2607.685;34.13681;-5.779774;-1584.454;-2076.143;-0.2254894;0.08172416;0;
19721.73;12839.13;-2070.769;20376.23;26.06456;-1.219249;18963.26;9177.804;-0.09532811;-0.11326;0;
17718.87;10945.67;-834.9017;18859.43;24.22971;2.599881;16870.74;8222.947;0.03470236;-0.4379829;0;
17450.83;11144.38;1369.049;18378.08;22.06191;1.458559;16666.36;8243.14;0.1646022;-0.3076081;0;
20384.36;13268.62;3148.965;21444.27;21.16909;3.466582;19519.71;10139.01;0.0345021;0.08250502;0;
7269.223;4456.324;3217.265;7840.301;17.79891;-1.895414;6835.051;2148.66;-0.09546725;0.08242212;0;
-21275.47;-14514.06;2323.386;-21714.43;10.07787;-5.510466;-20679.43;-10791.6;-0.225306;0.01737195;0;
-22779.47;-14378.89;906.3878;-23989.72;24.13391;-7.246485;-21859.83;-10425.36;-0.679851;0.08232184;0;
-20671.52;-12958.59;-1202.807;-21684.64;35.42917;-10.65521;-19811.35;-8953.215;-0.4192985;0.01727177;0;
-27541.85;-18878.18;-2902.478;-28593.77;24.87835;-11.0464;-26546.17;-12843.88;0.1008615;-0.1776476;0;
-2080.892;-1535.093;-2947.74;-2975.949;24.786;-12.57591;-1869.639;-2286.169;0.03579283;-0.2424365;0;
19579.88;12719.96;-2115.883;20200.56;20.1394;-12.96517;18832.69;9056.538;-0.02921047;0.08264387;0;
17540.84;10759.92;-831.1824;18686.1;11.81376;-15.16246;16686.04;8030.261;-0.1591158;0.6022996;0;
17313.63;11000.78;1400.125;18237.65;23.38884;-9.386814;16528.41;8103.105;-0.2239233;0.4067923;0;
20211.01;13097.53;3174.67;21267.43;29.46091;-3.014247;19344.32;9944.783;0.1011384;0.1465142;0;
6752.967;4136.441;3233.261;7330.476;24.94333;-8.972455;6329.818;1938.966;0.2959388;0.146367;0;
-22178.11;-15206.01;2328.778;-22605.44;24.85189;-9.834218;-21566.9;-11214.11;0.2306741;-0.2435841;0;
-23502.15;-14871.88;909.3376;-24712.33;24.02264;-8.953559;-22585.31;-10796.73;0.2304424;-0.3083067;0;
-20991.17;-13062.51;-1201.234;-22005.5;20.71695;-9.413443;-20127.84;-9065.121;0.03530878;-0.3729643;0;
-27816.51;-19111.66;-2897.643;-28837.08;24.78197;-7.126686;-26822.35;-12996.66;-0.3545308;-0.4375568;0;
-2347.976;-1751.691;-2919.078;-3199.231;27.77118;-7.789354;-2154.383;-2393.452;-0.09430515;-0.04731313;0;
19539.59;12693.96;-2068.712;20171.18;21.04449;-0.7484418;18786.48;9037.239;0.165659;-0.1122329;0;
17534.7;10724.24;-786.0582;18674.6;20.35376;6.017465;16679.79;7979.499;0.03555784;-0.2420548;0;
17193.35;10904.85;1453.2;18115.16;12.22898;2.059425;16407.36;8016.286;-0.1593799;0.1479924;0;
20256.69;13108.16;3241.903;21303.72;4.915678;1.1867;19390.91;9938.512;-0.1592198;0.01790904;0;
6665.387;4052.235;3286.09;7244.602;7.321636;4.132634;6233.034;1902.153;0.03584224;-0.177011;0;
-22576.66;-15568.49;2372.996;-23003.32;1.554479;5.535123;-21967.01;-11476.94;0.2307083;0.3429056;0;
-23684.35;-15142.38;968.441;-24916.44;14.21257;4.457835;-22757.83;-10989.24;0.2954438;0.08269171;0;
-21022.76;-13174.09;-1146.282;-22053.27;25.45045;4.319389;-20162.41;-9093.475;-0.02968979;-0.5020974;0;
-27693.48;-19061.87;-2839.123;-28712.37;16.44989;2.841425;-26699.15;-12964.03;-0.09462731;-0.2417236;0;
-2027.666;-1523.676;-2840.424;-2869.201;16.96923;0.02540866;-1821.111;-2256.237;0.2303045;0.278258;0;
19607;12772.26;-1987.122;20249.2;13.93807;2.905527;18858.53;9111.692;0.1001384;0.4079131;0;
17569.81;10771.8;-689.7768;18713.67;9.368733;3.840369;16717.88;8032.715;0.1650051;0.2126012;0;
17400.11;11086.94;1556.1;18328.23;12.44078;2.22892;16616.62;8184.392;0.2298067;0.01748556;0;
20236.1;13117.62;3317.057;21288.66;9.882682;1.757799;19373.14;9969.001;0.09964106;-0.1124667;0;
6738.787;4136.368;3359.482;7301.153;12.351;0.6844283;6333.784;1885.449;0.5543123;-0.04738634;0;
-22104.58;-15124.52;2455.684;-22549.54;13.67873;1.420553;-21472.92;-11240.83;0.3588533;0.1475633;0;
-23405.39;-14838.77;1040.021;-24615.07;9.177012;-3.671455;-22473.81;-10764.62;-0.03131129;0.2123824;0;
-20856.82;-12960.51;-1073.244;-21853.99;10.1058;-7.619759;-19968.09;-8898.092;0.2285895;0.212169;0;
-27397.02;-18729.86;-2769.64;-28421.96;0.3827504;-5.669598;-26384.6;-12705.14;-0.09647686;0.2769231;0;
-1906.599;-1406.274;-2783.177;-2760.89;-5.243712;-6.668645;-1717.664;-2190.979;-0.2263146;0.2116775;0;
19714.54;12843.77;-1935.305;20363.03;-7.582968;-3.848661;18956.5;9181.913;0.2936515;0.1464975;0;
17693.88;10887.95;-653.5042;18836.89;-14.60795;-1.232582;16845.1;8149.482;0.2283891;-0.4383558;0;
17399.6;11095.84;1586.027;18327.92;-5.95308;-0.8294456;16614.56;8185.1;0.03325761;-0.04811128;0;
20367.8;13236.52;3356.98;21421.26;-4.272159;1.850583;19504.94;10098.5;0.1631589;0.3417411;0;
7002.374;4369.98;3392.775;7548.038;3.434317;0.3082382;6598.127;2054.27;-0.03190709;-0.3082757;0;
-21808.17;-14889.65;2471.39;-22262.14;15.21986;-1.768542;-21174.55;-11129.58;-0.1618097;-0.04809656;0;
-23049.92;-14646.65;1035.908;-24269.08;5.023163;3.122867;-22119.68;-10637.54;-0.03171244;-0.1130156;0;
-20724.01;-12966.44;-1094.5;-21744.77;3.678945;5.397149;-19853.78;-8948.897;0.03328677;-0.6976081;0;
-27389.81;-18799.77;-2787.705;-28422.58;2.402451;4.386981;-26383.46;-12801.86;-0.1616487;0.1476683;0;
-1781.706;-1371.915;-2794.946;-2638.795;-3.159668;6.258095;-1570.113;-2143.437;-0.0315516;0.537324;0;
19702.86;12820.28;-1945.329;20351.71;4.814109;0.4913971;18956.15;9152.837;0.2283495;-0.1128893;0;
17575.84;10788.93;-660.5189;18726.61;9.09618;-3.929848;16722.31;8050.237;0.033218;-0.3076779;0;
17414.91;11091.06;1573.897;18334.53;6.006557;-2.318431;16632.09;8187.434;-0.1617174;0.01746793;0;
20296.22;13165.29;3336.96;21352.36;5.32996;-3.454811;19432.01;9998.074;0.4231512;0.4072545;0;
6687.065;4147.461;3383.863;7249.969;8.674483;-3.183408;6270.136;1934.873;0.9424647;0.3418779;0;
-21936.96;-14866.84;2478.104;-22401.87;10.47345;-3.113227;-21311.77;-10946.85;0.4867463;0.276567;0;
-23199.02;-14653.09;1037.774;-24423.72;11.06614;-2.507252;-22258.37;-10569.47;0.1614205;-0.04854759;0;
-21270.23;-13420.89;-1097.29;-22279;11.8593;-1.165074;-20376.13;-9256.051;0.3561604;-0.5032702;0;
-27699.75;-19112.57;-2786.306;-28742.55;11.44525;-2.704511;-26690.02;-13050.35;0.4207698;0.01697422;0;
-1739.629;-1362.79;-2788.926;-2610.934;11.3664;-5.247023;-1547.542;-2192.099;0.09551034;0.4717286;0;
19721.6;12825.78;-1942.782;20359.07;9.948457;-0.6870331;18968.72;9163.101;0.1603817;0.6661566;0;
17608.01;10813.97;-669.7499;18748.6;10.3406;2.39475;16758.43;8069.47;0.5500246;0.6005199;0;
17418.24;11092.71;1558.991;18340.58;5.909583;-1.961425;16633.61;8184.472;0.2246352;0.1451451;0;
20339.55;13213.59;3317.852;21393.68;2.822186;-1.289625;19474.93;10055.01;0.1594422;0.2099666;0;
6805.417;4223.946;3346.564;7367.93;3.757355;-9.192071;6395.819;1986.657;0.8089554;-0.1150811;0;
-21987.37;-14996.94;2422.821;-22437.14;1.409055;-16.88575;-21355.15;-11078.65;0.7431751;-0.5047695;0;
-23055;-14581.63;995.1337;-24267.36;5.359754;-11.51027;-22124.21;-10594.69;0.2226897;0.1454111;0;
-20612.27;-12813.78;-1121.084;-21622.94;3.143566;-10.56094;-19728.77;-8875.561;0.1574986;0.4701017;0;
-27148.09;-18550.83;-2816.277;-28189.8;15.33154;-10.81826;-26148.12;-12607.01;0.1573404;0.2747273;0;
-1581.835;-1188.797;-2836.607;-2438.424;32.99866;-10.13756;-1416.993;-2034.793;0.02724759;0.1445166;0;
19802.94;12901.16;-1996.022;20448.15;8.115686;-7.783097;19037.71;9228.481;-0.1027145;-0.1804653;0;
17751.36;10941.47;-710.6302;18886.99;-4.886913;-5.296908;16906.13;8198.284;0.09229076;0.01461802;0;
17581.42;11271.62;1523.617;18500.04;3.691813;-4.956671;16795.71;8356.229;0.2221327;0.33944;0;
20460.89;13310.28;3280.765;21514.64;0.2045029;-4.348845;19598.47;10156.31;-0.1029272;-0.1156724;0;
6963.681;4296.381;3314.825;7519.142;7.237871;-3.339853;6538.788;2003.858;0.0271109;-0.05058885;0;
-21500.26;-14606.72;2394.392;-21977.31;10.37843;-2.532701;-20893.95;-10813.56;0.286953;0.4692007;0;
-22305.74;-14109.38;969.5452;-23551.13;13.98532;-4.204608;-21386.43;-10207.55;-0.1031393;0.1438926;0;
-19914.94;-12321.72;-1137.558;-20951.85;21.53973;-3.530554;-19046.92;-8446.678;0.02689897;0.07878064;0;
-26375.3;-17894.9;-2829.72;-27448.24;13.54749;-8.751553;-25381.04;-12077.08;0.221774;0.4035382;0;
-936.8212;-803.2231;-2848.694;-1807.568;8.510033;-13.16363;-755.7;-1758.063;-0.1682529;0.273198;0;
20015.34;13051.01;-2001.865;20672.46;13.25788;-9.868242;19258.69;9383.104;-0.03814918;0.2079562;0;
17803.94;11036.37;-739.3621;18953.75;15.11959;-9.389446;16956.06;8303.776;0.4166605;0.2727146;0;
17577.47;11238;1462.712;18505.05;9.209902;-7.303663;16794.14;8316.063;0.1563725;0.2074732;0;
20467.13;13333.9;3230.322;21527.39;7.325614;-6.425546;19607.1;10187.4;-0.03868663;0.2072647;0;
7049.355;4412.873;3291.918;7616.337;3.700931;-1.060577;6626.379;2130.102;0.286189;0.2720238;0;
-21439.32;-14526.95;2394.685;-21901.7;0.4146824;3.830121;-20820.19;-10657.91;0.4808034;0.4016851;0;
-22102.06;-13982.18;1003.227;-23330.04;3.294654;3.692307;-21179.31;-10123.67;0.4803203;0.07644483;0;
-19483.73;-11957.1;-1078.61;-20502;3.224971;5.966016;-18615.62;-8309.494;0.02506627;-0.313436;0;
-25974.66;-17532.4;-2765.772;-27000.45;11.79457;4.687346;-24976.43;-11802.06;-0.364763;-0.1182191;0;
-673.6272;-666.6411;-2784.872;-1470.557;18.95001;4.883584;-520.3632;-1600.257;-0.1045271;-0.05313294;0;
20122.74;13110.1;-1954.131;20802.88;19.93535;2.802207;19342.88;9426.013;-0.104422;-0.2479816;0;
17831.05;11073.57;-703.8885;18965.27;18.24136;1.258906;16989.21;8344.971;-0.2342518;0.3369737;0;
17691.49;11349.99;1506.052;18615.46;28.33708;1.056692;16907.97;8423.666;-0.3639511;0.4665698;0;
20493.09;13349.68;3273.212;21552.31;32.26073;-1.288773;19630.45;10209.69;0.02621863;0.07629691;0;
7289.973;4502.709;3355.443;7865.119;26.13274;3.669137;6855.133;2143.997;0.2860616;0.2061549;0;
-20561.68;-13802.02;2483.352;-21014.58;27.71407;5.273041;-19963.31;-10140.59;-0.2339645;-0.0539216;0;
-21521.03;-13413.83;1067.442;-22752.16;4.778795;8.951682;-20601.47;-9608.354;-0.1687621;-0.1838021;0;
-19628.75;-12090.8;-1029.171;-20654.83;-3.732473;12.76059;-18768.99;-8335.896;0.2861789;0.4010887;0;
-26066.1;-17614.04;-2705.653;-27141.76;-31.59362;11.67617;-25074.31;-11896.9;0.0909893;0.3357183;0;
-744.87;-682.6282;-2745.632;-1619.206;-65.25295;13.60682;-556.8644;-1679.667;-0.2989062;-0.1193904;0;
19955.32;12985.72;-1920.802;20612.37;-40.1365;8.837478;19200.51;9309.247;-0.2986058;0.01066423;0;
17816.79;11050.51;-641.6388;18958.82;-36.94834;6.08242;16967.02;8316.731;0.1564656;0.1405882;0;
17648.3;11309.07;1574.923;18565.18;-28.27005;3.731905;16863.24;8376.497;0.0263737;0.01051225;0;
20510.17;13365.35;3342.077;21564.59;-11.83192;0.8480116;19643.03;10218.24;-0.1035875;0.07546904;0;
7293.302;4530.141;3415.211;7868.623;-17.51346;0.2443131;6857.253;2206.249;0.2863207;0.2702952;0;
-20818.99;-14042.03;2519.916;-21274.79;-9.524283;-2.301284;-20208.08;-10239.82;-0.03880375;0.2050563;0;
-21445.86;-13496;1106.936;-22690.71;-13.60055;1.786865;-20522.36;-9731.472;-0.1037321;0.1398829;0;
-19149.55;-11757;-989.2166;-20195.09;-15.79769;3.191711;-18284.32;-8241.672;0.2861762;0.07477502;0;
-25928.65;-17424.98;-2679.716;-26972.09;-11.56225;7.073392;-24941.03;-11718.83;0.2858886;-0.05523481;0;
-837.6522;-718.4575;-2712.834;-1637.424;-16.43978;11.01828;-684.2142;-1598.897;-0.16917;0.07475539;0;
20013.62;13034.65;-1881.665;20691.06;-3.76361;11.4091;19239.27;9345.053;-0.5588041;0.204615;0;
17868.39;11099.85;-598.7306;19000.64;5.952087;14.88063;17021.34;8355.108;-0.1684386;0.009507318;0;
17784.32;11444.69;1641.495;18707.06;-4.16795;9.306217;16998.29;8521.47;0.09160005;-0.4452736;0;
20644.57;13499.29;3408.176;21698.5;-7.311594;5.21103;19778.35;10336.01;-0.103394;-0.2499242;0;
7167.216;4459.386;3452.04;7754.619;-7.974809;6.009589;6727.12;2146.997;0.02664457;0.0101963;0;
-20541.45;-13718.04;2549.305;-21006.94;-10.64611;4.39596;-19936.54;-9976.63;0.02661779;-0.1197486;0;
-20883.52;-12968.78;1135.671;-22163.69;-12.4431;2.649987;-19964.06;-9270.611;-0.03837629;0.01030638;0;
-19061.21;-11678.86;-976.9399;-20119.08;-15.37833;1.37477;-18209.59;-8125.679;0.1565643;0.01029603;0;
-25625.59;-17228;-2658.987;-26716.35;-14.96074;1.239423;-24648.95;-11664.51;-0.1034624;0.1402204;0;
-292.3428;-388.7248;-2664.405;-1151.748;-14.61092;1.840902;-135.7445;-1476.595;-0.4931625;0.2700142;0;
20081.87;13050.61;-1840.734;20760.24;-15.86903;1.102362;19311.95;9373.857;-0.2977649;0.1398082;0;
17825.17;11084.81;-583.6096;18963.21;-15.65202;-1.377114;16979.41;8359.318;-0.03759636;0.4645044;0;
17760.85;11409.07;1642.077;18676.43;-13.96135;7.733705;16975.28;8464.378;-0.4273626;0.07423361;0;
20592.93;13444.17;3404.228;21648.96;-12.13964;15.16092;19728.56;10311.67;-0.3619659;-0.2506777;0;
7266.595;4541.892;3452.063;7836.668;-10.4525;11.66269;6830.039;2172.04;0.02820188;-0.1204911;0;
-20896.18;-14058.32;2545.142;-21369.89;-10.50935;12.6556;-20293.01;-10402.73;-0.1667285;-0.2503048;0;
-21604.82;-13629.52;1118.332;-22850.96;-2.795626;12.77685;-20672.09;-9870.164;-0.2964956;-0.05515121;0;
-19306.74;-11891.66;-999.4778;-20338.7;4.775644;12.09418;-18422.25;-8273.45;0.09360633;0.0748389;0;
-25875.76;-17365.25;-2684.626;-26925.32;-0.2520202;13.15375;-24882.84;-11705.5;0.2884143;0.5295351;0;
-681.394;-578.1502;-2692.501;-1477.542;-1.390843;12.8726;-528.8793;-1523.961;0.09322248;0.334101;0;
20116.87;13134.87;-1848.141;20804.68;2.094155;13.46252;19341.2;9458.145;-0.03680588;-0.5757775;0;
17961.88;11190.06;-557.6502;19092.27;5.239883;14.31977;17113.31;8448.94;-0.1017362;-0.1853949;0;
17862.39;11526.11;1674.944;18783.46;0.4791956;12.56382;17077.29;8595.592;-0.4264707;-0.05527395;0;
20663.48;13506.29;3422.257;21721.62;-6.55486;11.01071;19796.79;10360.61;-0.4260422;-0.3800551;0;
7325.427;4605.69;3459.454;7903.587;5.307096;13.81281;6886.473;2224.425;0.2240593;-0.1198039;0;
-20398.53;-13553.41;2547.716;-20873.36;10.59402;15.8754;-19795.76;-9946.038;0.4187362;0.01025119;0;
-21182.15;-13212.23;1109.066;-22430.69;9.578026;15.45755;-20259;-9430.798;0.02851139;-0.1846611;0;
-19515.47;-12065.87;-1027.351;-20547.54;14.92704;16.04487;-18640.54;-8332.338;0.02848275;-0.2494429;0;
-25862.38;-17455.5;-2710.331;-26914.93;4.931703;17.23432;-24881.01;-11801.58;-0.1014806;0.4004811;0;
-335.6507;-442.2697;-2701.923;-1119.403;-0.6319822;17.28398;-201.1802;-1462.8;-0.361248;0.4650461;0;
20179.66;13157.92;-1854.992;20877.07;-1.167211;20.48179;19402.31;9487.572;-0.1010156;-0.1201273;0;
17925.96;11173.67;-565.4004;19049.75;-6.725743;23.14041;17081.21;8433.127;0.02902058;-0.1849739;0;
17824.95;11482.5;1677.884;18746.88;-1.561421;21.7775;17037.91;8547.373;-0.3608126;-0.5096248;0;
20646.18;13485.89;3432.222;21698.6;1.052116;21.8226;19783.7;10341.92;-0.1655481;-0.2492433;0;
7243.769;4540.812;3459.664;7797.878;-0.6902535;21.13097;6803.947;2161.203;0.02952031;0.2707458;0;
-20554.81;-13655.56;2542.459;-21064.5;1.119101;19.90404;-19958.32;-10039.54;-0.1654114;0.07557178;0;
-20745.81;-12907.91;1110.904;-22050.22;0.5147644;19.28119;-19838.66;-9329.023;-0.03531049;0.01052849;0;
-18578.48;-11281.78;-1024.702;-19664.91;1.183832;17.3863;-17735.07;-7929.786;0.159627;0.07548527;0;
-25214.81;-16792.59;-2709.84;-26317.98;2.522789;17.16788;-24260.13;-11381;0.224434;0.07540942;0;
-50.50456;-213.7168;-2686.768;-880.3874;1.314806;15.81109;62.73768;-1308.903;0.2242084;0.01036629;0;
20333.44;13260.77;-1820.596;21025.56;7.676497;14.99141;19545.46;9584.374;0.4838525;-0.3144808;0;
18045.09;11307.69;-516.2965;19175.61;12.62528;16.18204;17203.52;8573.372;0.418399;-0.1842301;0;
17966.74;11619.4;1739.963;18880.12;8.928896;9.735541;17177.92;8676.218;0.1581092;0.01085699;0;
20707.58;13543.55;3487.836;21762.5;8.250339;6.175663;19840.93;10404.27;0.5477544;0.07581344;0;
7409.397;4642.233;3501.979;7963.154;7.370417;4.628973;6969.481;2243.925;0.8720407;0.6604433;0;
-20073.25;-13252.78;2582.576;-20604.21;6.961845;-0.8681571;-19482.03;-9678.729;0.4813605;0.529845;0;
-20568.31;-12729.91;1148.513;-21872.31;3.605947;6.031835;-19664.79;-9096.182;-0.03886195;-0.05539345;0;
-18867.08;-11554.84;-986.1933;-19938.67;1.123101;9.575747;-18019.86;-8086.482;-0.428627;0.00962955;0;
-25253.14;-16895.26;-2663.874;-26367.89;0.2513168;8.226467;-24297.87;-11460.98;-0.2982616;-0.05534746;0;
75.29974;-146.4607;-2643.863;-765.3029;-2.964117;12.97387;193.8867;-1268.102;-0.4928639;0.2695449;0;
20244.51;13189.66;-1789.775;20938.04;1.727911;4.722175;19461.94;9519.251;-0.6223034;0.6590781;0;
17960.34;11226.05;-492.1275;19088.05;3.602185;-0.2391851;17113.37;8491.291;-0.1019393;0.3985465;0;
17947.24;11591.85;1753.926;18863.1;5.339878;1.837404;17156.87;8643.928;0.2229998;-0.1215927;0;
20705.25;13547.14;3498.754;21763.85;9.151929;-3.857869;19838.24;10415.52;0.2877431;0.008464119;0;
7438.414;4669.854;3532.907;7981.895;4.923175;5.992376;6990.908;2248.014;0.3524213;0.268325;0;
-20260.95;-13433.04;2622.376;-20793.53;3.109567;12.14854;-19674.54;-9855.225;-0.1027042;-0.1217487;0;
-20745.76;-12930.58;1194.77;-22048.19;2.436857;5.907165;-19848.82;-9271.892;-0.1675684;0.07327569;0;
-18672.28;-11400.79;-917.9009;-19763.33;-0.1111871;7.441715;-17844.76;-7973.864;-0.0374653;0.2681041;0;
-25230.88;-16777.85;-2602.944;-26362.18;0.3584152;-1.74218;-24293.14;-11317.85;-0.1673623;0.007965313;0;
-140.3002;-238.276;-2595.721;-995.3963;1.898296;-7.165925;-28.85613;-1282.068;-0.2321615;0.07292467;0;
20293.76;13232.9;-1734.154;20973.84;-4.40025;-10.50775;19506.95;9550.651;-0.1019936;-0.1220507;0;
18048.25;11311.29;-444.2778;19172.66;-8.682736;-16.99441;17202.48;8574.446;-0.03692373;0.07297403;0;
17945.92;11589.41;1802.477;18854.88;-5.324134;-11.14994;17155.4;8653.24;-0.3617233;0.7225741;0;
20777.62;13624.59;3554.753;21827.69;-4.983991;-8.191614;19911.45;10475.06;-0.2963925;0.5919134;0;
7437.76;4641.363;3566.954;7981.443;-0.8931466;-6.843724;6998.129;2288.74;0.223644;0.0715799;0;
-20494.97;-13658.43;2632.432;-21009.59;3.461031;-5.564172;-19908.33;-10023.86;0.2234193;-0.05842672;0;
-21312.91;-13138.01;1183.077;-22588.17;3.859695;3.215939;-20406.96;-9467.824;-0.1016419;-0.1883027;0;
-19403.23;-11844.17;-948.8224;-20464.38;4.324332;10.91562;-18549.1;-8275.687;0.02839491;-0.5129502;0;
-25639.32;-17255.64;-2622.636;-26736.9;8.807965;9.698962;-24669.42;-11665.94;0.2232684;0.07227131;0;
-223.8201;-299.3605;-2611.381;-1068.953;10.33936;11.16284;-70.93816;-1320.541;-0.1017926;0.8518068;0;
20204.31;13201.72;-1763.447;20875.4;12.00391;10.61576;19439.67;9532.362;0.158179;0.2662448;0;
17973.23;11213.08;-468.2005;19100.21;16.27875;11.07397;17126.62;8472.594;0.3529221;0.006107908;0;
17959.59;11616.16;1778.266;18870.77;5.678848;4.90054;17172.64;8678.488;-0.3620733;0.3959058;0;
20787.03;13617.6;3517.885;21841.43;1.051442;1.34552;19922.32;10475.72;-0.4266768;0.1356387;0;
7354.685;4600.394;3526.75;7908.586;-6.115934;-4.483103;6911.883;2224.742;0.2883927;-0.1893343;0;
-20446.67;-13606.28;2592.112;-20968.43;-17.96614;-13.85609;-19854.64;-9987.044;0.3530702;-0.3840461;0;
-21005.46;-13065.99;1148.138;-22291.9;-7.967747;-6.273215;-20088.49;-9366.612;-0.1670233;-0.05882353;0;
-19334.2;-11928.19;-984.7563;-20401.21;-3.739206;-4.659321;-18481.05;-8348.927;-0.1018881;0.5259417;0;
-25920.79;-17450.06;-2671.747;-27036.41;-7.687564;-3.583034;-24961.67;-11874.54;0.02814896;0.5254132;0;
-426.7082;-431.354;-2663.768;-1285.313;-6.541739;1.913044;-280.6994;-1449.298;-0.101814;0.5248852;0;
20151.58;13152.77;-1816.547;20826.88;-6.869959;-4.585978;19384.09;9477.682;-0.1017117;0.2644885;0;
17894.97;11130.39;-536.4266;19025.18;-7.197849;-6.188961;17046.79;8385.609;-0.2965115;-0.060614;0;
17807.38;11465.3;1695.178;18720.86;-4.913441;-5.981793;17020.7;8534.994;-0.4261483;-0.2554551;0;
20654.89;13492.46;3438.067;21705.32;-4.707433;-7.851305;19791.35;10329.01;-0.2957854;-0.3851331;0;
7207;4458.042;3460.755;7752.731;-2.894042;-4.762201;6770.188;2163.327;0.02934852;-0.3197788;0;
-20584.51;-13747.37;2543.487;-21102.57;0.5914909;-4.422501;-19985.28;-9992.534;0.3541557;-0.2544901;0;
-20920.23;-13004.62;1125.112;-22217;-6.575423;-1.136016;-20016.23;-9365.195;0.02896317;0.005634941;0;
-18904.77;-11504.74;-978.8052;-20007.59;-10.11879;2.549065;-18067.86;-8063.653;-0.03603327;0.2654987;0;
-25231.66;-16855.8;-2659.554;-26384.96;-10.71183;0.2022232;-24276.9;-11420.95;0.158905;0.3951666;0;
50.15105;-160.6978;-2674.155;-821.2208;-13.8489;-0.6687581;179.2128;-1302.745;-0.2960261;0.1998675;0;
20170.14;13096.88;-1843.119;20850.95;-11.42409;1.207314;19389.67;9416.192;-0.165794;-0.1251701;0;
17786.91;11059.89;-568.9061;18912.43;-12.34964;2.478777;16943.05;8324.916;-0.10066;0.004890383;0;
17743.66;11379.67;1650.332;18652.53;-7.247016;-0.2698923;16956.11;8437.115;-0.6202976;0.1348202;0;
20493.42;13339.94;3387.768;21543.57;-1.8811;-2.413075;19628.64;10178.32;-0.164903;-0.190152;0;
6873.619;4205.227;3425.937;7419.844;-3.956291;-1.740821;6437.504;1934.42;0.4849361;-0.2549283;0;
-21046.23;-14142.51;2529.631;-21560.39;-0.06657322;-2.140969;-20461.43;-10314.67;-0.2951592;-0.1897048;0;
-21444.37;-13427.81;1119.421;-22734.78;-5.157697;-2.138818;-20551.19;-9615.662;-0.8146014;-0.3194489;0;
-19399.32;-11937.48;-977.7123;-20491.12;-9.706866;-0.3281299;-18557.53;-8277.028;-0.03417475;-0.2541606;0;
-25739.16;-17279.13;-2654.808;-26894.91;-2.463444;-3.74393;-24779.28;-11700.5;0.3556636;-0.1889378;0;
-399.3223;-385.7918;-2673.349;-1292.787;-1.857756;-7.223158;-255.4779;-1444.879;0.2253716;-0.05881329;0;
20050.96;13054.08;-1843.094;20712.16;5.110335;0.08511723;19283.1;9390.456;-0.2296263;0.1361478;0;
17787.53;11020.15;-579.9388;18909.43;12.53994;4.907681;16940;8268.673;-0.2293955;0.2659457;0;
17639.52;11292.74;1628.472;18548.14;8.708946;4.098954;16851.38;8358.955;-0.03426301;0.3956132;0;
20548.67;13382.5;3374.832;21594.75;10.77728;5.635443;19683.03;10209.22;-0.2291306;0.005411603;0;
6860.016;4191.537;3417.011;7406.796;7.752338;7.371215;6413.673;1957.913;0.03096899;-0.1245285;0;
-21337.58;-14428.54;2520.09;-21869.32;3.725084;7.966655;-20750.36;-10512.08;0.09590521;0.135466;0;
-21503.69;-13464.91;1112.201;-22832.96;7.9409;10.77193;-20593.67;-9700.159;-0.03412584;0.005395176;0;
-19214.16;-11674.21;-992.4525;-20328.5;5.589372;14.17712;-18368.61;-8154.341;0.1608105;0.2652591;0;
-25461.56;-17068.18;-2669.237;-26627.04;11.34356;9.474188;-24513.04;-11590.79;-0.1641878;0.524862;0;
-16.83319;-203.6249;-2684.562;-911.8399;16.62344;5.981678;110.2077;-1317.677;-0.0990555;0.1994979;0;
20208.94;13159.24;-1858.981;20883.34;9.23935;7.583136;19430.73;9478.236;0.1609134;0.1343301;0;
17832.5;11086.8;-579.4738;18959.84;9.564858;5.566151;16985.55;8346.105;-0.03415031;0.2641298;0;
17795.96;11437.13;1637.901;18703.99;-0.02294525;6.967077;17005.65;8507.509;0.09581869;0.2638644;0;
20571;13417.28;3361.169;21615.58;-9.400044;8.701632;19704.93;10224.26;0.3555918;0.1336646;0;
6899.94;4139.02;3391.774;7432.091;-3.898243;3.87024;6464.216;1973.29;0.03039777;-0.2562738;0;
-20911.69;-14101.99;2485.726;-21464.51;-4.564888;3.263505;-20319.74;-10167;0.03036722;-0.3209836;0;
-21380.31;-13293.72;1061.318;-22729.67;-2.885361;-1.696389;-20476.48;-9471.548;-0.09959798;-0.3856285;0;
-19830.31;-12281.71;-1043.441;-20958.78;-0.940079;-7.790009;-18984.34;-8430.519;-0.1644652;-0.4502083;0;
-25967.1;-17580.91;-2712.037;-27142.53;0.601107;-1.28496;-25001.74;-11920.9;-0.0343653;-0.05995189;0;
-188.5016;-307.7183;-2719.682;-1100.587;4.016755;0.3909049;-34.11174;-1440.807;-0.09929811;-0.1898263;0;
20062.88;13030.09;-1901.906;20724.81;2.874619;1.99798;19296.39;9379;0.4205404;-0.2546029;0;
17732.34;10988.83;-631.1949;18857.29;3.541316;4.876239;16882.02;8234.771;0.4850852;0.2653916;0;
17655.32;11292.43;1603.972;18562.59;3.738828;3.73263;16867.54;8351.699;-0.1001083;0.1351903;0;
20465.59;13313.32;3337.239;21508.94;3.33293;5.537418;19601.1;10136.53;0.1598616;-0.1248149;0;
6768.653;4105.24;3350.346;7288.882;3.999166;1.110981;6329.363;1896.952;0.4845377;0.2001472;0;
-21533.41;-14604.54;2430.752;-22088.57;4.32994;-2.90899;-20943.49;-10652.98;0.4190835;0.5247828;0;
-22049.71;-13783.34;1008.555;-23388.45;3.990797;-1.298476;-21143.15;-9927.646;0.2887277;0.1994188;0;
-19891.17;-12182.83;-1091.091;-21024.42;4.255207;-2.234933;-19041;-8445.629;-0.03639909;-0.1256183;0;
-26013.71;-17578.29;-2754.33;-27185.68;2.844411;-3.90726;-25045.64;-11914.61;-0.1662972;-0.1254921;0;
-410.0802;-441.019;-2747.283;-1304.895;-0.5746982;-4.907956;-251.1083;-1458.236;-0.1011628;0.1345034;0;
20048.5;13057.12;-1908.209;20712.69;5.721543;-6.175701;19283.37;9390.527;0.2237756;0.2643029;0;
17759.17;10988.33;-629.0586;18880;9.801631;-6.50441;16908.66;8227.203;0.3534854;0.393972;0;
17633.29;11284.03;1603.452;18539.48;7.247162;-7.569601;16847.74;8362.067;0.09326088;0.3935762;0;
20434.4;13276.57;3333.751;21474.95;10.99092;-7.695961;19569.61;10075.28;-0.1017349;0.06834399;0;
6687.658;3997.985;3352.484;7212.091;2.673509;-7.420296;6267.748;1852.913;-0.2315673;-0.1266267;0;
-21455.25;-14569.83;2453.784;-22015.25;-4.094331;-8.417584;-20835.98;-10546.19;0.4183388;0.003435199;0;
-21724.98;-13580.43;1030.002;-23090.36;2.742286;-3.385528;-20820.87;-9816.669;0.4179184;0.0683991;0;
-19729.55;-12119.77;-1093.622;-20880.93;1.735153;0.034003;-18885.63;-8431.481;-0.3621096;0.1982651;0;
-25972.54;-17583.5;-2748.488;-27142.4;9.770385;-0.4349117;-25014.06;-11880.32;-0.2318111;0.1330985;0;
-168.0149;-299.1353;-2717.022;-1045.776;17.73215;-0.6354235;-45.13515;-1347.888;-0.2965455;-0.06193728;0;
20246.31;13194.32;-1871.95;20922.17;13.36007;1.709496;19465.63;9522.191;0.0285892;0.327929;0;
17784.63;11038.06;-589.8998;18902.89;15.69117;4.989942;16939.63;8284.912;0.3533972;0.3925669;0;
17683.98;11317.79;1655.877;18592.41;12.46023;-2.048158;16894.73;8381.753;-0.4915333;0.002368341;0;
20500.46;13348.24;3399.055;21544.68;9.500944;-4.792278;19638;10164.48;-0.5560068;-0.1275687;0;
6652.434;4120.239;3406.415;7170.071;12.23709;-8.873422;6230.103;1916.561;-0.2306114;-0.1274405;0;
-21592.57;-14567.88;2480.831;-22149.7;10.21506;-15.16066;-20985.57;-10608.65;-0.4252817;0.002622196;0;
-21859.43;-13675.23;1046.183;-23209.62;14.76012;-10.32277;-20946.75;-9880.364;0.224819;0.06758692;0;
-19584.76;-11930.91;-1080.393;-20731.14;16.35288;-9.977488;-18725.9;-8289.403;0.4844625;0.00255165;0;
-25750.47;-17323.35;-2747.407;-26906.1;17.5419;-6.819386;-24779.41;-11698.53;-0.1656977;-0.06241826;0;
-281.9316;-364.19;-2724.297;-1148.574;22.34705;-2.726698;-133.9767;-1395.493;-0.3604333;0.06757916;0;
20112.23;13083.21;-1874.407;20784.48;12.00946;-3.326804;19342.59;9411.54;0.09470031;0.1974459;0;
17810.7;11048.19;-566.368;18931.62;4.696378;-0.5771613;16962.73;8291.392;0.2895072;0.06731286;0;
17754.35;11393.9;1696.439;18662.48;6.902462;-1.91624;16966.72;8470.217;-0.03562043;0.1322126;0;
20518.58;13356.14;3408.654;21559.26;4.818446;-2.115263;19655.52;10148.76;-0.295454;0.2620144;0;
6447.166;3853.571;3384.365;6952.115;2.335358;-1.443309;6037.413;1728.325;-0.03528776;-0.06308559;0;
-21683.1;-14705.8;2455.835;-22244.59;-0.01151357;-2.580568;-21060.86;-10673.8;0.1596497;0.001945137;0;
-21945.39;-13672.76;1017.745;-23266.54;-0.3462946;-0.1665896;-21040.23;-9821.798;0.02955462;0.3267799;0;
-19942.43;-12162.43;-1109.271;-21072.72;0.5247094;-0.7692686;-19086.55;-8303.578;-0.03544242;0.1315495;0;
-25618.41;-17255.12;-2761.341;-26791.04;-3.025791;2.982427;-24653.01;-11613.82;-0.03540681;0.1963847;0;
162.2565;-58.42083;-2731.393;-701.3282;-4.764063;8.003028;282.0486;-1239.934;-0.2952406;0.3910894;0;
20156.89;13110.24;-1888.586;20844.36;-3.687549;0.09124421;19373.32;9453.063;-0.2299766;-0.1940097;0;
17824.9;11068.24;-585.4987;18938.85;-5.558878;-4.329599;16981.44;8314.132;0.3549606;-0.1288474;0;
17740.15;11378.44;1666.146;18647.73;1.144513;-1.713036;16955.34;8441.413;0.4195712;0.2610861;0;
20443.71;13283.56;3375.393;21489.28;7.707446;-0.5726051;19581.31;10093.53;0.09431294;0.1308891;0;
6636.394;4024.657;3355.228;7152.334;3.010652;-3.385313;6228.404;1867.397;0.1591855;0.3256596;0;
-21560.43;-14596.2;2420.575;-22108.62;3.142325;-4.721448;-20927.86;-10547.33;-0.2957458;0.0004956794;0;
-21621.09;-13561.25;997.4507;-22958.65;2.737026;-2.573372;-20705.36;-9817.488;-0.6852527;-0.1294395;0;
-19359.38;-11830.22;-1113.366;-20489.04;-0.4135559;-4.446187;-18509.6;-8249.032;-0.3597274;0.520364;0;
-25884.54;-17407.46;-2785.297;-27055.57;7.289043;5.404528;-24913.43;-11728.05;-0.359366;0.5198411;0;
-423.5058;-456.6391;-2764.695;-1343.685;13.9805;12.90094;-267.7407;-1429.08;-0.1641029;0.1944821;0;
20176.83;13143.56;-1904.582;20829.6;7.737162;10.74465;19412.39;9475.438;-0.03400331;0.1293193;0;
17872.16;11104.06;-598.0117;18998.64;5.652307;13.54701;17025.29;8333.596;-0.09893648;0.1941567;0;
17821.84;11468.23;1658.736;18729.29;7.254217;10.51929;17037.12;8547.47;0.2259996;0.258929;0;
20725;13555.14;3384.389;21763.61;1.955643;9.771908;19862.68;10339.74;0.2907399;0.06376678;0;
6745.392;4071.246;3367.276;7258.626;17.02423;6.211994;6332.796;1932.838;-0.09935629;0.1286701;0;
-21149.4;-14256.62;2440.107;-21716.5;34.35582;1.249137;-20525.65;-10292.66;-0.1642238;-0.06636129;0;
-21123.53;-13095.87;1011.404;-22482.75;11.14545;3.927199;-20207.5;-9418.521;-0.09909145;-0.4560986;0;
-19561.06;-12035.82;-1122.166;-20697.72;-3.467783;2.181697;-18703.29;-8330.927;0.03094281;-0.3257057;0;
-25735.7;-17329.05;-2777.83;-26925.11;11.33881;5.930549;-24760.5;-11799.42;0.09587906;-0.1954437;0;
130.6892;-8.262406;-2739.432;-795.0479;13.06873;9.943443;290.408;-1267.677;-0.1640867;-0.325182;0;
20152.54;13114.9;-1888.793;20819.81;16.0697;6.115426;19390.64;9462.001;-0.2288891;0.06494878;0;
17838.72;11075.83;-578.2718;18963.58;23.22085;5.439573;16991.79;8322.437;-0.0337571;0.2597855;0;
17870.29;11511.78;1677.988;18778.5;12.41388;6.90761;17086.36;8567.868;0.03124416;-0.1952469;0;
20639.5;13468.02;3393.657;21680.66;5.23411;8.642225;19776.38;10276.86;0.0961801;-0.06511603;0;
6825.895;4118.99;3371.226;7332.544;12.26145;6.088191;6419.995;1951.686;0.09608346;0.1298514;0;
-21136.96;-14279.18;2432.152;-21703.14;16.40231;3.938741;-20500.35;-10248.32;-0.09891511;0.129721;0;
-20912.03;-13027.76;1010.078;-22273.67;7.745645;7.685706;-20002.99;-9392.911;-0.6185545;0.06462328;0;
-18749.03;-11355.34;-1100.064;-19893.82;-0.09901927;8.816692;-17900.77;-7953.021;-0.4230309;-0.1303437;0;
-25177.2;-16759.62;-2762.903;-26324.9;8.876061;11.35306;-24216.94;-11295.11;-0.09776913;-0.1951801;0;
156.7226;-5.252533;-2739.325;-695.3207;14.49322;14.42287;273.5961;-1142.656;-0.09767089;-0.3249186;0;
20242.86;13164.3;-1885.657;20930.74;8.785231;13.73855;19460.86;9492.851;0.227264;-0.3245921;0;
17860.55;11111.46;-582.6971;18977.03;10.85348;14.12664;17017.65;8349.788;-0.03283376;0.2604401;0;
17751.71;11385.36;1663.51;18660.45;4.545939;14.44736;16962.45;8453.123;-0.4226048;0.5200478;0;
20531.28;13361.54;3383.223;21574.3;-3.630303;13.0262;19666.05;10154.86;-0.2272782;0.1946885;0;
6612.965;4015.277;3381.541;7128.269;10.50687;15.08959;6198.036;1854.186;-0.2920171;0.1295255;0;
-21213.84;-14264.01;2470.974;-21790.56;18.19849;17.01681;-20591.81;-10239.49;-0.3566911;0.06442806;0;
-20883.13;-12982.69;1058.013;-22271.15;16.03675;11.17232;-19979.95;-9360.919;-0.09646329;-0.0006040355;0;
-18926.79;-11489.78;-1047.898;-20102.63;17.09237;7.47715;-18091.21;-8108.543;0.03356833;-0.06557077;0;
-25094.51;-16760.55;-2695.735;-26325.65;21.02731;5.996012;-24149.19;-11425.01;-0.03143274;-0.2604069;0;
477.7892;149.9906;-2680.705;-463.7361;25.5615;3.243809;594.8103;-1117.093;-0.1613358;0.06469147;0;
20243.31;13148.15;-1843.165;20912.89;20.24356;1.365028;19464.85;9474.581;-0.09620639;0.4544305;0;
17822.55;11089.03;-524.9435;18943.34;17.74497;-1.516488;16978.52;8338.44;-0.09610972;0.5189412;0;
17896.82;11517.34;1736.885;18802.06;15.65104;-0.2422884;17108.6;8576.484;-0.5507845;0.2585504;0;
20660.15;13502.89;3458.18;21703.65;10.5451;2.035253;19797.19;10296.04;-0.1604271;-0.1315134;0;
6770.241;4096.524;3447.865;7272.475;12.47688;-2.320561;6350.768;1972.113;0.3594729;0.1934555;0;
-21066.43;-14178.89;2513.618;-21643.69;11.52634;-4.461561;-20455.86;-10133.46;-0.2255944;-0.1315756;0;
-21016.59;-13015.83;1086.777;-22383.19;10.10824;-1.7109;-20128.32;-9369.731;-0.1604004;-0.6511822;0;
-19283.43;-11777.18;-1020.1;-20443.14;11.43725;-2.111078;-18459.28;-8194.715;0.1645975;-0.0008544491;0;
-25503.49;-17112.63;-2677.538;-26687.05;5.331168;2.579726;-24561.42;-11504.86;-0.1604046;-0.06582093;0;
229.757;11.46704;-2658.263;-653.1802;2.244352;6.328056;338.3763;-1122.06;-0.03030874;-0.3256242;0;
20322.66;13232.65;-1816.591;21004.75;1.304092;5.250093;19536.7;9563.4;0.03468905;-0.0004602647;0;
17853.74;11105.34;-545.5604;18975.42;-3.72106;7.589098;17012.09;8343.509;-0.2901825;-0.3252965;0;
17788.1;11417.25;1670.249;18696.98;4.655423;3.763567;17000.09;8486.908;-0.09498891;-0.2600023;0;
20591.75;13424.03;3388.988;21633.08;10.47887;2.152195;19730.31;10212.06;0.03504122;0.3899324;0;
6584.557;3988.532;3395.421;7081.93;5.64557;1.078306;6171.217;1846.807;0.03500601;0.2596059;0;
-21129.9;-14201.33;2488.838;-21721.02;5.907341;-2.137836;-20521.35;-10180.41;-0.3548332;-0.5202631;0;
-20928.55;-13013.62;1072.142;-22299.65;2.016639;1.012388;-20039.56;-9296.87;-0.419444;-0.454773;0;
-19517.46;-12049.67;-1045.652;-20675.06;-3.746163;-0.3281661;-18675.91;-8352.077;0.1007162;0.06542273;0;
-25522.15;-17243.72;-2694.351;-26727.69;1.080372;5.164642;-24572;-11753.63;-0.02931971;0.1303243;0;
600.4273;180.963;-2671.903;-299.5861;4.696609;10.65193;703.6403;-1123.201;-0.09425759;0.0002586829;0;
20314.1;13198.22;-1849.427;21004.29;-5.355794;5.215733;19526.64;9532.307;0.2956412;0.06522578;0;
17810.89;11087.41;-553.4072;18931.79;-10.57435;5.478424;16969.42;8331.999;-0.0294926;0.06516024;0;
17990.4;11608.37;1695.55;18897.11;-11.76917;0.4493207;17202.42;8664.097;-0.3542997;-0.06483993;0;
20668.18;13517.74;3401.55;21709.49;-16.58012;-4.172953;19802.69;10307.97;-0.02910696;0.000192562;0;
6767.08;4065.748;3391.105;7263.787;-11.40589;-3.498931;6357.871;1933.844;0.2307916;0.06515972;0;
-20928.27;-14081.84;2467.004;-21520.09;-7.242224;-6.978405;-20310.38;-10043.77;0.2955271;0.0001268957;0;
-20899.32;-12918.86;1050.892;-22289.82;-10.85129;-2.617625;-20017.02;-9264.718;-0.02960656;-0.1298079;0;
-19321.22;-11830.41;-1053.607;-20478.75;-11.91212;0.1313054;-18489.02;-8205.952;-0.1595115;-0.2596122;0;
-25619.02;-17163.13;-2723.505;-26806.53;-7.88166;-0.8735705;-24668.89;-11590.78;0.1654855;0.0005180593;0;
132.8555;11.94299;-2714.49;-780.5807;-5.99773;1.605554;244.5436;-1170.571;0.03538452;0.1304522;0;
20286.79;13219.54;-1878.978;20964.27;-4.04932;-0.3384425;19506.4;9556.792;-0.09458572;-0.1945156;0;
17864.05;11113.98;-593.7666;18992.6;-1.031142;-0.4720683;17019.66;8347.698;0.03544401;-0.1293528;0;
17824.41;11468.38;1647.985;18734.82;-4.647428;0.06426948;17034.92;8535.29;-0.419363;0.06567924;0;
20667.53;13505.77;3371.555;21710.36;-7.656868;-1.610368;19802.54;10283.83;-0.2890069;0.1305806;0;
6662.952;4015.568;3367.512;7164.288;-5.706791;3.481831;6257.241;1921.93;0.1010875;-0.324322;0;
-21113.88;-14231.94;2448.432;-21689.82;-4.62933;6.559425;-20486.11;-10134.02;-0.2888181;-0.7138002;0;
-21003.71;-13035.09;1023.218;-22360.68;-9.64852;6.351885;-20112.07;-9314.042;-0.4834299;-0.1283769;0;
-19645.45;-12114.14;-1096.183;-20787.08;-11.71493;8.087059;-18807.03;-8370.48;-0.02817279;0.2615562;0;
-25662.14;-17316.16;-2743.378;-26839.52;-14.44983;6.538326;-24713.23;-11718.59;0.3616596;0.1313587;0;
450.7971;133.0902;-2721.677;-414.9254;-19.05701;5.6611;554.5229;-1104.937;0.1014268;0.196194;0;
20236.1;13136.67;-1898.558;20947.82;-13.47815;5.186531;19452.14;9468.984;-0.2235118;0.1310295;0;
17745.09;11035.43;-602.4261;18882.53;-10.98636;3.171832;16902.71;8273.222;-0.02838521;0.2608326;0;
17837.17;11456.81;1650.203;18755.96;-10.43946;4.575286;17048.03;8519.781;0.101578;0.6503745;0;
20554.76;13411.96;3367.806;21598.65;-8.285518;6.647038;19686.83;10188.56;-0.1583934;0.5197864;0;
6302.265;3830.39;3362.642;6819.026;-7.205465;1.549778;5883.84;1749.189;-0.5480383;0.2593947;0;
-21994.38;-14889.69;2435.321;-22556.42;-3.648252;-1.331923;-21389.57;-10781.02;-0.4825203;-0.13067;0;
-21946.03;-13689.58;1002.687;-23286.04;-8.601079;-0.5937729;-21065.12;-9938.95;-0.1571988;-0.3254407;0;
-20234.56;-12488.93;-1114.288;-21330.56;-13.08041;-4.009306;-19391.39;-8650.152;-0.09207347;-0.1302117;0;
-26337.6;-17825.87;-2760.31;-27482.76;-7.708637;3.563672;-25382.81;-12106.61;-0.2219156;0.1947559;0;
-100.344;-142.444;-2718.93;-966.5698;-5.89223;10.05731;10.86598;-1287.206;-0.1567253;0.2595275;0;
20207.56;13170.24;-1867.625;20907.89;-7.025385;4.085849;19425;9510.208;0.03833419;0.1293321;0;
17778;11029.67;-556.2815;18908.36;-6.14767;2.943034;16934.4;8257.683;0.103263;0.1941694;0;
17801.6;11441.56;1709.951;18727.08;-7.548013;1.734384;17013.3;8519.656;0.1031592;-0.06589504;0;
20556.62;13414.8;3419.279;21602.41;-8.008943;-2.286213;19692.6;10175.77;0.1680229;-0.3256982;0;
6065.643;3666.874;3385.921;6579.928;-7.799825;0.998126;5670.573;1657.857;-0.02704792;-0.0005342308;0;
-22302.55;-15143.06;2452.393;-22842.51;-8.931064;2.53773;-21669.13;-10902.95;0.1029139;-0.06550103;0;
-22186.97;-13832.61;1022.333;-23497.15;-5.304767;-2.622383;-21289.4;-10010.05;0.2977126;-0.1953699;0;
-20588.54;-12759.75;-1096.535;-21666.54;-2.954912;-3.691475;-19733;-8835.651;0.1025114;-0.1951736;0;
-26502.8;-18044.1;-2729.987;-27649.91;-2.416079;-8.711364;-25526.75;-12303.37;-0.09249364;-0.2599448;0;
-78.83066;-126.6525;-2676.254;-964.1839;0.2656656;-12.5875;59.44153;-1329.251;-0.2873027;-0.06478161;0;
20073.85;13059.22;-1823.726;20772.42;-3.552994;-10.83329;19303.05;9397.6;-0.4819161;0.1951529;0;
17674.18;10925.12;-508.1168;18809.78;-9.242851;-10.48749;16832.2;8161.539;-0.4814318;0.2599241;0;
17765.46;11400.49;1753.289;18686.88;1.215285;-8.46759;16981.47;8466.134;-0.2860461;-0.0002064352;0;
20451.57;13313.62;3448.924;21510.04;11.46282;-8.124167;19589.67;10087.56;0.1040454;-0.3900103;0;
5974.775;3627.412;3425.906;6497.691;-2.079008;0.4576889;5580.139;1584.785;0.1689082;-0.4545857;0;
-22551;-15319.32;2499.302;-23071.88;-7.10076;7.088295;-21909.59;-11104.34;-0.02616354;-0.5840636;0;
-22648.38;-14165.42;1042.959;-23906.89;-5.888177;9.090661;-21733.71;-10214.53;-0.1560719;-0.5185094;0;
-21190.4;-13264.34;-1090.579;-22226.03;-13.04858;13.16736;-20319.26;-9119.637;-0.02598043;0.1966523;0;
-27399.59;-18826.75;-2716.025;-28474.3;0.5612122;13.75698;-26421.68;-12766.65;0.03901302;0.2614221;0;
-733.2444;-606.313;-2650.188;-1546.912;6.723566;17.22615;-603.3731;-1542.412;0.1039412;0.001290021;0;
20016.7;13020.07;-1788.113;20718.51;7.653839;9.974925;19242.07;9363.892;0.4936408;0.5210274;0;
17572.46;10804.91;-483.9394;18709.95;16.82318;3.333714;16735.38;8022.027;0.4281774;0.1956672;0;
17607.86;11252.23;1778.472;18541.86;0.6630197;6.679389;16826.74;8344.847;-0.09199156;-0.1293661;0;
20511.43;13378.02;3501.1;21566.39;-9.317005;4.328397;19654.73;10129.36;-0.09189912;-0.06426877;0;
5880.776;3615.478;3476.905;6407.967;-5.691297;6.26643;5516.579;1638.802;0.1030952;-0.2591062;0;
-22867.62;-15564.92;2530.448;-23382.02;-6.689957;8.939451;-22192.57;-11258.29;-0.02694303;0.001023503;0;
-22871.43;-14323.63;1063.016;-24139.04;-11.10386;3.237042;-21936.98;-10387.61;-0.02691596;0.1309572;0;
-21276;-13310.85;-1085.441;-22306.22;-15.17854;-0.5841161;-20379.12;-9191.328;0.3629151;-0.1940111;0;
-27407.06;-18819.48;-2723.604;-28477.52;-10.34052;3.301359;-26400.82;-12826.34;0.6224198;0.001085832;0;
-732.6066;-532.1461;-2667.738;-1568.202;-9.995338;5.977237;-576.8397;-1564.012;0.2969577;0.1959868;0;
19967.24;13008.99;-1809.722;20667.13;-2.483207;1.952377;19204.67;9351.433;-0.2230794;0.6505612;0;
17611.54;10821.73;-476.1356;18760.46;2.743225;0.5438957;16774.65;8046.079;-0.2878226;0.8448096;0;
17692.78;11354.83;1807.445;18629.4;7.56324;0.677193;16916.46;8440.557;-0.1575987;0.06435262;0;
20462.96;13312.43;3511.928;21525.62;19.61208;-0.8639728;19608.46;10072.99;0.2323637;-0.1955814;0;
5990.036;3601.399;3483.786;6535.406;3.78489;0.9453124;5633.667;1609.879;0.2970976;-0.1304176;0;
-22326.44;-15145.22;2541.508;-22805.49;-5.663384;0.2076724;-21622;-10838.26;-0.3528744;0.1295829;0;
-22363.23;-13901.68;1074.034;-23585.64;1.844394;2.551744;-21397.8;-9961.512;-0.2225851;0.389322;0;
-20950.28;-13001.61;-1058.536;-21952.74;0.6370925;5.630395;-20035.33;-8934.467;-0.02745944;0.06409412;0;
-26907.18;-18366.55;-2688.372;-27961.12;4.989733;0.3332081;-25882.63;-12456;-0.2223339;0.1289971;0;
-334.3777;-277.067;-2638.226;-1141.052;7.998829;-0.5379048;-166.4058;-1358.88;0.1676936;-0.001067257;0;
20104.04;13108.09;-1784.19;20818.78;10.40267;-5.627945;19344.75;9456.628;-0.02737694;-0.3259029;0;
17706.74;10939.41;-473.7738;18851.26;14.54442;-11.24873;16872.59;8172.063;-0.2872188;-0.0007387155;0;
17685.59;11332.39;1773.073;18624.81;15.33409;-7.687459;16911.5;8411.149;0.2328085;-0.3255747;0;
20371.99;13223.97;3463.41;21441;17.59586;-7.277836;19520.05;10000.54;0.3625093;-0.0004108342;0;
5851.812;3563.091;3425.947;6404.159;16.77487;-6.667677;5492.164;1534.628;0.03730833;0.3893936;0;
-22658.38;-15343.63;2483.039;-23119.14;12.8059;-6.192097;-21956.01;-11056.46;-0.09266384;-0.3906057;0;
-22704.47;-14242.23;1038.925;-23895.49;20.83099;-2.100038;-21733.41;-10199.37;0.232266;-0.1953112;0;
-20706.98;-12781.05;-1079.18;-21687.94;28.17744;2.791704;-19780.44;-8730.87;0.2969999;0.1946891;0;
-26177.5;-17714.06;-2709.572;-27216.92;15.48948;-0.02426227;-25147.87;-11965.26;0.1017995;-0.06537592;0;
88.00108;-31.75258;-2672.445;-690.0344;10.11626;-1.832777;240.761;-1176.081;-0.2881069;-0.06531023;0;
20064.42;13013.63;-1838.334;20800.45;6.890912;2.522833;19296.91;9360.118;-0.22285;-0.1951793;0;
17568.44;10825.71;-525.7394;18723.74;-0.6181003;4.462803;16741.2;8057.035;0.36208;-0.06504849;0;
17684.94;11319.84;1739.12;18634.27;4.540084;2.64978;16913.8;8408.837;0.4266835;0.1299189;0;
20432.64;13291;3442.546;21505.07;4.601896;3.450912;19581.35;10046.92;0.1663854;0.06482103;0;
5733.485;3499.422;3416.661;6298.794;6.33956;-1.576153;5375.223;1543.734;0.2311856;0.1946906;0;
-22593.4;-15272.86;2476.324;-23055.05;10.41903;-5.392474;-21893.44;-10918.49;-0.09388345;0.1295276;0;
-22382.61;-14011.27;1024.376;-23597.99;5.384716;-4.583261;-21412.69;-10048.22;-0.3536585;0.1943648;0;
-20911.05;-13028.44;-1105.801;-21894.28;3.704366;-5.516417;-19972.25;-8910.157;0.03650092;0.1292022;0;
-26678.69;-18194.26;-2743.273;-27702.36;3.700644;-4.439147;-25644.79;-12275.32;0.3613009;-0.130797;0;
28.98919;-74.84632;-2693.274;-733.7424;2.491476;-3.363081;167.7851;-1196.128;-0.02886613;-0.3255676;0;
20210.57;13169.92;-1851.849;20949.85;1.752039;-1.618146;19437.48;9516.19;-0.2237391;-0.1953058;0;
17633.11;10879.72;-559.762;18780.11;0.8132492;-0.8797077;16808.49;8115.359;0.2962244;-0.0002075578;0;
17701.21;11340.14;1686.359;18653.57;-0.5277146;4.680638;16928.32;8420.75;0.2309594;-0.3250441;0;
20456.91;13306.21;3384.81;21533.91;-1.330492;9.163669;19606.5;10082.93;-0.1590767;-0.3247175;0;
5967.039;3656.133;3358.015;6525.083;-3.338886;9.757308;5611.604;1614.663;-0.1589169;0.1303802;0;
-22241.5;-14970.02;2427.044;-22711.48;-6.283269;13.29748;-21532.19;-10734.24;-0.09378985;0.0003145275;0;
-22118.69;-13730.14;979.863;-23330.12;-2.458562;9.332245;-21124;-9819.125;0.03623908;-0.1296205;0;
-20466.27;-12566.6;-1152.738;-21439.18;0.5580182;6.911482;-19517.87;-8593.557;0.03620266;0.1953465;0;
-26207.24;-17718.17;-2792.77;-27249.39;-2.188233;6.569623;-25152.09;-11931.1;-0.1587357;0.2601176;0;
58.23022;-24.7376;-2754.232;-749.6339;-0.8468633;2.544167;259.5827;-1144.23;-0.0936089;-1.319772E-05;0;
20108.7;13093.83;-1914.807;20833.85;-4.664405;4.819031;19362;9438.757;-0.0285475;-0.3248499;0;
17681.32;10917.81;-608.8195;18841.7;-10.21845;3.139615;16847.69;8147.792;-0.09348616;-0.4544582;0;
17808.55;11451.54;1644.597;18758.46;-1.835436;4.744051;17043.16;8539.888;-0.1583596;-0.3890342;0;
20555.46;13399.4;3341.435;21632.81;1.447962;10.90147;19707.29;10154.8;0.1666363;-0.3236759;0;
5952.229;3605.45;3320.992;6540.573;1.044365;-3.912346;5598.103;1627.178;0.5562729;-0.2583834;0;
-22033.53;-14836.72;2400.116;-22444.4;4.727987;-11.34328;-21309.64;-10537.86;0.2958446;-0.3230911;0;
-21780.9;-13627.82;961.1456;-22922.32;-2.979923;-10.66205;-20771.8;-9678.291;0.1006453;-0.1928318;0;
-20495.82;-12781.74;-1155.382;-21431.01;-8.000771;-16.41175;-19521.48;-8637.584;0.1005441;-0.06270331;0;
-26094.29;-17635.21;-2784.308;-27109.67;-7.255797;-6.749958;-25025.95;-11834.56;-0.02949156;0.06729439;0;
388.0826;233.6049;-2752.009;-368.7486;-9.057167;-2.523372;561.0806;-1018.645;-0.2893313;-0.1276753;0;
20209.07;13162.54;-1924.955;20955.04;-9.918723;2.70371;19448.32;9520.612;-0.02917121;-0.517351;0;
17772.15;11025.65;-634.4187;18929.25;-9.640337;10.93965;16946.57;8261.111;0.2956948;-0.5168312;0;
17849.67;11477.9;1606.78;18810.79;-10.70238;7.110753;17084.22;8552.957;-0.1593737;-0.1265078;0;
20641.07;13491.46;3318.492;21726.51;-10.02204;7.438522;19796.19;10272.48;-0.2891482;0.2634234;0;
6168.581;3824.084;3315.157;6767.202;-9.007589;7.565014;5812.978;1774.954;0.230881;0.133224;0;
-22140.31;-14951.87;2387.978;-22547.76;-11.67786;7.155515;-21413.48;-10729.58;0.1656817;-0.1267793;0;
-21803.05;-13651.65;955.7662;-22982.34;0.7924593;5.339908;-20788.53;-9781.048;-0.2242888;-0.06168453;0;
-20396.78;-12685.11;-1159.35;-21351.32;9.164408;5.468508;-19440.53;-8649.424;-0.09412878;0.003344787;0;
-26666.84;-18101.36;-2804.061;-27625.42;8.284543;-0.4983455;-25610.62;-12144.86;-0.02906686;0.3931455;0;
-178.4713;-172.8739;-2757.344;-891.7424;14.70658;-8.602657;6.284823;-1198.624;-0.1589723;0.3927504;0;
20208.7;13179.06;-1914.027;20948.32;4.041883;1.520165;19454.04;9524.223;0.1010568;0.002551755;0;
17744.63;10978.73;-616.3488;18900.1;-3.932781;3.461143;16918;8209.715;0.1009552;-0.2573202;0;
17847.57;11484.22;1644.447;18810.24;-0.9147199;8.41428;17084.05;8577.636;-0.4188849;-0.4519636;0;
20656.39;13493.29;3348.75;21735.94;-4.262703;17.18035;19813.33;10248.31;-0.02866;-0.3215748;0;
5908.645;3591.027;3323.052;6504.333;-4.861633;7.65175;5564.436;1626.079;0.8159443;-0.2562844;0;
-22230.38;-15010.58;2395.927;-22630.22;-5.995823;6.505352;-21496.98;-10707.81;0.6202223;-0.4509289;0;
-21927.6;-13661.65;956.6174;-23078.38;-9.338701;1.207285;-20922.79;-9710.358;0.2947624;0.004295613;0;
-20854.09;-13013.49;-1169.994;-21778.22;-12.20971;-6.094823;-19890.89;-8805.66;0.5543357;0.3940954;0;
-26521.26;-18102.85;-2802.185;-27470.6;-11.39315;-0.8641524;-25449.37;-12151.44;0.423844;-0.2559741;0;
276.6798;86.67546;-2755.813;-418.4201;-9.371975;-1.801045;458.3217;-1052.942;0.03361401;-0.5805535;0;
20175.15;13145.18;-1924.164;20934.28;-15.92762;2.085653;19418.6;9496.267;-0.1613218;0.1996379;0;
17752.8;11001.42;-623.2896;18902.54;-20.46596;5.633652;16931.56;8229.747;-0.09619235;0.06950261;0;
17901.27;11519.15;1627.112;18857.39;-18.03353;5.025145;17140.88;8600.335;-0.161063;-0.1904366;0;
20593.95;13447.81;3323.624;21679.9;-18.95341;7.565325;19750.94;10212.3;0.03400083;0.1995588;0;
5954.984;3620.938;3301.075;6557.568;-16.79091;4.677579;5609.609;1608.405;0.03396666;0.134391;0;
-22611.77;-15363.85;2361.791;-23009.79;-13.89365;2.730375;-21859.71;-11070.63;-0.3558715;0.004321219;0;
-22590.19;-14161.93;925.0763;-23748.11;-17.0285;3.665392;-21555.88;-10170.01;0.1642248;-0.1256178;0;
-21107.83;-13186.37;-1179.046;-22056.49;-17.21246;4.465504;-20132.91;-8971.665;0.3589618;-0.2554263;0;
-26862.16;-18343.55;-2805.528;-27806.13;-17.99847;0.7099731;-25790.35;-12311.25;-0.1611376;-0.1252349;0;
-103.5093;-115.9757;-2759.746;-759.4315;-19.99012;-1.16614;71.1298;-1156.198;0.03392633;-0.1251091;0;
20196.02;13171.85;-1928.358;20966.79;-15.5494;-2.370661;19431.89;9515.882;-0.1610098;0.06991865;0;
17710.42;10937;-635.132;18857.19;-11.71539;-8.262655;16889.16;8160.403;-0.2258153;0.1348157;0;
17749.42;11379.5;1614.032;18710.9;-13.98079;1.792843;16984.39;8465.812;0.03428092;0.06971294;0;
20484.78;13326.38;3317.241;21564.09;-13.43088;6.747656;19639.68;10077.44;-0.09568821;0.06964289;0;
5855.43;3531.421;3316.844;6435.66;-11.6097;4.73151;5517.16;1548.24;0.1642773;0.06957291;0;
-22348.31;-15107.4;2407.061;-22769.43;-11.53068;9.549405;-21607.78;-10846.27;0.2940469;0.1344703;0;
-22266.45;-13796.72;963.6161;-23428.03;-5.088737;-2.315925;-21255.11;-9838.22;0.09884944;-0.1905015;0;
-21295.08;-13333.17;-1171.935;-22218.67;0.4087324;-8.074008;-20328.84;-9030.798;0.1637174;0.06955931;0;
-27070.99;-18567.03;-2805.452;-28038.54;-0.4623344;-13.02251;-25986.35;-12570.52;-0.09631641;0.3943261;0;
-117.3552;-95.58501;-2747.754;-862.0656;-0.9977333;-23.45852;89.93092;-1247.026;-0.4860237;-0.06084151;0;
20072.94;13067.1;-1902.651;20810.59;4.696696;-15.12919;19325.08;9418.805;-0.03076394;0.004186968;0;
17605.47;10828.87;-582.027;18767.42;7.303946;-13.03763;16778.79;8053.834;0.2941037;0.1990848;0;
17794.9;11422.04;1701.285;18749.69;7.162885;-13.22548;17032.79;8497.999;0.09890614;0.003982719;0;
20597.86;13435.39;3409.092;21681.74;10.1698;-8.389545;19755.02;10197.88;0.03383942;-0.06098862;0;
5747.371;3534.518;3381.584;6352.365;2.523768;-14.34247;5398.144;1541.153;0.09877276;-0.3857641;0;
-22820.25;-15480.1;2452.183;-23220.22;-0.4255285;-16.80631;-22080.67;-11162.46;-0.1611959;-0.3204091;0;
-22662.83;-14216.02;1013.16;-23811.11;-5.315221;-13.4404;-21633.15;-10158.92;-0.1610339;0.3295863;0;
-21447.71;-13513.24;-1118.193;-22361.26;-13.07941;-12.15422;-20467.24;-9162.612;0.423834;0.3292551;0;
-27518.52;-18887.29;-2763.289;-28438.08;-5.364087;-12.74485;-26429.31;-12714.27;0.09857142;0.06905492;0;
-643.6185;-395.2431;-2704.837;-1319.955;-4.956555;-14.60744;-437.2429;-1347.095;-0.4212663;0.1339529;0;
20054.88;13096.48;-1853.765;20808.06;1.813579;-9.30136;19303.2;9439.666;0.09889567;0.06885093;0;
17678.85;10870.67;-554.7728;18836.68;9.983431;-5.340021;16854.72;8084.326;0.2936983;0.2636838;0;
17759.81;11394.82;1713.77;18725.27;4.614765;-7.746041;16998.35;8484.591;0.4883052;0.0685168;0;
20612.32;13447.01;3423.687;21695.08;4.342684;-5.862735;19768.23;10188.91;0.8776186;-0.06148674;0;
5703.469;3514.34;3390.824;6310.484;4.472042;-11.08139;5365.858;1529.174;0.746802;0.2634118;0;
-22780.51;-15410.52;2455.667;-23174.12;5.606625;-16.56273;-22031.34;-11157.16;0.09637831;0.003277702;0;
-22850.59;-14271.51;986.5929;-23983.34;2.11739;-11.72344;-21813.69;-10170.97;-0.4234573;0.003274408;0;
-22068.34;-13998.55;-1169.253;-22949.81;2.316334;-12.31451;-21067.97;-9427.227;-0.2281297;0.1981732;0;
-27702.87;-19136.5;-2795.604;-28649.84;1.577072;-10.0917;-26593.53;-12963.41;0.09693618;0.197974;0;
-400.6316;-249.0104;-2742.07;-1142.926;2.446143;-6.598569;-176.2888;-1317.481;-0.3579326;0.4576445;0;
20062.24;13104.2;-1893.833;20803.72;3.65011;-11.14666;19319.4;9456.584;-0.2926056;0.3272499;0;
17717.48;10903.74;-554.0718;18880.92;-9.146932;-9.527865;16894.48;8116.032;0.0325251;0.06705176;0;
17886.69;11520.59;1728.994;18851.17;31.98807;-16.68534;17129.77;8603.878;-0.3573116;-0.2578523;0;
20670.22;13500.72;3422.405;21757.88;63.83932;-24.37143;19829.17;10248.46;-0.2919852;-0.4524953;0;
5856.946;3532.471;3377.049;6461.416;42.27426;-14.50064;5533.051;1589.873;0.4229489;0.002730788;0;
-22591.35;-15360.96;2432.691;-22981.31;45.37962;-11.33799;-21823.46;-11001.8;0.0976872;-0.192174;0;
-22515.13;-14041.87;956.6752;-23651.4;31.26785;-9.384092;-21470.98;-10007.52;-0.3571824;-0.5168176;0;
-21726.78;-13782.97;-1212.384;-22617.33;19.17999;-7.365297;-20720.71;-9370.127;0.0329806;-0.2564289;0;
-27991.08;-19355.97;-2844.579;-28898.33;17.62047;-3.27206;-26875.44;-13031.82;0.1628821;-0.581008;0;
-861.971;-540.0495;-2752.047;-1551.165;6.952849;3.563365;-635.0222;-1397.067;-0.03218354;-0.5804241;0;
20129.38;13195.54;-1854.872;20878.29;13.24153;-5.147752;19390.43;9542.714;-0.1620859;0.1997672;0;
17856.7;11020.21;-506.9972;19020.25;11.35319;-9.02759;17034.83;8224.986;-0.03198834;0.5893705;0;
17875.87;11519.92;1774.085;18841.41;20.51783;-10.09012;17118.32;8608.29;0.3578478;0.1989742;0;
20787.61;13595.67;3473.385;21873.07;28.40145;-14.29991;19946.88;10348.32;0.1625863;-0.2559971;0;
6005.372;3687.822;3422.449;6629.351;30.11422;-12.94588;5663.71;1650.043;0.2273902;-0.3207072;0;
-22554.01;-15305.28;2467.864;-22919.41;39.05894;-14.60733;-21802.19;-11139.95;0.2921291;-0.320385;0;
-22569.99;-14130.98;995.5603;-23682.11;30.11206;-13.52104;-21514.56;-10042.12;-0.2279032;-0.3200631;0;
-21707.58;-13759.04;-1159.607;-22590.67;26.46448;-14.04332;-20697.87;-9219.014;-0.2926415;0.005095257;0;
-27526.8;-19009.19;-2779.362;-28467.05;24.56188;-11.75179;-26421;-12853;-0.1624128;0.1999922;0;
-316.3007;-207.4709;-2695.329;-1032.035;18.04047;-7.118282;-91.34695;-1241.866;-0.03231491;0.3946933;0;
20160.47;13198.22;-1835.005;20911.27;20.16579;-15.21582;19417.72;9542.712;0.09765224;0.3293293;0;
17747.31;10936.17;-510.7004;18908.54;18.80538;-19.08554;16922.11;8138.777;0.1625215;0.3939658;0;
17927.94;11547.57;1764.638;18895.16;17.24625;-19.33417;17168.29;8632.612;0.4222275;0.6534393;0;
20652.81;13480.22;3444.207;21738.58;19.97558;-22.32898;19810.18;10208.45;0.4218033;0.327946;0;
5608.285;3397.034;3391.677;6200.112;10.71211;-20.56499;5288.489;1459.683;0.2914447;-0.2570896;0;
-22678.35;-15345.16;2450.584;-23080.5;2.261255;-20.41036;-21911.17;-10987.45;0.2261846;-0.5167007;0;
-22293.86;-13879.19;972.1454;-23417.58;10.69908;-19.65304;-21263.75;-9889.908;0.03105528;-0.1263774;0;
-21149.46;-13176.08;-1181.187;-22036.78;9.281806;-18.36073;-20158.97;-8899.229;-0.1638779;0.1985863;0;
-26664.88;-18182.3;-2798.452;-27618.14;14.43004;-16.80168;-25572.71;-12257.38;-0.09874595;0.003484676;0;
234.362;135.2409;-2721.365;-488.0645;18.16659;-13.03387;427.6198;-1055.357;-0.4234834;-0.06148617;0;
20202.79;13142.91;-1852.738;20956.77;12.18649;-15.29807;19446.86;9494.183;-0.2931232;-0.1263917;0;
17697.62;10913.97;-531.8206;18856.82;17.6666;-16.15348;16873;8123.39;0.2918774;-0.1262647;0;
17721.91;11330.61;1719.114;18686.84;-7.937901;-11.38158;16956.51;8396.68;0.09668206;0.003796827;0;
20346.58;13169.59;3402.009;21432.99;-24.47434;-9.427643;19500.31;9915.959;-0.4881212;-0.1261417;0;
5484.943;3317.175;3362.733;6077.44;-25.92362;-5.868196;5153.261;1317.719;-0.2927287;0.003919759;0;
-22878.86;-15492.33;2421.638;-23278.85;-39.49425;-4.053761;-22124.57;-11187.49;0.09736952;0.3937199;0;
-22623.85;-14113.14;963.3741;-23759.29;-24.1156;1.040893;-21602.85;-10087.13;-0.032663;0.1334549;0;
-20772.05;-12690.1;-1164.462;-21690.58;-16.52291;7.871862;-19803.26;-8526.583;0.03233716;-0.4513853;0;
-25635.72;-17282.47;-2766.471;-26596.23;-13.89434;1.09892;-24564.22;-11606.04;0.1622394;-0.3859644;0;
804.5238;492.6856;-2693.023;103.8828;-5.909771;-2.117365;988.7205;-813.9388;0.03214165;-0.1257072;0;
20252.96;13187.5;-1845.305;21015.67;-3.023445;-0.172732;19494.74;9545.142;0.0970767;0.004353797;0;
17773.11;10995.92;-524.2698;18931.2;4.950196;-1.914115;16948.28;8202.08;-0.03295553;0.2642188;0;
17864.3;11468.67;1735.434;18828.8;0.7930121;-1.041413;17099.51;8527.468;-0.2927918;0.393888;0;
20540.47;13357.38;3418.125;21622.58;0.3900737;-2.781923;19694.39;10105.76;0.09730647;0.06865551;0;
5651.379;3422.401;3388.391;6240.791;0.5907525;0.5700189;5305.369;1389.776;0.4870127;-0.06134817;0;
-22578.96;-15265.49;2467.354;-22979.22;-0.9500825;5.124164;-21839.99;-11019.77;-0.03321534;0.3934849;0;
-21950.62;-13750.09;1034.062;-23081.53;-0.2131696;-1.646139;-20930.28;-9773.775;-0.422986;0.3930895;0;
-20611.58;-12822.94;-1082.07;-21513.37;-3.69558;-2.783195;-19645.38;-8608.395;0.03221039;0.002890458;0;
-26246.23;-17796.86;-2696.202;-27198.04;3.943944;-5.59356;-25180.13;-11980.22;0.1621127;-0.1920145;0;
537.2352;345.5841;-2621.763;-170.5011;5.949713;-11.1474;718.6514;-901.0551;-0.2278542;-0.3217562;0;
20379.52;13302.13;-1765.542;21140.58;11.63716;-2.964526;19617.51;9641.364;-0.35756;0.003403792;0;
17810.67;11033.88;-460.9855;18970.73;22.00697;-0.28223;16985.2;8238.877;-0.03236398;0.2632698;0;
17938.99;11538.79;1792.22;18908.18;8.790317;2.799146;17173.22;8603.005;0.4874073;0.3279726;0;
20700.15;13522.56;3484.349;21786.05;4.159784;8.355795;19856.06;10251.89;0.6168522;0.3926103;0;
5715.324;3508.128;3442.711;6321.875;2.480665;4.529494;5384.607;1556.248;0.2264283;0.002411793;0;
-22528.94;-15215.17;2511.125;-22907.79;-5.961921;4.792875;-21781.38;-10851.06;0.09626614;0.06737673;0;
-21753.51;-13554.48;1083.13;-22894.34;3.890682;2.778571;-20734.22;-9692.566;-0.2286673;0.1322764;0;
-20497.71;-12700.47;-1032.645;-21408.42;5.962878;0.09658356;-19520.65;-8681.799;-0.4883069;-0.1926933;0;
-26141.27;-17775.48;-2642.344;-27093.52;7.900246;0.3644182;-25060.76;-12035.81;-0.2279469;0.06736973;0;
741.7636;422.3531;-2567.023;29.20652;13.71946;-2.985095;932.2105;-849.5488;-0.5525545;0.3921387;0;
20402.85;13308.67;-1724.303;21173.06;6.270932;0.6349832;19645.4;9654.916;-0.4220647;0.26181;0;
17770.15;11003.42;-423.5987;18934.65;6.866867;3.045609;16941.91;8209.405;-0.03183651;-0.1932244;0;
17936.03;11525.75;1828.227;18899.76;-2.048641;-0.373459;17168.16;8582.074;-0.2267065;-0.1280629;0;
20572.21;13391.91;3511.011;21660.62;-11.49105;1.167524;19723.66;10134.93;0.09835796;0.1969025;0;
5758.314;3477.371;3484.464;6352.012;-3.507929;-5.397855;5415.666;1451.857;0.2931612;0.261672;0;
-22248.22;-14991.69;2566.704;-22637.38;-2.834819;-11.6887;-21505.5;-10745.75;0.1629319;0.456311;0;
-21751.77;-13494.96;1129.408;-22862.17;0.9854469;-5.581635;-20736.84;-9605.929;0.09780084;0.5857872;0;
-20606.36;-12761.45;-974.3572;-21503.15;5.606157;-4.236368;-19641.89;-8641.179;-0.03223211;-0.0644748;0;
-26057.44;-17659.28;-2580.57;-27033.31;5.868944;-3.093523;-24990.03;-11871.04;0.09773497;-0.1943447;0;
723.092;456.7226;-2533.078;-7.610573;7.872778;-1.080927;898.9056;-810.275;0.03266942;0.1306873;0;
20339.86;13239.96;-1700.028;21098.76;11.74963;-1.213807;19573.87;9572.445;-0.2272328;0.06558865;0;
17735.41;10966.5;-394.788;18896.81;17.89977;-0.4087919;16907.98;8171.823;-0.03210243;-0.1293793;0;
17806.69;11390.43;1848.887;18772.97;13.05901;-0.1404494;17037.14;8442.378;0.03289717;-0.06428196;0;
20501.34;13326.52;3521.438;21579.12;12.57738;2.203972;19652.91;10053.5;-0.4868746;0.195652;0;
5523.195;3366.758;3483.011;6105.175;11.55938;-4.027411;5188.582;1409.507;-0.4863854;0.1954554;0;
-22853.16;-15490.32;2556.538;-23255.16;3.911959;-9.649809;-22110.99;-11125.38;-0.355962;0.2602264;0;
-21939.81;-13671.49;1123.969;-23095.16;19.44807;-4.884446;-20932.28;-9852.206;-0.6154737;0.4548669;0;
-20331.11;-12512.69;-991.7852;-21248.68;27.06434;-3.74095;-19373.95;-8517.222;-0.4199532;0.06460582;0;
-26375.18;-17885.27;-2618.923;-27311.02;26.43393;-4.406898;-25314.08;-11938.77;-0.2895966;-0.2602958;0;
143.5814;85.16463;-2559.008;-569.0999;34.84746;-3.799624;330.5052;-986.4429;-0.1593709;0.06480245;0;
20138.96;13081.7;-1716.781;20889.87;21.21479;-3.461014;19382.96;9396.845;0.360528;0.4545414;0;
17430.38;10637.62;-439.3532;18598.68;15.5674;-3.591502;16600.9;7830.436;0.6850024;0.713954;0;
17452.38;11042.48;1783.44;18424.35;12.00178;-1.377456;16681.47;8111.454;0.4894121;0.3234326;0;
20226.15;13051.58;3464.146;21305.05;0.6028668;0.9013474;19377.51;9751.038;0.09911627;-0.1966311;0;
5013.061;2981.415;3450.077;5593.236;14.26629;-1.376978;4690.009;1105.815;-0.1608527;-0.1314662;0;
-23064.32;-15618.17;2547.312;-23472.82;19.2758;-1.978441;-22315.82;-11163.68;-0.1606911;0.1935026;0;
-21769.24;-13526.8;1109.412;-22915.44;19.59122;-2.981197;-20769.97;-9710.418;0.1643071;0.1283408;0;
-20471.1;-12652.39;-1028.41;-21375.03;25.53338;-4.920584;-19510.27;-8629.013;0.09917468;-0.001722836;0;
-26456.48;-17999.89;-2654.856;-27406;19.94802;-4.044862;-25389.31;-12137.93;-0.1607943;0.1282136;0;
255.6607;149.7218;-2601.526;-460.7628;19.99435;-4.509678;435.0576;-1049.57;0.03426925;0.5828562;0;
20005.93;12938.63;-1783.681;20770.12;15.48726;-4.237215;19242.51;9259.631;-0.03073253;0.3224011;0;
17348.84;10562;-486.4465;18507.89;9.509851;-2.558506;16517.19;7762.138;-0.2256037;-0.3275962;0;
17521.3;11100.79;1772.938;18482.94;14.12199;-6.440824;16750.7;8159.385;0.09945972;-0.1973324;0;
20314.62;13142.69;3441.13;21394.83;15.44795;-9.716393;19464.77;9846.74;0.03439245;-0.06719943;0;
4979.533;2963.488;3381.45;5559.864;12.75311;-6.22364;4650.972;1126.068;-0.1605441;0.06280279;0;
-23648.13;-16178.45;2447.708;-24049.51;11.13271;-5.279625;-22901.37;-11646.27;0.2943886;0.322609;0;
-22603.51;-14200.6;1011.157;-23738.29;14.3367;-5.341303;-21595.07;-10253.01;0.6189294;0.1273829;0;
-21081.49;-13119.62;-1116.447;-21968.11;16.93427;-4.532141;-20111.23;-8902.882;0.2934709;-0.002679826;0;
-27089.9;-18539.98;-2740.586;-27995.81;15.37701;-4.996468;-26017.73;-12482.2;-0.09662807;-0.06764448;0;
-191.3712;-127.1171;-2673.396;-873.8461;14.4909;-2.982081;-1.086932;-1195.555;-0.2264657;-0.1975112;0;
20050.51;13027.23;-1816.53;20813.08;16.61979;-8.069666;19293.95;9356.484;-0.09630342;0.06255665;0;
17478.05;10660.96;-490.5575;18640.94;17.13896;-12.48231;16647.43;7841.948;-0.09620666;0.3223632;0;
17530.67;11123.82;1768.3;18499.21;17.99239;-6.843322;16761.37;8185.986;-0.09610999;-0.002797473;0;
20256.02;13079.05;3432.467;21332.14;22.79708;-3.286473;19409.19;9773.317;0.09888861;-0.5225334;0;
4990.782;2932.827;3380.168;5561.201;11.05156;-6.096332;4674.756;1074.021;0.2287239;-0.3920737;0;
-23489.48;-16051.48;2452.674;-23898.83;-0.6811965;-8.434608;-22730.2;-11562.75;0.2934614;0.3879284;0;
-22649.98;-14137.2;1004.529;-23769.42;11.24221;-1.46003;-21630.76;-10191.88;0.1632319;0.5174733;0;
-21295.56;-13236.1;-1126.878;-22160.69;14.1113;2.225376;-20314.55;-8953.21;0.3579699;0.1921166;0;
-27107.63;-18632.31;-2740.043;-28020.23;13.42753;3.428833;-26021.24;-12490.54;0.5525122;0.3218583;0;
-135.6134;-135.3798;-2674.26;-839.5695;18.9064;8.448985;74.78181;-1165.317;-0.09771635;0.1916002;0;
20059.73;13047.49;-1827.012;20811.27;7.032032;1.541376;19310.8;9364.921;-0.2925202;-0.2633637;0;
17494.88;10673.5;-517.4902;18652.45;-0.2760518;-2.679976;16662.72;7850.111;-0.09732423;0.1267049;0;
17573.55;11166.06;1723.31;18539.61;1.867679;-0.8017609;16807.07;8228.232;-0.2271611;0.191545;0;
20357.39;13172.5;3380.432;21434.05;-1.684171;-3.145358;19510.35;9865.294;-0.1619655;-0.3283862;0;
5072.503;2988.309;3322.844;5661.007;2.202288;-0.5298631;4754.383;1139.965;0.1630339;-0.1331542;0;
-23315.2;-15910.27;2398.874;-23695.13;6.15219;1.145243;-22551.64;-11427.54;0.2278374;-0.1979878;0;
-22241.57;-13857.54;974.2722;-23369.4;1.590681;-0.5974644;-21228.28;-9966.517;0.09767383;-0.3926909;0;
-20985.17;-13022.96;-1147.953;-21881.59;1.186941;-0.06100059;-20018.63;-8843.077;-0.032359;0.1924098;0;
-27023.74;-18497.89;-2765.236;-27951.13;1.119375;-1.199649;-25951.95;-12495.32;-0.1622612;0.5820205;0;
-11.00991;8.010698;-2682.56;-717.0505;-2.36535;-2.337154;175.007;-1110.466;-0.03216344;0.1916316;0;
