Fp1;Fp2;O1;O2;POLY3;POLY4;A1;A2;Video;Audio;event;
14518.49;10837.07;2256.674;18365.3;22.84208;-7.361795;15373.75;8133.177;0.2124432;0.4807583;0;13:27:31 Глаза открыты;
-12826.83;-11131.29;1648.945;-12989.89;4.198606;-10.10064;-13683.72;-9579.971;-0.04763962;0.09047122;0;
-34676.23;-28961.42;766.0126;-38256.24;-5.182735;-12.50181;-36226.74;-24317.76;0.277245;0.09038031;0;
-18416.78;-13201.47;-193.5408;-24012.92;9.223436;-7.063755;-19801.88;-10293.57;0.7967051;0.2202242;0;
-11786.94;-6353.299;-1667.918;-17775.28;7.138064;-6.453811;-13403.42;-2777.698;0.5360352;0.09006821;0;
-6514.928;-4073.433;-2496.403;-11882.96;7.063543;-12.67662;-7526.198;-2997.342;-0.3090788;0.1549451;0;
15342.54;12096.11;-1900.083;15494.22;4.77927;-13.73555;16031.32;8994.987;-0.3737356;0.5445934;0;
21424.5;16672.01;-1110.164;26692.1;10.86906;-15.66425;22899.22;13735.33;0.211346;0.3491442;0;
16749.45;12653.85;-168.1307;21849.31;7.777656;-16.58621;17961.53;9904.929;0.4060357;0.02395664;0;
16600.33;12073.15;1407.043;21966.27;14.60137;-18.51199;17972.28;9129.252;0.2107256;-0.2359368;0;
14489.68;10800.13;2175.493;18258.45;19.07467;-19.36416;15322.18;8101.622;-0.1792901;-0.4955691;0;
-13153.35;-11381.8;1547.184;-13431.68;-26.75935;-17.06735;-14062.98;-9842.909;-0.04917531;-0.04029975;0;
-34617.76;-28937.44;678.9243;-38265.89;-36.84652;-17.0502;-36189.19;-24307.56;-0.1140932;0.02470808;0;
-18436.04;-13203.29;-277.4649;-24046.6;-43.30721;-12.61232;-19847.22;-10187.11;-0.5037826;-0.3001535;0;
-11961.53;-6601.913;-1752.023;-18006.59;-57.19517;-11.05904;-13618.19;-2971.962;-0.2434071;-0.03998249;0;
-5692.451;-3814.567;-2550.782;-11044.72;-17.35106;-10.5791;-6653.183;-2821.003;0.01670686;0.1549597;0;
16122.73;12468.54;-1958.875;16409.91;-9.430367;-9.027866;16882.04;9343.016;-0.1132446;0.2197714;0;
21382.98;16693.96;-1201.755;26686.44;-21.47733;-14.31032;22844.89;13757.15;0.2117059;0.3494852;0;
16817.22;12721.89;-260.9881;21898.45;-15.22646;-16.03744;18006.52;9947.021;0.3414278;0.2191994;0;
16650.62;12103.99;1331.958;22040.05;-21.23938;-13.00722;18016.63;9155.762;0.2111501;-0.04089027;0;
14440.97;10784.95;2126.313;18171.76;-20.61483;-12.7932;15246.27;8064.606;0.3408726;-0.3007185;0;
-12965.55;-11223.97;1506.409;-13309.7;-12.08765;-17.80394;-13930.11;-9717.922;0.01569339;-0.1704817;0;
-34359.48;-28640.87;608.4243;-38073.12;-9.865674;-18.79074;-36003.81;-24081.01;-0.1142571;-0.04037572;0;
-18027.66;-12829.59;-359.2634;-23704.85;-9.855761;-17.49924;-19494.85;-9997.569;0.01579243;-0.1053025;0;
-12157.4;-6700.675;-1824.837;-18174.09;-7.367611;-18.48634;-13869.6;-3147.196;0.1457112;0.08970536;0;
-6949.637;-4460.283;-2623.929;-12339.58;-12.182;-12.50646;-8033.305;-3354.412;0.0805975;0.4794193;0;
15414.05;12178.48;-2006.602;15524.88;-13.64363;-11.15424;16064.33;9080.35;-0.3742549;0.2190682;0;
21525.34;16768.47;-1210.282;26786.48;-1.037619;-11.94683;22981.03;13800.18;-0.6987155;0.08891338;0;
16794.51;12695.7;-258.1217;21868.79;1.44167;-10.72913;17979.15;9917.864;-0.6330462;0.4136607;0;
16695.12;12183.94;1339.897;22036.99;0.7706364;-15.0052;18041.05;9222.01;-0.242606;0.02344104;0;
14911.57;11141.32;2147.847;18816.91;3.315458;-15.52592;15767.8;8398.184;0.4073112;-0.3663866;0;
-12351.81;-10758.15;1535.542;-12488.54;-4.391033;-17.58679;-13277.35;-9340.812;0.5368366;-0.1711164;0;
-34064.66;-28403.21;649.4285;-37764.22;-5.926862;-19.10967;-35760.36;-23885.06;0.01655847;0.1538923;0;
-18556.28;-13315.89;-312.3503;-24215.33;-1.701348;-15.47345;-20061.19;-10422.8;-0.3082949;0.08877029;0;
-12889.22;-7475.575;-1776.628;-18909.28;-0.9627045;-14.98908;-14594.5;-3926.262;-0.3729524;-0.3660903;0;
-6697.514;-4546.751;-2553.483;-12214.16;-3.975847;-12.49571;-7776.068;-3489.612;-0.6324471;-0.3007551;0;
15822.24;12338.33;-1933.212;15839.34;-4.507716;-9.669934;16472.62;9245.369;-0.5668442;-0.1055509;0;
21433.72;16714.65;-1150.35;26684.14;-1.757496;-14.41588;22889.03;13740.85;0.0184314;-0.3003469;0;
16933.07;12837.31;-191.7533;21999.89;-4.166628;-14.26743;18120.6;10047.83;0.6680863;-0.105143;0;
16910.77;12396.08;1406.261;22234.87;8.429862;-6.751192;18250.88;9450.494;0.3425783;0.2847667;0;
14983.2;11194.25;2207.851;18909.88;11.16708;-5.002913;15867.96;8414.187;0.01739736;0.0895785;0;
-12226.07;-10670.8;1596.282;-12372.11;-1.972305;-2.251586;-13111.91;-9250.424;0.4071839;-0.1703809;0;
-33617.28;-27988.22;735.4073;-37362.91;-2.104045;-0.2399574;-35318.78;-23624.29;0.2118728;-0.1052423;0;
-17174.81;-11959.71;-176.5299;-22916.8;-19.71808;-3.990638;-18719.07;-9600.527;-0.04820949;-0.04016925;0;
-10677.25;-5335.225;-1623.688;-16822.53;-27.20035;-5.460192;-12455.73;-2229.221;0.146741;-0.1050962;0;
-5058.964;-3187.878;-2412.409;-10262.33;-14.98188;-2.306569;-6136.665;-2322.168;0.1465935;0.1548788;0;
16334.73;12678.26;-1796.153;16874.27;-16.10591;-2.572183;17050.68;9510.016;0.3413483;0.3496251;0;
21617.87;16935.12;-1030.763;26933.37;-10.79844;-9.803633;23070.43;13987.94;0.47094;0.1543718;0;
16961.59;12863.24;-106.5506;21995.24;-7.303986;-11.93718;18137.92;10076.78;0.2755647;0.08924937;0;
16743.72;12216.82;1469.03;22115.88;-9.774893;-14.40349;18093.51;9255.234;-0.2444509;0.154127;0;
14802.05;11079.73;2260.983;18721.28;-8.157481;-16.13051;15637.68;8326.959;0.08063143;-0.1708646;0;
-12155.04;-10474.51;1638.867;-12295.94;-1.65255;-14.17186;-13113.36;-9019.802;0.2754524;-0.3006276;0;
-33334.19;-27670.32;760.6138;-37077.7;2.368575;-13.55477;-35043.34;-23282.99;-0.5693998;0.02451122;0;
-17369.93;-12098.52;-171.9633;-23078.35;-5.069521;-10.46;-18911.23;-9592.992;-0.5038603;-0.3003501;0;
-10783.68;-5448.258;-1613.566;-16939.14;-4.796007;-8.239113;-12562.84;-2224.381;-0.1785173;-0.4949503;0;
-4480.008;-2912.478;-2385.837;-9715.694;-0.03576589;-2.738355;-5483.812;-2123.211;-0.2433053;-0.3645183;0;
16566.4;12717.97;-1792.971;17146.13;1.906653;1.551182;17347.87;9518.463;-0.1131261;-0.2342174;0;
21359.03;16719.56;-1048.199;26688.57;4.249262;-1.263538;22808.76;13791.5;-0.1779798;0.155822;0;
16913.3;12812.72;-106.3684;21940.14;6.388446;-0.726527;18090.06;10018.11;-0.04786627;0.2206328;0;
16765.36;12231.46;1460.654;22143.93;14.41998;6.910135;18122.31;9278.672;-0.3076876;-0.169393;0;
14582.21;10889.4;2230.861;18416.59;18.6924;8.443799;15400.07;8149.224;-0.4373131;-0.1692228;0;
-12417.67;-10723.01;1634.949;-12685.29;17.80296;7.899452;-13391.05;-9222.002;0.2127998;0.09081666;0;
-33351.67;-27669.19;775.4406;-37142.66;18.52103;9.90088;-35049.34;-23250.15;0.407488;-0.1041766;0;
-17228.3;-11993.72;-174.018;-22950.99;25.2012;-0.29023;-18746.63;-9526.158;0.08224182;-0.4289086;0;
-10959.36;-5573.292;-1632.625;-17101.98;26.31398;-2.701202;-12722.04;-2358.824;0.08215918;-0.103641;0;
-5068.456;-3160.918;-2430.833;-10264.22;20.46039;0.6505368;-6083.67;-2327.781;-0.1128254;0.1563325;0;
16266.24;12638.07;-1857.662;16845.42;19.23438;-1.225517;17030.92;9453.418;-0.3076141;0.1561754;0;
21467.93;16783.62;-1108.53;26789.6;8.766204;5.674713;22923.18;13855.25;-0.04743559;0.02608383;0;
16854.2;12757.67;-163.2346;21889.89;2.661827;6.137891;18034.22;9971.476;-0.1123553;-0.1038771;0;
16604.43;12074.48;1409.264;21985.81;7.414575;9.145834;17962.05;9126.735;-0.2421771;0.2860314;0;
14563.84;10878.46;2184.083;18429.46;4.862505;12.48579;15391.47;8142.117;-0.1769664;0.285744;0;
-12557.07;-10806.2;1571.336;-12760.72;-0.2999446;-1.793754;-13507.29;-9306.657;0.08308081;-0.2342819;0;
-33666.01;-27976.99;705.332;-37406.7;-3.24738;-4.471269;-35322.39;-23541.49;-0.04693736;-0.1041118;0;
-17401.06;-12136.55;-235.9508;-23102.01;-1.837598;0.2219072;-18886.72;-9618.071;-0.4366942;0.1558622;0;
-10800.12;-5428.904;-1699.447;-16934.27;-2.371615;-0.7160769;-12533.45;-2178.704;-0.3712881;-0.2340985;0;
-4704.279;-2991.437;-2500.867;-9897.66;-7.393074;0.8252501;-5657.341;-2159.04;-0.3059477;-0.3637979;0;
16377.52;12621.14;-1935.246;16963.62;-8.457372;0.7574379;17190.99;9445.11;0.01919643;-0.103563;0;
21246.22;16587.65;-1214.757;26581.45;-8.515247;3.636943;22706.96;13670.98;0.2790465;-0.1684263;0;
16663.57;12569.57;-305.8828;21720.7;-8.30562;4.035064;17857.48;9796.914;0.08386409;-0.1032897;0;
16518.57;11990.77;1240.116;21913.55;-12.04832;6.107481;17893.85;9054.095;-0.2410569;0.02674873;0;
14441.69;10761.1;2013.106;18277.17;-14.51446;7.240054;15275.93;8042.142;-0.04591264;0.2216239;0;
-12499.85;-10764.44;1414.789;-12737.19;-2.108642;1.27142;-13413.79;-9192.39;0.2789702;0.3513359;0;
-33171.27;-27476.63;548.5992;-36880.59;0.4390719;0.6003129;-34769.51;-23015.28;0.08378787;0.02614614;0;
-17227.65;-11967.05;-408.846;-22840.34;-2.642828;-4.088974;-18653.21;-9446.446;-0.04623101;-0.1038148;0;
-11306.2;-5919.715;-1872.231;-17353.07;0.6423571;-5.960326;-12957.34;-2585.492;0.1487175;-0.2986125;0;
-5010.326;-3221.121;-2645.507;-10082.3;-11.28101;-5.686405;-5893.132;-2336.002;0.3434701;-0.6231492;0;
16452.19;12744.08;-2047.163;17166.06;-13.01196;-8.025033;17293.48;9578.764;0.1482229;-0.2976863;0;
21330.45;16666.36;-1301.933;26697.72;-5.965311;3.637817;22807.96;13767.47;-0.2417301;-0.2973872;0;
16718.91;12629.08;-362.534;21778.77;-5.356104;7.3181;17932.25;9872.864;-0.1115525;-0.4270231;0;
16598.7;12076.45;1216.334;22019.26;4.628636;0.4786102;17989.99;9157.907;0.2133963;-0.03678996;0;
14487.39;10798.18;2001.576;18399.64;10.11732;1.750805;15335.32;8090.394;0.4730512;0.02821435;0;
-12429.16;-10695.09;1409.564;-12572.68;8.09742;0.2084384;-13304.56;-9100.786;0.2776739;-0.4265854;0;
-33063.06;-27357.43;563.3224;-36702;10.23274;-0.863498;-34574.37;-22835.34;-0.2423438;-0.3611894;0;
-17221.71;-11924.06;-386.5165;-22728.18;20.53758;2.419533;-18554.66;-9273.468;-0.3070677;0.09394491;0;
-10942.85;-5567.86;-1857.482;-16901.76;24.20064;1.345375;-12516.69;-2195.141;-0.1118571;0.2237852;0;
-4394.015;-2738.466;-2632.647;-9396.225;17.94703;3.286529;-5190.004;-1955.476;0.213092;0.158593;0;
16602.29;12801.66;-2040.08;17379.96;16.05397;3.082277;17498.37;9612.55;0.1479105;0.0934663;0;
21285.55;16640.3;-1302.743;26665.2;18.11394;-0.8728127;22775.6;13782.79;0.08279458;0.1583397;0;
16847.81;12759.55;-356.3155;21920.61;16.68922;-1.072885;18078.69;10014.78;0.01774404;0.09321329;0;
16680.99;12151.52;1207.757;22111.38;8.232357;-9.71236;18086.83;9246.084;-0.5020125;-0.2317171;0;
14511.17;10851.17;1953.855;18438.47;5.813188;-12.51582;15403.41;8181.167;-0.04673671;0.0283851;0;
-12291.73;-10527.07;1345.899;-12356.62;-2.431676;-9.489077;-13073.03;-8899.861;0.7329183;0.3531933;0;
-32985.71;-27246.91;464.3957;-36526.85;-7.117306;-10.55121;-34430.23;-22579.76;0.5372799;0.02800169;0;
-17898.91;-12618.39;-552.1227;-23268.01;1.396312;-4.445343;-19169.63;-9647.823;0.08196864;-0.1669285;0;
-12720.08;-7313.757;-2043.943;-18526.89;0.9927675;-2.163456;-14200.12;-3629.899;0.08188628;-0.1017934;0;
-5815.265;-3931.683;-2778.566;-10837.05;5.077607;-1.15666;-6581.521;-2915.109;-0.113098;0.02824357;0;
16475.74;12819.22;-2128.302;17152.97;6.680095;1.389853;17348.74;9710.912;-0.5677558;-0.03675215;0;
21386.86;16714.11;-1364.047;26779.86;5.802727;-0.688014;22885;13832.83;-0.1773812;-0.1666499;0;
16756.72;12668.09;-422.7737;21844.09;7.069694;-0.6203398;17998.36;9940.925;-0.04726833;0.02841957;0;
16795.15;12275.62;1166.649;22210.73;0.3638091;1.724686;18201.38;9381.353;-0.1121882;-0.166511;0;
14889.4;11182.58;1945.194;18962.78;-0.9083781;1.65597;15829.22;8503.035;0.2777286;-0.231311;0;
-12275.64;-10604.04;1311.214;-12113.63;-6.132378;0.7165453;-12975.18;-8978.726;0.08254752;-0.1011439;0;
-33359.21;-27649.09;427.1994;-36881.05;-9.609817;0.6488424;-34780.78;-22969.87;0.01749723;-0.1660096;0;
-18083.62;-12836.15;-545.4599;-23510.18;-3.772036;-3.035749;-19347.96;-9864.662;0.277349;0.2239612;0;
-13302.67;-7845.676;-2032.399;-19047.93;-3.768245;-3.702528;-14741.44;-4114.526;0.1471356;0.2887035;0;
-6683.345;-4501.61;-2788.709;-11808.77;-2.357939;-4.703551;-7477.646;-3386.256;0.1469878;-0.166358;0;
16133.67;12647.69;-2151.273;16580.11;-0.1457436;-5.569542;16947.72;9572.135;0.01690543;-0.03625613;0;
21313.8;16601.78;-1367.395;26670.16;-4.297807;-0.6743751;22818.15;13710.28;-0.1780136;0.093715;0;
16771.02;12694.58;-381.9534;21872.42;-4.96405;0.3310465;18024.54;9973.137;-0.04790003;-0.03631387;0;
16886.11;12370.8;1208.428;22277.78;4.016895;3.478912;18291.84;9479.983;0.01711544;-0.1012447;0;
14808.32;11101.34;1960.226;18898.41;6.893247;5.752714;15765.81;8415.77;0.08206558;-0.2310777;0;
-12169.75;-10452.53;1335.069;-12029.72;-1.084282;2.933772;-12851.47;-8779.22;0.01701578;-0.2308455;0;
-32727.56;-27030.45;479.1263;-36267.32;-2.62441;3.131773;-34123.48;-22406.79;-0.112936;0.2241579;0;
-17453.21;-12178.04;-481.0602;-22889.3;1.598761;3.463541;-18696.21;-9445.158;-0.04785518;0.09399796;0;
-12494.11;-7110.409;-1969.328;-18286.68;0.6591499;3.058163;-13922.02;-3552.172;-0.1777418;-0.3608679;0;
-5541.827;-3754.432;-2733.683;-10465.85;1.060629;0.7106877;-6252.736;-2749.786;-0.1125958;-0.2305706;0;
16676.09;12968.53;-2115.168;17453.07;1.460729;-1.433358;17582.57;9845.476;-0.1124827;0.3543672;0;
21393.56;16730.91;-1345.178;26792.58;-6.242922;0.3095163;22898.42;13865.39;-0.04740234;0.4189784;0;
16871.6;12788.92;-367.7862;21959.79;-8.380103;-1.030453;18120.87;10065;0.08257998;0.4185574;0;
16758.39;12239.93;1201.966;22196.9;-6.697719;-1.431194;18176.42;9357.875;-0.307307;0.3531695;0;
14587.58;10892.79;1945.947;18586.47;-7.561646;-0.7600482;15508.16;8215.947;-0.1770636;-0.1669241;0;
-11988.81;-10251.08;1320.461;-11959.39;-5.410594;-10.94038;-12717.34;-8533.08;0.3428531;-0.03682168;0;
-32192.13;-26509.62;430.6276;-35696.65;-4.735572;-13.94356;-33573.86;-21923.66;0.2125739;0.2230847;0;
-16657.15;-11352.52;-572.551;-22057.56;-3.189596;-7.901211;-17882.05;-8832.03;0.1473929;0.09292586;0;
-10930.05;-5583.824;-2075.517;-16781.6;-1.779871;-7.960255;-12368.86;-2261.329;0.0822775;0.3527018;0;
-4099.499;-2636.582;-2829.052;-8920.867;0.7665365;-3.799436;-4782.174;-1847.389;-0.2426419;0.2224128;0;
17012.18;13127.55;-2184.344;17967.66;4.182018;-0.7815085;17950.25;9938.763;-0.3073654;-0.2975495;0;
21450.01;16833.65;-1409.069;26865.14;-4.730793;-5.670294;22954.02;14008.33;0.01778014;-0.4271851;0;
16984.98;12888.39;-456.8343;22069.09;-7.338007;-5.999511;18238.38;10162.06;-0.04720507;-0.1019192;0;
16785.05;12265.91;1090.925;22237.56;9.281134;2.245234;18206.86;9396.963;0.1477444;0.3529546;0;
14535.31;10851.02;1820.961;18547.06;13.2903;4.252345;15461.89;8178.988;0.08262859;0.1576979;0;
-12088.78;-10330.47;1192.119;-12065.4;4.837824;-0.3736286;-12797.27;-8597.474;-0.3072585;-0.1672972;0;
-32107.86;-26408.6;296.3238;-35637.41;5.100407;-1.310892;-33457.66;-21839.08;-0.2419824;0.09274023;0;
-16552.13;-11228.79;-717.2303;-21928.05;6.903943;0.632808;-17757.79;-8803.069;-0.3716739;-0.102255;0;
-10767.34;-5438.945;-2201.982;-16573.31;6.897006;1.101053;-12184.11;-2168.289;-0.6961372;-0.1671196;0;
-3738.017;-2431.208;-2936.524;-8414.687;5.215136;-6.937822;-4336.387;-1657.522;-0.6954377;0.4827218;0;
17236.98;13257.57;-2306.763;18345.73;3.602306;-9.275193;18242.75;10056.9;-0.3049349;0.352302;0;
21453.09;16864.69;-1559.663;26871.17;6.076932;-4.778139;22956.32;14048.66;0.2800776;-0.232758;0;
16940.76;12843.73;-618.9903;22024.13;4.731656;-4.572389;18197.34;10119.62;0.3447635;-0.1025895;0;
16741.82;12225.36;934.2888;22212.19;2.91824;-4.031931;18167.73;9356.639;0.1495151;-0.1024864;0;
14484.75;10813.59;1656.518;18486.1;0.8392031;-3.759948;15424.95;8159.6;0.2143322;-0.03741608;0;
-12134.47;-10376.24;1015.065;-12084.74;-2.109377;2.205189;-12811.59;-8600.163;0.3440515;0.2224909;0;
-32011.23;-26306.48;143.8579;-35521.09;-3.513777;4.815186;-33355.29;-21694.54;0.01886908;0.352202;0;
-16337.46;-11067.76;-826.0336;-21710.2;-13.08844;1.796237;-17528.65;-8618.761;-0.1110846;0.4817828;0;
-11039.56;-5665.255;-2311.019;-16806.43;-16.0894;3.268057;-12440.68;-2300.319;0.2788311;0.8061354;0;
-4437.308;-2865.061;-3069.393;-9147.839;-17.27868;-0.553254;-5078.394;-1947.902;0.2785509;0.4155214;0;
16987.38;13148.96;-2438.234;17998.82;-19.67319;-1.892235;17950.54;9986.713;0.1483364;-0.2345696;0;
21514.73;16891.7;-1678.961;26920.09;-11.68185;3.401196;23022.42;14063.55;0.3430893;-0.2343339;0;
16968.79;12877.61;-713.3524;22048.36;-10.06349;4.000503;18228.67;10168.72;0.2128099;-0.03919641;0;
16915.76;12404.28;865.9928;22357.11;-7.374064;4.733295;18338.83;9531.885;0.08266141;0.4805817;0;
14635;10943.15;1596.052;18681.21;-4.954781;5.934232;15611.47;8298.828;0.4074151;0.4151315;0;
-12088.84;-10355.81;967.373;-11993.68;-6.088879;4.11973;-12713.61;-8581.029;0.3420383;-0.1050244;0;
-32012.82;-26323.42;104.7872;-35533.31;-5.412199;3.981625;-33343.8;-21696.06;0.01685795;0.08998319;0;
-16662.08;-11378.65;-875.4349;-22014.63;-5.005595;4.044607;-17857.12;-8782.022;-0.04812633;0.08989277;0;
-11467.88;-6125.597;-2354.546;-17216.89;-3.259254;2.433075;-12866.53;-2651.978;0.08185671;-0.2350343;0;
-4417.366;-2955.626;-3085.983;-9128.402;-11.22658;7.655177;-5059.334;-2052.316;0.1467418;-0.1698308;0;
17102.88;13196.4;-2443.438;18159.42;-10.81316;8.652228;18070.66;10031.84;-0.1782424;0.2201439;0;
21449.47;16842.6;-1668.433;26867.6;-12.94575;0.8736368;22957.55;14018.74;-0.3729653;0.3498574;0;
16875.87;12786.88;-692.528;21957.38;-15.27726;0.1359468;18133.86;10079.35;0.01721353;0.2195712;0;
16646.78;12125.26;859.966;22119.74;7.913937;-5.490573;18073.24;9247.49;0.6668696;0.3492852;0;
14328.57;10679.12;1594.717;18293.59;13.86686;-8.633193;15271.81;8055.449;0.3413629;0.283967;0;
-12448.89;-10661.18;990.0579;-12433.44;14.92465;-0.11793;-13113.01;-8866.706;0.2110852;-0.1710898;0;
-32704.05;-26965.35;117.6886;-36196.4;20.67043;0.9539155;-34031.17;-22259.83;0.4707424;-0.4957546;0;
-17233.94;-11944.04;-852.5202;-22583.23;9.531224;1.622786;-18414.9;-9094.253;0.2104001;-0.4302891;0;
-11728.71;-6333.148;-2314.663;-17484.87;7.177123;3.76461;-13117.74;-2711.24;0.2101887;0.02491464;0;
-4809.082;-3085.43;-3047.951;-9614.202;13.06441;2.086254;-5469.757;-2194.837;0.1450101;0.3497263;0;
16789.66;13044.46;-2393.654;17713.46;12.64914;2.553038;17732.17;9889.529;-0.1150049;0.2194402;0;
21355.33;16715.42;-1622.775;26772.01;5.602857;4.693804;22866.22;13891.11;-0.1148894;0.08928507;0;
16699.89;12618.88;-651.6009;21798.9;4.660198;4.622105;17956.76;9912.33;0.01516073;0.1541627;0;
16666.04;12144.33;936.3185;22120.28;-1.306332;6.693932;18092.78;9268.782;0.2750149;0.1540078;0;
14328.99;10698.65;1663.683;18238.93;-5.189785;7.758933;15258.03;8090.713;-0.1150655;-0.041049;0;
-13097.52;-11271.17;1020.693;-13125.97;9.819606;1.521845;-13785.88;-9464.378;-0.5697213;-0.2359098;0;
-33204.88;-27456.35;165.0818;-36707.42;11.4837;0.3146236;-34532.48;-22717.84;-0.0494101;-0.04077071;0;
-17725.08;-12446.38;-799.4274;-23051.52;15.75907;0.9841368;-18888.58;-9468.616;-0.1792951;0.3490743;0;
-13272.91;-7851.383;-2269.775;-18966.8;20.76708;0.04538685;-14634.72;-4062.081;-0.568919;0.2837562;0;
-5999.874;-4114.649;-2976.404;-10905.46;6.076828;1.318017;-6670.335;-3071.964;-0.1785433;0.2185038;0;
16728.7;13066.38;-2307.935;17506.27;4.463131;0.1109998;17643.84;9966.29;0.0165381;0.4131863;0;
21269.85;16603.5;-1536.269;26686.07;3.722688;6.876042;22781.72;13758.27;0.2114235;0.08793436;0;
16494.95;12431.78;-573.2082;21604.39;-0.434238;9.012465;17755.33;9727.777;0.08127638;-0.3019581;0;
16488.41;11948.73;990.1916;21941.55;11.89106;0.4298381;17913.98;9074.655;-0.3086093;-0.04178528;0;
13867.95;10349.33;1720.938;17717.55;14.49108;-0.5753378;14771.38;7737.095;0.01653747;0.02322404;0;
-13615.71;-11576.71;1098.349;-13751.01;3.223385;-1.981279;-14328.91;-9710.351;0.08148819;-0.1717013;0;
-33266.88;-27481.59;256.7149;-36791.27;1.546183;-3.318947;-34575.83;-22776.88;0.3412757;-0.3664308;0;
-16984.51;-11694.65;-678.8385;-22324.73;5.965259;-2.913715;-18142.66;-8982.307;0.5358348;-0.2361279;0;
-12064.08;-6611.102;-2145.887;-17750.32;5.891916;-3.245702;-13426.09;-3003.501;0.275427;0.08894604;0;
-5371.562;-3530.989;-2882.032;-10109.91;4.613198;-1.835799;-5993.34;-2498.189;0.3401176;-0.1710127;0;
16746.85;13075.31;-2229.635;17680.18;4.74326;-1.699988;17701.37;9955.484;0.2748085;-0.3007756;0;
21403.31;16743.71;-1476.334;26810.28;1.455964;2.722471;22911.27;13900.12;0.209565;-0.04060397;0;
16632.16;12558.79;-527.4519;21728.15;-0.3541597;4.260221;17888.03;9863.455;0.07941978;0.02440417;0;
16459.71;11933.68;1038.791;21921.12;4.335246;3.385285;17886.73;9047.355;-0.0505947;-0.0405877;0;
13993.13;10400.9;1784.138;17769.15;4.598333;4.118573;14882.93;7800.855;0.01442348;-0.04054691;0;
-13322.12;-11407.83;1182.709;-13518.39;3.521986;0.3635127;-14060.19;-9565.258;0.209311;-0.2354082;0;
-33261.53;-27505.41;331.0106;-36776.24;4.924966;-1.043494;-34587.09;-22788.07;0.2091007;-0.1702043;0;
-17388.37;-12112.7;-627.9651;-22735.84;-3.116958;-1.377238;-18564.97;-9205.351;0.1439232;0.2197708;0;
-12361.9;-6949.183;-2096.08;-18101.92;-5.72677;-2.916462;-13760.3;-3258.398;0.2737133;0.3494846;0;
-5314.155;-3499.759;-2834.133;-10143.43;0.7093453;-3.650344;-5975.02;-2571.39;-0.1163658;0.08926409;0;
16758.64;13057.53;-2188.968;17635.18;-0.5641652;-4.584437;17696.35;9916.387;-0.6359876;-0.4305643;0;
21217.89;16561.21;-1432.882;26634.9;3.254795;-4.713796;22725.29;13735.48;-0.2455445;-0.5600664;0;
16465.89;12396.82;-465.6461;21564.45;3.720039;-4.642077;17723.33;9697.767;0.469343;-0.1047322;0;
16488.67;11950.68;1123.82;21946.1;-0.5706066;-7.249686;17915.77;9060.618;0.2739694;-0.2345617;0;
13879.78;10336.63;1860.242;17690.24;-0.3016135;-8.448033;14774.36;7774.375;0.07879207;-0.1693587;0;
-14098.86;-12128.22;1236.451;-14234.33;-10.95123;-3.817844;-14813.54;-10246.46;0.01374556;0.1556482;0;
-34069.71;-28274.39;394.4749;-37598.79;-13.68689;-3.680042;-35405.07;-23446.62;-0.3760723;-0.1693449;0;
-18203.72;-12958.4;-554.5853;-23538.56;-12.46769;-2.872549;-19379.31;-9783.649;-0.3107271;-0.4290441;0;
-14098.48;-8611.546;-2025.726;-19745.83;-14.06275;-1.797936;-15441.42;-4675.334;0.01442184;-0.3636456;0;
-6948.604;-4699.855;-2744.313;-11951.18;-4.335733;-8.829215;-7646.828;-3560.148;0.07937469;-0.2333456;0;
16378.27;12946.22;-2071.251;16992.78;-0.5803322;-10.62882;17248.91;9889.39;-0.05063974;0.02675826;0;
21247.17;16532.57;-1313.956;26640.97;-1.986269;-11.48892;22756.53;13665.44;-0.2454909;0.1566661;0;
16257.2;12201.33;-375.8097;21390.04;-0.3766824;-13.95568;17515.62;9518.084;0.2744945;0.2864433;0;
16250.71;11707.61;1178.162;21697.17;8.666026;-9.922807;17680.94;8808.965;0.4041534;0.1562208;0;
13498.13;10007.88;1898.35;17126.19;12.07259;-9.845853;14315.92;7464.645;-0.0510241;-0.03883817;0;
-14627.96;-12518.59;1266.212;-14964.36;9.582216;-12.38125;-15447.7;-10602.09;0.07896186;0.2860376;0;
-34460.18;-28675.15;405.1379;-37974.64;12.05083;-12.23484;-35796.97;-23828.16;0.01391517;0.3507175;0;
-18297.11;-13056.03;-563.9541;-23639.13;-0.01771364;-14.83482;-19483.26;-9754.342;-0.3759029;-0.1693736;0;
-13453.06;-8011.66;-2043.971;-19183.71;-4.304604;-15.69063;-14834.14;-4087.634;-0.1806231;-0.1042361;0;
-6011.304;-4040.227;-2773.784;-10975.62;5.345264;-13.39751;-6705.653;-3068.287;0.1443951;0.155738;0;
16562.28;12958.31;-2139.908;17306.91;4.134444;-13.04913;17442.7;9865.344;-0.2455541;0.09061417;0;
21062.2;16378.17;-1415.668;26485.44;8.618268;-13.103;22567.87;13525.26;-0.3102747;-0.3642483;0;
16246.1;12182.05;-465.5657;21354.17;11.28893;-12.62096;17496;9486.035;0.07984114;-0.4288496;0;
16224.48;11672.09;1090.698;21666.43;0.2255211;-12.07247;17645.47;8763.284;0.1447283;0.2212547;0;
13291.55;9823.971;1783.925;16819.25;-1.918159;-11.52448;14113.23;7290.121;0.01464815;0.3509671;0;
-14788.38;-12667.4;1148.701;-15266.11;2.303327;-9.168558;-15606.83;-10747.03;0.01463343;0.2206797;0;
-34351.3;-28553.58;291.1648;-37959.04;1.229285;-7.082936;-35706.52;-23695.31;-0.05034861;0.1554907;0;
-18368.99;-13144.84;-698.0214;-23776.98;3.773646;-10.89372;-19564.18;-9727.997;0.07963666;-0.2344696;0;
-13866.42;-8409.477;-2191.631;-19627.3;5.109025;-10.74881;-15255.9;-4386.309;0.4693607;-0.1692667;0;
-6344.943;-4252.487;-2913.737;-11363.41;-1.928707;-5.379499;-7065.036;-3253.734;0.1440524;-0.1041293;0;
16531.47;13000.76;-2248.392;17168.16;-3.333288;-3.364667;17392.52;9921.68;-0.5057658;0.02591003;0;
21223.44;16522.88;-1492.59;26626.53;0.2864071;-2.691457;22729.01;13656.44;-0.1804209;0.1558187;0;
16312.95;12250.2;-540.4118;21418.04;-0.383466;-1.617025;17559.06;9548.742;0.1445971;-0.1691746;0;
16254.56;11708.05;1021.753;21689.95;4.70811;4.078027;17670.82;8800.425;-0.1154176;-0.03906992;0;
13663.01;10159.34;1735.991;17442.86;7.247999;6.485192;14531.6;7602.18;-0.2452363;0.09090403;0;
-14324.74;-12271.86;1107.921;-14546.71;-0.2613724;2.995686;-15098.54;-10408.16;-0.1150552;-0.1040893;0;
-34244.12;-28457.03;246.5216;-37848.36;-0.5285534;2.992676;-35615.08;-23606.95;0.1449298;-0.03901742;0;
-18503.14;-13283.46;-745.0247;-23908.52;1.681804;3.793464;-19719.45;-9771.409;0.0148495;0.09095649;0;
-14322.32;-8855.844;-2235.573;-20038.82;1.881185;3.722669;-15725.37;-4755.138;0.07980192;0.1558324;0;
-6879.557;-4633.828;-2941.627;-11842.63;6.835788;2.446253;-7602.282;-3616.977;0.1446891;0.09070851;0;
16450.52;13019.22;-2256.593;17168.2;9.709308;2.845692;17328.38;9943.343;0.01460901;0.09061737;0;
21262.13;16541.27;-1487.867;26659.89;5.948507;-2.247748;22763.97;13667.49;0.01459433;-0.03940839;0;
16357.16;12302.02;-507.5198;21464.69;5.272945;-5.25966;17602.23;9596.906;-0.115355;-0.1043361;0;
16372.21;11814.76;1079.771;21810.17;15.44905;7.673026;17792.66;8897.828;0.01469557;0.02570339;0;
13224.98;9793.647;1789.469;16730.78;17.04112;10.27753;14002.58;7265.454;0.2745502;-0.2991591;0;
-14889.79;-12689.91;1178.071;-15400.34;15.21533;3.703118;-15765.33;-10734.91;0.07937228;-0.1039565;0;
-34115.89;-28323.81;345.9145;-37716.72;15.66856;3.833363;-35487.35;-23469.06;-0.1156095;0.1560173;0;
-18314.13;-13095.71;-648.4022;-23665.2;7.2137;1.351143;-19523.79;-9695.018;-0.245428;-0.03904149;0;
-14062.98;-8618.281;-2119.448;-19799.43;4.258715;-0.4587543;-15472.84;-4606.954;-0.1152467;-0.03900226;0;
-6297.496;-4262.479;-2788.684;-11317.02;0.7718111;1.551195;-7018.909;-3285.861;-0.05016358;0.02600427;0;
16616.44;13053.54;-2103.069;17296.76;-2.645216;1.482653;17489.52;9968.155;-0.1800479;0.0909455;0;
21200.42;16502.75;-1326.939;26610.13;-1.437109;-3.6764;22702.91;13635.81;0.01503508;0.02588676;0;
16375.76;12313.46;-332.8391;21479.47;-2.105251;-5.012304;17621.4;9609.59;0.1449547;-0.2340086;0;
16338.01;11778.34;1249.2;21786.45;-3.174862;-2.595943;17760.09;8863.82;0.01487432;-0.1038388;0;
13315.93;9890.697;1952.044;16948.39;-3.439116;-2.660318;14103.82;7360.353;0.2097614;-0.2336691;0;
-15042.4;-12851.8;1313.231;-15403.29;4.333872;-0.04543219;-15897.15;-10886.8;0.07961594;-0.5582711;0;
-34481.75;-28684.75;459.8712;-38055.61;8.080562;1.294272;-35830.37;-23833.94;-0.3752354;-0.1679061;0;
-18415.52;-13201.46;-525.3928;-23791.08;3.115949;1.761852;-19600.49;-9856.098;-0.3098911;0.2870341;0;
-14244.71;-8754.846;-2007.401;-19962.72;3.715055;3.233706;-15616.9;-4778.46;-0.04971032;0.156811;0;
-6565.388;-4419.504;-2691.617;-11494.87;8.534093;2.225713;-7255.263;-3440.048;-0.2445624;-0.03824865;0;
16630.41;13117.83;-1990.029;17394.37;9.530871;2.491408;17510.25;10035.82;-0.5691534;0.09172449;0;
21296.36;16582.96;-1204.97;26693.19;9.655017;5.770947;22797.18;13711.26;-0.3087121;-0.2981718;0;
16438.38;12382.88;-210.9305;21544.52;10.24755;7.774636;17684.1;9677.319;0.01643479;-0.3628395;0;
16399.76;11844.88;1370.643;21850.83;5.951324;3.078141;17821.74;8933.214;-0.04854906;-0.1026055;0;
13254.98;9806.151;2066.212;16731.25;3.80189;2.740133;14042.75;7280.923;0.1464017;-0.4923065;0;
-14822.63;-12641.83;1443.542;-15384.27;8.553492;8.765721;-15689.3;-10621.05;0.4710914;-0.2969098;0;
-33674.98;-27902.45;594.408;-37313.42;9.616624;10.2974;-35038.11;-23126.71;0.1457813;-0.1017094;0;
-17458.46;-12217.07;-413.9484;-22844.15;1.367939;12.96637;-18673.52;-9109.543;-0.1792019;-0.1665746;0;
-13109.56;-7703.583;-1892.117;-18890.13;0.02739344;15.49857;-14535.2;-3835.661;-0.1140545;0.02849483;0;
-5501.038;-3750.591;-2583.071;-10454.06;0.830673;12.87078;-6201.981;-2817.567;0.01599478;-0.2314032;0;
16971.23;13237.95;-1913.53;17756.86;-1.514686;12.25501;17864.47;10115.94;0.2108807;-0.03626863;0;
21329.13;16669.78;-1136.512;26747.83;8.801963;18.53897;22827.86;13815.8;0.2106688;0.3535719;0;
16639.83;12570.46;-141.9319;21713.68;10.80285;19.45798;17884.47;9859.069;0.08052248;-0.1015548;0;
16778.78;12221.9;1447.677;22206.32;4.428984;14.61578;18196.91;9314.51;-0.04949311;-0.2313874;0;
13700.87;10244.5;2144.903;17521.21;4.022392;13.66345;14531.7;7702.565;0.0804913;0.02871443;0;
-14558.92;-12421.06;1485.562;-14718.58;-0.4696283;9.49678;-15369.16;-10425.04;0.2103451;-0.2311838;0;
-33494.66;-27712.56;634.2936;-37121.71;-2.746332;7.008991;-34861.57;-22996.94;0.08019907;-0.1010168;0;
-17035.84;-11811.88;-342.3844;-22463.58;-5.15447;4.858495;-18261.24;-8861.19;0.1450858;0.3538561;0;
-12668.69;-7218.255;-1828.059;-18400.06;-7.360094;1.638554;-14089.92;-3454.14;0.2099074;0.02866382;0;
-5536.239;-3574.299;-2529.509;-10433.58;-9.496152;6.124642;-6224.614;-2670.39;0.01479444;-0.1012997;0;
16787.03;13179.79;-1860.35;17628.38;-11.96486;6.118488;17695.92;10035.77;0.07974692;0.1586715;0;
21346.73;16659.92;-1091.272;26749.9;-3.713812;2.562367;22847.41;13809.33;0.5344382;0.02857737;0;
16541.61;12475.96;-103.8277;21646.61;-0.4285265;3.095656;17787;9772.615;0.3389992;-0.03641869;0;
16449.17;11897.85;1453.01;21901.15;-7.929208;-1.797087;17867.58;8974.161;-0.1810802;0.02858525;0;
13230.13;9753.266;2128.678;16762.33;-6.715792;-3.000974;14061.84;7271.854;0.01400376;0.1584912;0;
-14747.13;-12621.59;1503.68;-15230.57;-3.963354;0.2171003;-15554.89;-10513.11;-0.115945;-0.1665048;0;
-33266.59;-27521.88;663.3724;-36906.81;-2.954017;-0.4529471;-34631.01;-22742.38;-0.3756979;-0.1663374;0;
-17211.15;-11965.61;-340.6335;-22619.14;3.077171;6.781543;-18426.79;-8879.313;-0.05048364;0.1586664;0;
-12916.43;-7558.795;-1816.799;-18724.7;4.078456;9.453924;-14338.96;-3667.943;-0.05043292;0.09353964;0;
-5071.732;-3493.865;-2504.486;-10000.54;12.91562;5.224622;-5789.25;-2583.176;-0.2452843;0.158413;0;
17050.67;13233.19;-1852.14;17916.45;17.12317;6.559031;17935.19;10094.1;-0.3100052;0.3531559;0;
21198.43;16570.32;-1079.948;26637.18;6.053907;0.6580641;22697.36;13723.92;-0.179759;0.09293162;0;
16656.7;12574.56;-73.30547;21724.72;5.444612;-2.155758;17898.72;9854.475;-0.114611;-0.2319985;0;
16659.51;12111.18;1498.306;22101.3;2.090239;9.166158;18078.06;9205.316;0.1453735;0.09307136;0;
13832.78;10318.5;2191.249;17594.23;-0.591179;12.50609;14681.83;7759.18;0.3401295;0.3528472;0;
-14148.31;-12148.73;1552.945;-14373.33;2.289803;1.508571;-14931.64;-10225.21;0.014951;0.0926233;0;
-33492.43;-27681.93;683.6174;-37101.14;0.8136339;0.6362768;-34855.38;-22932.01;0.07990332;-0.1673391;0;
-17699.81;-12498.97;-313.0532;-23061.82;6.2388;6.730962;-18910.68;-9398.554;0.1447904;-0.1022037;0;
-14511.94;-8978.983;-1802.833;-20116.07;7.840121;6.657216;-15907.46;-5030.848;-0.3101265;-0.102101;0;
-7571.827;-5037.219;-2510.337;-12553.45;4.28227;13.68361;-8330.952;-3891.722;-0.2448475;-0.4268351;0;
16159.03;12892.46;-1808.604;16734.46;4.277967;15.74621;16982.76;9838.664;-0.1146668;-0.3614389;0;
21393.67;16636.99;-1006.533;26763.54;4.407391;13.11818;22896.68;13748.73;-0.179519;-0.231141;0;
16564.99;12510.93;-12.61399;21678.7;4.000821;13.50689;17811.83;9812.823;-0.04940389;-0.1659414;0;
16651.56;12108.78;1564.887;22075.41;2.522932;9.541329;18069.56;9187.008;-0.3092236;-0.1008073;0;
13599.37;10087.71;2270.084;17287.78;2.119231;8.661086;14430.94;7553.812;-0.3089129;0.02922864;0;
-14818.2;-12737.42;1659.187;-15116.17;0.3748137;4.365476;-15641.78;-10765.14;0.2111362;-0.03576807;0;
-33965.6;-28202.97;833.3876;-37569.75;0.509135;2.753621;-35339.79;-23429.79;-0.1139126;-0.3605688;0;
-17964.06;-12701.43;-138.8053;-23319.7;-3.30977;3.018786;-19169.75;-9467.443;-0.4386349;-0.1653045;0;
-14003.42;-8583.212;-1598.526;-19699.25;-5.918412;1.944026;-15386.88;-4666.214;0.2114793;0.289633;0;
-6076.166;-4185.278;-2267.02;-11135.24;6.345045;8.640244;-6802.43;-3295.181;0.1462994;0.09443995;0;
16824.96;13167.52;-1587.208;17504.58;8.14733;9.971099;17680.59;10043.11;0.08118509;-0.295459;0;
21127.87;16451.46;-806.5671;26540.36;6.798997;16.0564;22629.01;13597.76;0.6008422;-0.1652274;0;
16510.45;12449.53;217.3853;21603.71;9.13669;20.52801;17757.23;9743.654;0.4053365;0.0298406;0;
16468.61;11893.32;1780.131;21915.91;-3.062652;11.79984;17890.29;8969.42;0.1450598;0.28968;0;
12929.92;9571.953;2451.129;16372.35;-6.676897;11.65402;13683.17;7079.759;0.0149794;0.2893889;0;
-15621;-13345.21;1845.142;-16175.68;-2.6517;12.64705;-16513.76;-11276.21;-0.3748397;-0.2306406;0;
-34418.35;-28606.92;1016.469;-38016.46;-4.657791;10.69184;-35770.72;-23789.26;-0.3094957;-0.2953762;0;
-17914.13;-12722.96;44.35756;-23299.34;-5.055253;16.17358;-19111.82;-9448.018;0.01565198;0.2246593;0;
-13870.76;-8372.715;-1409.05;-19575.46;-5.920829;16.02336;-15266.97;-4407.568;0.08060359;0.3543683;0;
-6467.643;-4181.03;-2097.475;-11405.52;-5.044224;13.26108;-7192.982;-3283.468;-0.1793468;-0.1007592;0;
16414.53;13003.88;-1428.344;17167.53;-3.900079;12.30999;17277.98;9883.995;-0.4390359;-0.1006579;0;
21098.98;16369.22;-662.8549;26497.63;-9.389493;8.412737;22601.31;13512.5;0.01617661;0.2242799;0;
16301.87;12250.06;330.9838;21414.73;-10.71923;6.796693;17546.96;9544.349;0.3409971;-0.1007822;0;
16252.21;11674.45;1901.174;21699.68;-4.010653;1.431351;17674.14;8746.982;0.1457524;-0.2955829;0;
12587.93;9281.763;2592.056;15867.41;-2.733826;-1.38337;13283.18;6813.958;0.4054753;0.2244528;0;
-16371.76;-13958.04;2002.997;-17056.34;-4.003877;-0.1093044;-17324.17;-11847.39;0.5350026;0.09429262;0;
-34810.81;-29002.93;1211.912;-38420.78;-3.061848;-1.314887;-36165.08;-24161.26;0.2096283;-0.2956062;0;
-18013.88;-12804.2;263.0924;-23401.35;-3.661984;0.6959218;-19216.22;-9477.051;0.5342544;0.02952754;0;
-14019.84;-8573.516;-1185.647;-19724.87;-3.122441;0.8291884;-15418.83;-4561.338;0.1439135;-0.1004368;0;
-6206.24;-4262.048;-1869.346;-11242.81;-4.324752;4.17738;-6937.108;-3345.739;-0.3110025;-0.1653032;0;
16634.8;13022.64;-1220.183;17302.84;-4.85627;6.718534;17485.56;9902.45;0.01414671;0.1596996;0;
20967.3;16281.77;-467.7568;26378.44;-3.2438;2.0231;22466.88;13421.68;0.3389692;0.2245065;0;
16330.56;12272.57;541.6123;21441.48;-4.111197;2.690896;17578.24;9566.468;0.5335307;0.1593135;0;
16329.09;11753.56;2103.564;21777.87;-0.5570928;1.683448;17754.35;8816.993;0.0132558;0.02921876;0;
12551.34;9221.548;2766.538;15762.76;0.1130523;0.6770129;13205.84;6765.066;-0.1816595;0.1591241;0;
-16568.4;-14236.96;2157.688;-17358.61;-3.972898;8.312264;-17568.81;-12139.31;0.4032291;0.4188336;0;
-35315.43;-29499.59;1331.449;-38942.9;-4.370072;10.11233;-36674.45;-24602.65;0.3378566;0.3534454;0;
-18427.51;-13250.29;332.9253;-23840.9;-7.983003;9.097425;-19630.45;-9786.587;0.2075824;0.2231556;0;
-14261.05;-8784.772;-1147.868;-20040.86;-8.779264;10.76286;-15687.96;-4718.452;-0.05249555;0.157964;0;
-6763.639;-4461.646;-1856.296;-11831.09;-12.45414;6.666206;-7561.557;-3474.896;-0.3772795;0.1578053;0;
16208.99;12823.06;-1212.175;16883.23;-15.45573;5.453815;17015.72;9747.841;-0.05206371;-0.1022227;0;
20947.23;16215.8;-450.5893;26352.59;-3.517487;10.27098;22446.76;13324.56;-0.0520114;0.09278208;0;
16121.01;12068.84;536.4144;21223.82;-0.9683568;10.86351;17363.63;9362.559;0.1429429;0.4175256;0;
16225.98;11635.41;2093.561;21647.41;-5.053221;9.780868;17643.9;8680.38;0.467636;0.222204;0;
12333.14;9139.979;2766.712;15560.16;-3.842695;10.97673;12979.15;6710.784;0.2072967;0.5468174;0;
-17470.81;-14900.34;2139.667;-18190.08;-5.580145;7.21478;-18480.02;-12776.21;0.2720558;0.6112353;0;
-35924.5;-30106.24;1312.167;-39594.21;-5.641888;6.537702;-37304.9;-25166.5;0.1418477;0.2208171;0;
-19128.2;-13943.92;315.3332;-24558.67;-5.76994;10.28205;-20324.03;-10298.42;-0.1181642;-0.1042415;0;
-15587.5;-10054.78;-1166.583;-21257.43;-5.831491;9.668877;-16936.99;-5925.645;0.01188924;-0.4289735;0;
-7147.464;-4972.15;-1851.691;-12273.16;-7.768015;14.95069;-7894.364;-4050.442;0.01187729;-0.4935097;0;
16445.79;12950.37;-1211.791;16989.52;-9.3678;15.47153;17247.04;9874.161;0.2067674;-0.2331445;0;
20799.06;16082.29;-460.4351;26209.38;-1.655228;14.11633;22299.06;13189.32;0.4014616;-0.1679429;0;
16245.13;12190.33;556.4854;21346.32;0.2214691;14.90594;17485.28;9480.236;0.2061562;-0.1028068;0;
16446.9;11855.95;2115.408;21854.72;-1.586439;2.700433;17862.56;8901.106;0.0760144;-0.2326382;0;
12393.95;9163.164;2760.16;15575.68;1.294567;-1.18729;13071.93;6724.314;0.07593802;-0.3623391;0;
-17133.56;-14643.04;2123.221;-17935.82;-7.480643;0.2875275;-18107.43;-12509.11;0.3357311;-0.2320404;0;
-35603.07;-29768.41;1292.192;-39266.13;-9.281788;-1.722127;-36963.63;-24842.8;0.1404917;-0.3617419;0;
-18760.33;-13598.54;299.0016;-24218;0.9089441;-1.921346;-19963.46;-9985.965;-0.3144208;-0.0365417;0;
-15064.35;-9541.594;-1187.318;-20809.1;1.443894;-2.857176;-16457.76;-5409.882;-0.05423554;0.2883317;0;
-7194.643;-4785.22;-1876.028;-12283;10.2837;2.370241;-7951.948;-3859.317;-0.1841157;0.2230747;0;
16254.38;12918.36;-1206.119;16825.72;15.43093;3.975328;17073.84;9842.504;-0.6387021;0.1578832;0;
20958.29;16206.49;-433.5605;26361.86;0.07645859;3.234643;22458.99;13312.77;-0.3132236;-0.2320795;0;
16218.19;12172.21;588.3461;21334.71;-4.276899;3.901101;17463;9461.698;0.01192779;0.02802305;0;
16425.55;11838.25;2168.788;21845.05;11.06539;3.361439;17845.39;8891.021;-0.1829862;0.3528316;0;
12489.63;9278.447;2822.061;15814.82;13.06401;2.755215;13164.96;6825.433;-0.05286767;-0.03732698;0;
-17229.4;-14682.38;2178.641;-17879.26;-2.689256;1.814686;-18203.63;-12530.73;0.2070548;0.2875473;0;
-35559.61;-29750.64;1360.065;-39214.52;-6.036433;1.410965;-36916.21;-24866.88;-0.1179899;0.222291;0;
-18345.99;-13165.1;380.7216;-23787.83;-5.560877;-5.623478;-19550.57;-9685.502;0.0120633;-0.4276058;0;
-14257.3;-8766.983;-1093.17;-19996.46;-7.766092;-8.163117;-15650.3;-4707.627;0.4018552;-0.0373721;0;
-6241.326;-4148.57;-1765.109;-11322.61;-7.824661;-6.480403;-6980.381;-3292.402;0.3364841;0.2875022;0;
16631.17;13091.25;-1098.653;17265.05;-9.089597;-7.880533;17458.4;9975.223;0.2711787;0.02734391;0;
20925.65;16212.92;-323.5323;26348.66;-3.856527;-3.384819;22424.54;13336.83;0.01103681;-0.1026182;0;
16372.12;12319.3;726.437;21484.34;-2.110364;-1.639984;17617.27;9601.287;0.07599306;-0.3623845;0;
16660.03;12073.24;2322.467;22087.28;-3.314668;-2.575975;18080.42;9124.906;0.5306881;-0.2320857;0;
12648.74;9379.507;2973.04;15965.79;-1.837469;-0.430055;13353;6915.14;0.07538347;0.09298423;0;
-17013.66;-14576.6;2321.441;-17665.09;-2.438835;-2.104074;-17959.45;-12449.75;-0.249529;0.02792344;0;
-35298.41;-29467.38;1476.016;-38937.1;-1.43103;-1.767045;-36656.19;-24631.53;-0.1193436;0.4176995;0;
-18038.09;-12859.98;475.6759;-23482.52;-0.2914927;3.928035;-19248.96;-9449.042;0.01071103;0.2873451;0;
-13886.21;-8393.236;-1000.779;-19620.34;1.785881;5.598662;-15303.44;-4392.507;0.2705696;-0.2976498;0;
-6270.08;-3973.411;-1679.307;-11343.89;-2.972311;7.334592;-7047.219;-3188.056;-0.05453895;0.4822574;0;
16409.67;13010.41;-997.0084;17000.24;-4.844359;9.403571;17225.32;9868.071;-0.1194515;0.6117076;0;
20968.88;16228.26;-211.6821;26379.09;9.294029;7.049842;22464.31;13364.1;0.3354399;-0.2334826;0;
16344.58;12288.31;814.8273;21464.81;11.96303;7.31069;17589.68;9563.681;0.4650376;-0.03834593;0;
16651.01;12064.92;2410.565;22079.48;10.87928;8.040156;18070.95;9121.164;0.3346356;-0.1032747;0;
12685.85;9437.436;3065.125;16095.39;13.4813;7.496214;13334.76;6978.915;-0.05550469;-0.2331056;0;
-17123.32;-14638.59;2405.469;-17698.64;4.22435;9.565031;-18118.8;-12500.37;-0.445253;0.0919653;0;
-35085.52;-29277.77;1576.968;-38774.63;2.277723;9.287488;-36453.28;-24477.74;-0.5097729;0.02690553;0;
-18039.22;-12847.69;569.4981;-23486.36;1.002637;8.67531;-19229.71;-9568.688;-0.379326;0.4166826;0;
-14865.4;-9324.665;-942.1115;-20538.51;-3.017835;8.264817;-16227.98;-5301.275;-0.2490102;0.4162639;0;
-6912.78;-4735.879;-1613.077;-12051.96;3.349186;7.05082;-7733.109;-3764.952;-0.1188253;0.02604155;0;
16529;13027.94;-909.9651;17014.36;1.871952;7.244684;17250.92;9942.614;0.01122879;-0.1039193;0;
21007.3;16286.12;-107.8598;26428.8;-0.2733825;1.209063;22516.8;13395.56;0.07618485;0.0261198;0;
16510.83;12448.71;951.0601;21608.02;-1.211113;-0.6006913;17761.42;9729.26;0.1410756;-0.03887378;0;
17018.18;12442.28;2559.046;22414.53;-7.773979;2.012247;18428.52;9505.419;0.07596654;-0.5585734;0;
13299.35;9916.274;3207.834;16950.37;-8.704173;0.5366002;14095.27;7423.394;-0.1190118;-0.6229795;0;
-16298.86;-14024.52;2535.979;-16642.55;-19.94758;6.229488;-17165.34;-11905.96;-0.1838596;-0.1026148;0;
-34404.02;-28598.8;1702.13;-38098.14;-24.21445;6.558144;-35782.04;-23890.3;-0.1187075;0.1573576;0;
-17340.04;-12137.81;717.4915;-22794.45;-16.08579;8.092161;-18559.48;-9113.441;-0.2485229;0.4820362;0;
-14145.03;-8648.843;-775.0734;-19841.81;-16.2707;10.62926;-15545.69;-4776.959;0.01159619;0.4815519;0;
-6492.996;-4279.282;-1453.563;-11529.46;-8.551192;-4.58618;-7238.725;-3358.854;-0.1183501;0.3511333;0;
16711.37;13241.71;-765.3378;17373.01;-4.323041;-7.997641;17549.09;10109.44;-0.63797;0.2858132;0;
21195.78;16463.55;34.15474;26610.41;-5.524146;-6.181066;22693.64;13585.53;-0.1825575;0.09062397;0;
16648.76;12590.15;1094.338;21734.64;-2.169693;-9.791872;17891.06;9869.817;-0.05243941;-0.1043691;0;
17057.1;12477.66;2703.179;22470.5;-5.650137;0.9349921;18476.25;9532.564;-0.1823214;-0.2991663;0;
13283.58;9926.644;3347.075;16929.13;-6.716187;3.814197;14049.71;7453.199;0.2076658;-0.2338983;0;
-16259.83;-13929.58;2655.214;-16597.78;1.663306;-3.959412;-17155.67;-11774.38;0.2724245;-0.2336633;0;
-34225.36;-28442.12;1802.833;-37924.75;2.733362;-3.620519;-35608.21;-23721.01;0.01228142;-0.1684612;0;
-16972.15;-11764.41;804.1004;-22443.09;-2.024807;-1.607515;-18200.88;-8721.745;-0.1176656;0.09157747;0;
-13383.58;-7943.914;-690.6754;-19117.55;-2.424914;-1.070036;-14811.55;-4080.951;0.01238731;-0.03844925;0;
-5740.564;-3814.753;-1358.817;-10738.27;-7.37897;-1.135944;-6470.822;-2985.664;-0.1175598;-0.2333126;0;
16884.07;13251.75;-683.1969;17650.88;-9.313939;-1.402734;17751.9;10084.8;-0.2473764;0.5465299;0;
21024.44;16326.82;95.80151;26455.46;-8.433924;1.478941;22519.55;13462.84;-0.05222579;0.9357848;0;
16530.76;12466.74;1156.984;21624.55;-9.162384;2.080302;17772.46;9741.97;-0.4419774;0.4151058;0;
16966.61;12376.8;2744.086;22382.26;-5.603204;0.8055356;18382.09;9428.49;-0.3765659;0.284754;0;
12916.22;9616.573;3359.768;16374.97;-3.387747;1.005675;13655.03;7158.262;-0.1163182;0.4793699;0;
-16512.7;-14089.18;2690.508;-17046.87;-5.192028;-0.7368918;-17420.28;-11911.16;-0.5060053;0.3489535;0;
-34156.32;-28363.81;1844.588;-37845.48;-4.517226;-0.8031343;-35508.17;-23606.86;-0.4405296;0.0237662;0;
-17093.68;-11876.96;816.8436;-22545.29;4.061128;-3.347557;-18303.64;-8730.085;-0.2451849;-0.1061924;0;
-12961.44;-7577.1;-670.7924;-18764.89;7.071157;-4.817818;-14391.55;-3731.743;-0.1150039;-0.171053;0;
-4811.58;-3141.353;-1326.023;-9738.28;5.121669;0.3445871;-5494.694;-2467.673;-0.244823;-0.4307505;0;
17118.45;13353.55;-666.2404;18040.11;5.786108;1.01407;18039.5;10156.31;-0.1146423;0.2193558;0;
20945.63;16284.44;91.86088;26392.56;6.583602;0.6781366;22439.86;13442.58;0.3402443;0.8688087;0;
16463.3;12393.62;1123.953;21551.74;6.443264;1.414267;17704.97;9660.705;0.2099677;0.153295;0;
16745.84;12150.5;2697.095;22181.32;-0.5294345;-0.7306075;18167.5;9210.735;-0.05011262;-0.5614998;0;
12695.18;9453.208;3328.019;16155.83;-5.016881;-1.399703;13409.85;7002.273;0.3397418;-0.3660336;0;
-17028.47;-14529.47;2663.867;-17532.18;0.8826581;-0.7954498;-17963.08;-12315.54;0.4043677;-0.2357311;0;
-34686.6;-28875.06;1840.728;-38383.23;0.2121858;-1.330514;-36046.99;-24147.62;0.01415739;-0.1705269;0;
-16849.85;-11641.59;870.9426;-22347.91;-9.232499;-2.534748;-18069.35;-8624.536;-0.2457262;-0.3002902;0;
-12467.21;-7062.233;-606.0499;-18259.83;-10.96453;-2.867115;-13918.06;-3243.57;-0.180512;-0.5598578;0;
-4824.579;-3099.313;-1296.219;-9689.964;-16.31215;-3.199149;-5532.545;-2359.176;0.2094735;-0.1694912;0;
17017.53;13289.35;-645.2116;17984.13;-19.17615;-2.124208;17925.79;10102.06;0.2742303;0.02558108;0;
21013.21;16343.17;126.2992;26450.72;-11.78851;-4.667425;22506.71;13493.43;-0.05088191;-0.2992813;0;
16493.76;12419.57;1179.237;21579.26;-10.70494;-4.059889;17734.52;9693.151;-0.1157981;-0.363948;0;
16819.2;12228.68;2777.826;22254.39;-8.41701;1.90555;18243.04;9283.862;-0.1806491;-0.2986149;0;
12837.2;9562.76;3427.738;16176.96;-6.46617;3.979984;13549.75;7093.083;-0.05053292;-0.0384455;0;
-17005.03;-14554.81;2770.513;-17618.61;-1.904345;11.14304;-17941;-12416.05;0.3393219;0.02656047;0;
-34834.11;-29021.95;1926.199;-38535.62;2.048707;15.08371;-36192.6;-24300.07;0.4039483;-0.2983029;0;
-17457.17;-12242.62;916.2389;-22928.47;-6.660888;15.40347;-18669.55;-9055.612;0.2736077;-0.4279379;0;
-13438.97;-8003.939;-579.8677;-19190.77;-8.060715;17.7324;-14851.48;-4143.025;-0.2464059;-0.2975732;0;
-5241.894;-3445.184;-1276.278;-10247.66;-3.162495;15.57112;-5922.948;-2812.217;-0.3111257;0.2224645;0;
17048;13318.48;-650.5443;17809.83;-4.499465;14.88565;17945.84;10114.78;0.273893;0.2872083;0;
20870.38;16188.79;96.76535;26308.52;0.06038409;13.53103;22361.84;13349.13;-0.1811536;-0.2977863;0;
16324.42;12259.52;1139.956;21419.6;1.667914;10.43634;17567.96;9522.744;-0.3109063;0.02734961;0;
16712.45;12110.02;2733.9;22133.02;-6.572785;14.17678;18133.17;9156.495;0.0792102;0.09228949;0;
12618.57;9391.96;3380.373;16070.84;-7.169393;14.09555;13336.91;6969.592;0.2090653;-0.23264;0;
-17587.56;-15093.55;2714.044;-18073.25;-9.706808;3.498328;-18512.39;-12863.41;0.2738226;-0.1674389;0;
-35534.95;-29713.45;1878.345;-39212.97;-11.43934;1.217516;-36898.24;-24893.47;0.1436127;-0.2972053;0;
-17638.07;-12457.86;901.7446;-23123.68;-5.06386;-1.12811;-18858.4;-9140.094;-0.1164009;-0.1020047;0;
-13570.38;-8103.665;-578.6835;-19316.13;-4.389187;-3.337292;-14998.46;-4091.63;-0.311186;-0.03693482;0;
-5903.531;-3801.103;-1270.145;-10948.76;-0.5000105;2.493455;-6650.113;-3006.109;-0.5057753;0.1580043;0;
16615.23;13099.71;-623.3336;17320.08;1.845017;3.562554;17466.15;9942.92;-0.1804304;0.4177149;0;
20833.43;16108.48;130.5078;26253.27;0.9051576;6.439241;22325.71;13239.94;0.3394896;0.09245851;0;
16152;12090.16;1165.638;21264.84;2.780258;8.24131;17393.02;9365.092;0.01431178;0.2223003;0;
16572.49;11974.22;2760.289;21975.28;-1.509443;10.57731;17988.89;9011.526;-0.1156373;0.4819463;0;
12409.03;9189.383;3418.777;15674.23;-2.178488;12.17427;13082.11;6775.95;-0.05055375;0.09165797;0;
-17915.78;-15367.65;2784.799;-18602.77;1.17358;7.272407;-18896.2;-13136.31;-0.3103723;-0.03836882;0;
-35643.47;-29840.6;1973.72;-39365.88;1.507193;4.853714;-37004.63;-25010.15;-0.4399951;-0.2981996;0;
-17817.49;-12615.85;1003.52;-23328.51;0.8351175;7.394188;-19025.36;-9209.509;-0.244651;-0.102998;0;
-13419.8;-8025.43;-452.9908;-19266.13;-0.03637773;6.984861;-14846.16;-4046.377;-0.3743398;0.2219422;0;
-5078.8;-3332.159;-1126.65;-10142.66;6.929884;-4.743927;-5800.221;-2675.623;-0.438931;-0.1031175;0;
16978.83;13268.19;-483.5124;17791.79;9.334794;-8.289194;17859.92;10087.82;-0.1786207;-0.1679812;0;
20711.99;16036.37;281.6203;26162.56;5.507021;-9.017616;22209.15;13179.85;-0.3733432;0.1570243;0;
16148.51;12081.36;1315.724;21251.24;8.515598;-12.15669;17391.98;9345.258;-0.5029027;0.02693181;0;
16493.24;11892.62;2884.331;21905.94;-4.553776;-2.09722;17915.19;8937.193;-0.04762604;-0.2329646;0;
12360.46;9148.216;3537.744;15597.07;-9.706764;1.320894;13035.41;6727.007;0.0823565;-0.4276325;0;
-17994.43;-15451.48;2914.079;-18663.86;12.27241;-4.708775;-18962.01;-13200.8;0.4071105;-0.4272029;0;
-35746.1;-29942.53;2110.694;-39390.71;14.73833;-3.364385;-37083.58;-25124.08;0.2767667;-0.1019369;0;
-17466.28;-12272.89;1145.994;-22940.3;15.25938;1.12673;-18663.09;-8976.365;-0.0483481;0.09306756;0;
-12834.25;-7428.738;-311.8;-18658.89;19.32989;2.53224;-14257.32;-3523.035;0.01666782;-0.101928;0;
-4800.198;-3037.446;-971.3426;-9706.409;5.579086;8.490932;-5484.522;-2403.057;-0.373153;-0.1018256;0;
17116.42;13412.57;-310.0422;18082.21;3.363654;11.96551;18030.23;10224.61;-0.372778;0.02821142;0;
20850.71;16168.5;435.7227;26313.69;6.709177;7.934636;22347.08;13322.41;0.08236793;0.09315043;0;
16272.63;12199.51;1461.441;21362.54;6.769784;9.199217;17514.76;9464.081;-0.1126169;0.4178935;0;
16811.14;12212.67;3057.138;22229.78;4.284735;7.783454;18233.56;9266.557;-0.1125037;0.1576043;0;
12720.85;9480.317;3692.043;16092.1;4.28043;6.569941;13428.69;7042.718;-0.177358;-0.1024235;0;
-17620.21;-15110.81;3015.218;-18166.05;9.701137;12.18978;-18555.88;-12867.2;-0.3720818;0.2225162;0;
-35067.82;-29284.49;2194.615;-38766.59;9.82511;11.44072;-36434.97;-24514.38;-0.2417733;0.2872599;0;
-17051.37;-11871.94;1218.509;-22547.59;25.89114;16.31886;-18278.37;-8728.495;-0.1115956;0.2220039;0;
-13113.08;-7728.123;-263.2525;-18922.38;32.89772;18.44579;-14547.09;-3856.481;0.08341852;0.02687883;0;
-4985.453;-3307.498;-933.3542;-9959.311;16.58867;5.9688;-5700.195;-2616.806;0.01836736;-0.1030829;0;
17225.21;13482.34;-277.6361;18102.83;14.56227;3.417451;18104.41;10290.85;0.0183489;0.1568901;0;
20945.93;16275.79;473.0469;26420.15;19.23669;1.6056;22447.03;13425.88;0.2132325;0.02679776;0;
16514.36;12431.09;1512.721;21588.68;17.4087;-1.946109;17754.95;9696.605;0.08308355;-0.2330985;0;
17084.79;12511.48;3108.023;22490.69;12.09992;1.873874;18497.88;9568.844;0.08300006;0.2868744;0;
13372.6;9956.747;3732.647;17064.86;8.336716;0.8002639;14198.79;7477.119;0.2128513;0.3515535;0;
-16419.48;-14187.17;3024.735;-16690.71;6.988193;1.536272;-17234.62;-12041.06;0.01773545;-0.2335058;0;
-34525.51;-28750.45;2149.103;-38246.64;3.632268;2.204558;-35886.46;-24043.46;-0.1771844;-0.1683038;0;
-17223.96;-11979.76;1136.967;-22720.95;2.289448;0.05888876;-18441.63;-8858.613;-0.04707167;0.09173466;0;
-12801.09;-7429.314;-349.1168;-18629.39;0.5448592;1.331505;-14214.73;-3638.504;-0.1769591;-0.1032596;0;
-4449.265;-2795.846;-1018.929;-9378.301;-3.876318;-3.894379;-5094.741;-2240.767;-0.501618;0.02677888;0;
17372.71;13605.88;-368.8878;18347.08;-5.077872;-5.029176;18321.89;10382.11;-0.1113099;0.6114581;0;
21004.39;16336.31;367.769;26467.27;-8.622743;1.808014;22493.5;13503.32;0.2136387;0.2210396;0;
16542.62;12462.18;1381.39;21614.67;-10.22167;3.212717;17778.6;9714.62;-0.17638;0.02591547;0;
16945.98;12360.31;2960.567;22372.34;-5.656071;6.089755;18361.48;9424.812;0.08366655;0.2207915;0;
13373.17;10019.95;3597.833;17087.14;-5.181873;8.427917;14164.6;7518.764;0.4733865;-0.3641365;0;
-15840.16;-13497.57;2916.355;-16123.48;-0.8233857;9.290227;-16700.62;-11368.22;0.2130415;0.02603347;0;
-33669.07;-27910.71;2057.98;-37416.39;1.991457;11.35736;-35055.95;-23261.99;0.2777948;0.6756808;0;
-16486.69;-11253.21;1047.809;-22007.24;-1.092003;10.34121;-17735.53;-8298.358;0.342483;-0.1695736;0;
-11894.96;-6571.872;-441.2614;-17761.89;0.04719404;11.20159;-13348.45;-2907.601;-0.2425672;-0.2343706;0;
-3683.689;-2306.378;-1112.996;-8496.884;-1.760538;8.912919;-4321.815;-1810.416;-0.8270295;0.350571;0;
17566.41;13650.47;-464.9994;18703.86;-2.830496;6.559682;18538.35;10398.89;-0.4363945;-0.2994547;0;
20999.38;16370.95;282.5923;26455.32;1.794048;15.79649;22483.36;13547.82;-0.1111193;-0.4290885;0;
16615.38;12524.62;1325.799;21673.39;1.858618;17.25424;17847.9;9772.398;-0.4358444;0.09108141;0;
17019.26;12437.15;2912.263;22453.82;2.326241;9.935889;18434.13;9495.26;-0.175537;-0.1039121;0;
13230.65;9864.095;3532.992;16820.84;3.663074;9.390042;14014.33;7383.635;0.149476;-0.03884039;0;
-16140.91;-13831.72;2852.782;-16550.45;-3.641624;3.620197;-17001.32;-11689.81;0.3442279;0.2860354;0;
-33847.95;-28079.52;1998.75;-37606.51;-5.512999;0.7364151;-35241.2;-23379.63;0.4088493;-0.2989582;0;
-16491.08;-11282.12;990.9813;-21983.24;-2.69442;4.017717;-17751.33;-8215.894;-0.04633288;-0.4285924;0;
-11996.81;-6627.994;-494.2216;-17838.3;-4.433025;2.808109;-13470.93;-2871.899;-0.2411883;0.2215116;0;
-4010.5;-2450.243;-1166.699;-8846.219;-0.6111536;4.948619;-4713.997;-1881.837;-0.3059133;-0.03858031;0;
17490.12;13658.51;-509.0756;18588.74;-0.9453322;5.613476;18411.62;10431.35;-0.1756713;-0.2334436;0;
21099.31;16444.51;239.8253;26566.56;-0.7433115;3.330416;22581.73;13601;-0.04556007;0.2865297;0;
16475.42;12394.14;1274.455;21545.71;1.267167;3.193104;17705.51;9650.52;-0.370351;0.2212745;0;
16934.24;12348.95;2867.717;22357.03;-11.26004;3.591793;18343.86;9393.932;0.01982518;0.1560848;0;
13110.87;9771.033;3486.96;16691.98;-13.25845;3.990081;13876.13;7302.914;0.539544;0.4807647;0;
-16254.59;-13881.46;2791.679;-16719.07;-9.426739;1.708774;-17147.49;-11706.5;0.2141652;-0.1044245;0;
-33728.63;-27972.61;1931.195;-37530.72;-9.618338;1.908006;-35128.6;-23304.21;0.1489826;-0.6890256;0;
-16535.53;-11277.59;917.1543;-22067.19;-3.847897;0.09754995;-17804.35;-8199.283;0.3437349;-0.3634966;0;
-11344.27;-6064.837;-544.0176;-17276.88;-2.70593;-1.041258;-12818.46;-2419.664;0.2134549;-0.298164;0;
-2626.028;-1495.662;-1181.853;-7266.637;9.219506;6.260806;-3237.031;-1172.452;-0.1115963;-0.4277991;0;
17887.49;13845.82;-557.2759;19305.98;14.8373;7.728139;18895.64;10573.84;-0.4363209;-0.4273692;0;
20899.49;16306.54;158.0185;26370.23;7.386672;8.724997;22376.84;13495.52;-0.3059478;-0.03713575;0;
16483.64;12390.14;1203.162;21531.1;9.25526;11.26158;17711.61;9630.271;0.08416367;0.09283626;0;
16851.76;12267.41;2785.064;22299.15;2.548156;4.284162;18267.91;9319.449;0.3439485;-0.03719172;0;
12946.15;9614.766;3384.104;16426.45;-1.004378;3.007182;13701.05;7160.181;0.2136682;0.09278035;0;
-16431.94;-14053.64;2691.472;-16961.19;7.3684;7.425034;-17322.79;-11872.65;-0.1113832;0.02771977;0;
-33779.67;-27996.74;1837.789;-37561.61;7.160901;7.551539;-35166.97;-23301.41;-0.3061733;0.09265927;0;
-16708.82;-11456.79;820.2183;-22201.09;4.474389;9.218402;-17965.45;-8277.459;-0.2408983;0.02759881;0;
-11760.87;-6481.628;-652.9595;-17671.36;4.804685;11.15164;-13231.25;-2767.626;-0.1756889;-0.1023636;0;
-2852.398;-1686.038;-1295.652;-7555.801;0.9150915;5.84891;-3475.853;-1357.302;-0.1105451;0.1576086;0;
17890.17;13868.09;-649.596;19223.29;0.2436106;4.570357;18886.01;10606.39;0.08446803;0.02751557;0;
20977.65;16377.84;86.92117;26451.83;1.516163;12.73756;22457.17;13562.87;0.1493505;-0.2973488;0;
16551.95;12462.29;1128.263;21605.06;0.7113329;13.39447;17782.75;9699.363;0.01926575;0.0277867;0;
16969.09;12386.13;2717.737;22408.36;6.805211;13.98386;18384.46;9441.445;0.01924639;0.4175628;0;
13136.91;9811.522;3332.43;16742.99;8.941827;14.3717;13883.87;7357.548;0.2141291;0.2222413;0;
-16487.45;-14103.93;2638.585;-16864.38;2.904622;9.735562;-17397.58;-11915.21;0.6037179;-0.03785144;0;
-33996.69;-28227.78;1782.675;-37739.79;1.02667;8.051207;-35396.06;-23511.17;0.343242;0.02715393;0;
-16830.39;-11581.08;756.3985;-22336.74;8.125585;2.81857;-18089.9;-8362.099;-0.1768416;0.2220287;0;
-11852.77;-6604.516;-725.2266;-17789.47;9.591289;-0.2653553;-13322.68;-2803.955;-0.04672927;0.3517403;0;
-2845.395;-1734.199;-1347.56;-7493.109;0.4719725;-3.145233;-3447.099;-1311.074;-0.371519;0.1564848;0;
17951.75;13923.56;-687.2712;19370.44;-0.332785;-6.424175;18965.3;10673.88;-0.4361131;-0.03857446;0;
20948.74;16357.98;53.04758;26420.14;-7.365048;-3.135617;22424.45;13528.07;0.2139986;-0.2984051;0;
16503.3;12409.4;1129.609;21557.82;-12.91735;-3.132467;17730.38;9661.789;0.3437182;-0.4930072;0;
16915.94;12328.95;2736.807;22348.65;3.372601;-5.473722;18328.05;9374.299;-0.04643119;-0.3625772;0;
12925.21;9636.688;3338.175;16480.79;5.244246;-5.535205;13704.87;7206.683;0.08355014;-0.1023435;0;
-16476.91;-14022.84;2652.679;-16913.58;-0.5881727;-3.85507;-17337.32;-11775.16;0.4732702;0.222596;0;
-33454.78;-27673.07;1807.609;-37225.11;1.555872;-3.047401;-34845.51;-23007.9;0.2778927;0.2873397;0;
-16674.16;-11417.91;779.824;-22132.33;-11.70856;-2.910373;-17939.17;-8283.371;0.1476788;0.02718163;0;
-12120.91;-6886.298;-690.0336;-18042.45;-16.05007;-2.036792;-13588.46;-3169.536;0.2124977;0.09212168;0;
-2647.937;-1664.594;-1296.285;-7324.588;-4.312297;-1.565865;-3244.405;-1355.308;-0.3724219;0.2869311;0;
18201.12;14104.51;-629.3641;19618.28;-2.968794;-0.4255821;19219.1;10833.18;-0.3070803;-0.1681286;0;
20958;16390.12;100.7922;26443.17;-6.515784;-2.032745;22438.88;13579.44;0.08303228;-0.427829;0;
16640.69;12541.36;1151.881;21673.77;-5.704954;-2.231651;17870.5;9779.54;0.1479162;-0.03759508;0;
17177.04;12611.26;2753.168;22612.57;-2.818833;0.7178403;18594.57;9662.205;-0.04713446;0.02741004;0;
13529.18;10138.2;3350.241;17290.75;-0.9409667;0.0472897;14321.63;7677.895;-0.1120544;-0.2974542;0;
-15869.19;-13607.41;2621.036;-16086.84;-0.8062994;5.807652;-16735.33;-11474.96;0.08296017;-0.232188;0;
-33714.81;-27943.09;1716.84;-37468.58;-0.2022768;7.543373;-35121.15;-23194.88;-0.04705787;-0.1669873;0;
-17353.91;-12108.75;648.0579;-22826.38;4.821768;0.6366734;-18619.84;-8679.419;-0.1769453;-0.1018522;0;
-12706.31;-7417.267;-843.016;-18611.19;6.625585;0.7699995;-14160.68;-3596.265;0.01813455;-0.1667172;0;
-3209.531;-1946.622;-1461.217;-7928.369;2.934256;-7.804407;-3800.916;-1645.708;0.148051;-0.4913864;0;
17949.95;13960.48;-799.9555;19340.05;2.395444;-12.01637;18963.76;10706.57;0.08293491;-0.4259253;0;
20877.82;16274.14;-79.91949;26344.43;0.9865175;-0.08163628;22349.43;13456.78;0.01788424;0.09424141;0;
16378.67;12293.13;939.2892;21435.28;-1.157928;2.0619;17606.74;9533.489;0.342703;0.4189834;0;
16669.39;12083.7;2494.423;22118.29;0.3844534;-2.762821;18086.39;9125.844;0.407326;0.4835298;0;
12774.01;9482.829;3083.65;16169.21;-0.6876598;-1.755423;13511.01;7064.706;0.08207998;0.02827251;0;
-16806.12;-14387.19;2388.165;-17367.51;-2.629352;-0.6819325;-17707.98;-12184.25;0.1469648;-0.2316253;0;
-34362.59;-28557.73;1498.134;-38127.26;-2.024473;-1.485042;-35764.43;-23728.98;-0.1130522;0.1584115;0;
-18117.97;-12900.25;429.4459;-23521.25;-10.52891;7.826955;-19349.27;-9368.048;-0.5027426;0.3531544;0;
-14662.35;-9235.794;-1060.815;-20413.37;-12.46071;10.23035;-16051.02;-5234.255;-0.1124334;0.4827342;0;
-4936.126;-3327.917;-1690.573;-9877.959;-8.094908;2.115384;-5598.61;-2764.016;0.2125162;0.4822492;0;
17656.81;13824.7;-1036.842;18636.47;-9.493294;1.510412;18568.67;10643.73;0.08236802;0.1569279;0;
20849.81;16204.34;-315.1157;26327.51;4.113902;-4.988328;22339.14;13342.29;0.2122199;0.3516722;0;
16259.39;12187.11;715.9797;21331.11;9.133611;-8.600333;17493.36;9443.778;0.3419414;0.2863515;0;
16905.04;12328.18;2310.755;22308.54;0.4168959;-5.10864;18317.54;9367.433;-0.2431083;0.09116178;0;
13198.79;9848.722;2927.747;16828.89;1.822996;-6.175234;13980.85;7406.657;-0.3078313;0.02610282;0;
-16630.87;-14290.81;2221.175;-16982.06;-1.527738;-9.384088;-17500.09;-12138.17;0.3421514;-0.2337928;0;
-34297.71;-28509.23;1347.631;-38054.08;-3.06742;-11.65202;-35699.49;-23702.62;0.2118729;0.09127887;0;
-18233.6;-13017.08;313.8892;-23635.32;1.758433;-5.411079;-19454.26;-9448.957;-0.2431114;0.6109259;0;
-15051.29;-9632.617;-1165.745;-20798.88;2.225181;-5.003745;-16406.16;-5627.957;-0.1129324;0.2854753;0;
-4899.607;-3260.73;-1760.868;-9644.905;1.620708;-8.28082;-5486.515;-2723.275;0.01711574;-0.03964825;0;
17991.83;14163.88;-1074.083;19259.07;1.820151;-8.004567;18967.24;10979.75;-0.1128361;-0.1695431;0;
20951.21;16291.7;-368.905;26428.61;7.645471;-16.90501;22429.95;13433.83;-0.1127228;-0.03943806;0;
16267.92;12202.41;647.9235;21325.57;11.65628;-19.76823;17492.79;9460.39;0.1472599;0.4803403;0;
16709.25;12118.34;2226.166;22136.67;3.607589;-16.39928;18122.85;9149.816;-0.04779012;0.6097924;0;
12684.77;9407.363;2832.139;16061.5;3.402893;-15.91398;13405.24;6980.802;-0.5674808;0.4792449;0;
-16620.59;-14156.84;2170.094;-17255.5;10.36472;-20.25176;-17558.91;-11955;-0.1121392;0.08895935;0;
-33752.91;-27990.83;1322.026;-37528.74;10.28794;-21.23616;-35162.03;-23181.38;0.2777775;-0.3009341;0;
-17656.54;-12438.18;277.3314;-23070.48;20.39165;-8.153451;-18913.74;-8862.741;0.01762901;-0.170697;0;
-13594.68;-8353.479;-1179.45;-19499.95;24.12221;-3.389531;-15053.96;-4391.595;0.0176113;0.0243765;0;
-3418.329;-2292.033;-1766.516;-8163.181;15.05564;-5.730528;-4074.989;-1896.825;0.01759361;0.08931936;0;
18138.69;14107.98;-1110.304;19544.97;14.50465;-2.509589;19101.75;10890.61;-0.1123588;0.154197;0;
20771.51;16183.88;-410.5239;26265.49;11.40862;-2.306118;22252.39;13344.72;0.01768883;0.2190094;0;
16240.92;12154.78;599.8029;21296.79;8.986256;-2.102974;17467.19;9401.586;0.4724424;0.153822;0;
16582.28;11997.62;2159.416;22021.05;8.240292;6.271883;17998.29;9036.334;0.3420331;-0.1711693;0;
12573.27;9312.127;2787.867;15888.44;5.954836;9.212708;13305.97;6906.617;0.01685266;-0.04106265;0;
-16841.7;-14369.83;2146.277;-17515.64;7.891236;0.02703342;-17771.74;-12063.54;0.2767051;0.1538807;0;
-33695.96;-27898.46;1310.149;-37502.82;7.548514;-1.446618;-35103.38;-23208.3;0.08152504;0.02379133;0;
-16755.21;-11530.13;307.8358;-22259.53;7.27251;0.1624257;-18030.34;-8345.467;-0.2433936;0.1537021;0;
-12772.61;-7464.484;-1145.509;-18684.71;8.135859;-1.780243;-14248.87;-3678.86;-0.1132143;-0.1063217;0;
-3447.829;-2146.231;-1761.86;-8078.025;5.716785;1.235778;-4060.226;-1780.928;-0.1780679;-0.4310516;0;
18117.59;14168.6;-1091.394;19573.92;5.509971;1.234537;19120.67;10916.03;-0.1129217;0.02415294;0;
20975.37;16359.79;-385.6676;26460.88;9.188129;-2.986507;22449.12;13530.33;0.2120285;0.2190307;0;
16304.72;12223.25;614.2488;21352.52;10.1169;-4.122216;17526.14;9459.604;0.2767828;-0.04105875;0;
16766.85;12184.4;2187.044;22200.72;8.566495;-3.716176;18178.08;9227.321;0.2115373;-0.3658542;0;
12914.18;9610.602;2794.79;16308.1;7.418812;-3.980374;13641.32;7164.004;-0.1784793;-0.4304539;0;
-16382.91;-13956.37;2112.51;-16996.63;11.69827;-7.191494;-17312.01;-11728.72;-0.3732019;0.219652;0;
-33168.17;-27389.71;1253.99;-36985.61;12.15502;-8.255995;-34577.73;-22743.53;0.01697711;0.08949663;0;
-16698.23;-11448.02;211.9877;-22148.82;6.449384;-7.711836;-17973.88;-8311.39;0.601666;-0.3653647;0;
-13042.63;-7763.331;-1263.609;-18894.03;5.70597;-9.17765;-14498.79;-3993.923;0.4061595;-0.1051282;0;
-3342.873;-2211.254;-1870.611;-8038.806;-0.3279836;-4.680694;-3930.172;-1849.329;-0.1789546;-0.2349573;0;
18270.61;14222.22;-1212.812;19632.63;-2.738552;-4.073144;19276.79;10964.85;-0.3736769;-0.03981916;0;
20927.28;16337.33;-511.1793;26406.38;-1.5977;-7.619086;22398.57;13513.07;-0.1783994;0.02518819;0;
16353.93;12268.14;496.6873;21414.8;-3.40378;-7.678413;17580.46;9506.526;-0.04828542;-0.3646412;0;
16712.46;12127.66;2053.874;22146.95;3.163724;-13.09619;18126.39;9178.416;0.01673044;0.2204313;0;
12800.16;9515.983;2663.831;16193.24;4.031201;-15.22643;13516.06;7066.375;0.5364524;0.5450465;0;
-16275.15;-13834.75;1991.787;-16932.78;5.299948;-14.9432;-17220.38;-11582.17;0.4059786;0.2846295;0;
-32852.7;-27065.13;1138.277;-36721.14;7.303379;-17.13856;-34252.64;-22505.36;-0.114168;0.2193762;0;
-16015.27;-10775.66;113.3819;-21545.35;-0.3397702;-10.42323;-17280.05;-7889.927;0.01588139;0.1541884;0;
-12276.02;-6979.967;-1369.003;-18191.27;-1.812321;-7.264616;-13753;-3357.742;0.08083277;0.2839682;0;
-3062.871;-1859.414;-1978.773;-7597.259;-3.351718;-16.9696;-3649.174;-1546.152;-0.2440852;0.02381343;0;
18353.41;14354.41;-1299.125;19893.19;-6.09404;-16.88556;19374.09;11071.54;-0.3088073;-0.1061452;0;
21148.71;16549.37;-593.9863;26637.11;-1.265146;-11.57707;22621.91;13743.88;-0.2435296;0.4786676;0;
16603.14;12512.33;430.2211;21631.69;0.007947231;-10.49377;17827.64;9745.701;-0.3732196;0.2832846;0;
17072.21;12505.85;2026.283;22515.81;-8.096386;-1.84267;18485.03;9566.635;-0.04800787;0.08809791;0;
13445.5;10048.44;2634.253;17121.47;-9.695841;1.77626;14259.69;7564.602;0.1469424;0.2179441;0;
-15469.92;-13204.87;1934.941;-15812.69;-2.18401;3.850824;-16296.99;-11042.45;-0.178042;0.02282304;0;
-32304.67;-26535.45;1064.558;-36150.36;-0.5742249;7.196101;-33705.48;-21960.76;0.01703896;-0.04216724;0;
-16403.59;-11156.43;18.65412;-21846.92;-2.181238;3.303861;-17655.97;-8201.962;0.3418585;-0.1720596;0;
-13630.36;-8300.602;-1471.787;-19406.34;-2.179047;2.965748;-15044.77;-4544.368;0.2115804;0.02301536;0;
-4033.915;-2714.861;-2074.427;-8727.073;2.377494;4.838168;-4612.454;-2213.08;0.01646574;0.2178943;0;
18277.54;14304.44;-1381.502;19609.74;3.514181;4.230461;19281.2;11066.31;-0.1134855;-0.1071614;0;
21149.08;16536.45;-643.4998;26625.54;1.032404;3.020639;22620.47;13703.58;-0.1133715;-0.2369884;0;
16637.8;12561.65;408.6651;21682.86;2.169466;2.414757;17864.24;9807.232;-0.1132575;0.08808645;0;
17127.6;12547.89;1995.457;22558.88;-5.534897;-1.204747;18538.54;9599.243;-0.2430784;0.02303059;0;
13088.7;9764.145;2585.592;16656.61;-7.136926;-3.279886;13849.31;7304.527;-0.1778668;-0.1069272;0;
-15723.75;-13337.62;1902.054;-16227.29;-3.513408;0.3403663;-16617.74;-11070.56;-0.1127208;-0.2367545;0;
-31988.77;-26233.26;1059.004;-35862.93;-3.6436;-0.1288562;-33400.36;-21739.28;0.08229452;-0.1715492;0;
-15334.41;-10094.91;29.22223;-20867.74;5.804533;0.3401538;-16606.99;-7435.672;0.2771139;0.02352515;0;
-11755.18;-6470.816;-1459.215;-17672.99;10.55412;1.076624;-13232.48;-2923.965;0.1469007;-0.2363679;0;
-2728.149;-1614.627;-2055.652;-7189.445;9.47179;-3.81409;-3350.672;-1236.327;0.08178577;-0.6259344;0;
18536.06;14480.92;-1337.712;20194.46;13.28067;-4.614052;19535.46;11198.81;0.1466709;-0.04059938;0;
21291.07;16702.31;-612.1377;26782.5;13.06625;-6.149962;22765.82;13891.18;0.01658888;0.2842781;0;
16567.59;12476.63;397.2516;21608.85;12.9194;-8.153271;17788.81;9720.029;-0.3082645;0.02412311;0;
16897.44;12320.08;1972.186;22351.92;23.89113;-1.647917;18305.18;9368.855;-0.1780201;0.02409887;0;
13001.57;9661.364;2579.616;16556.79;25.34099;-0.2396197;13773.98;7223.953;-0.1128739;-0.04089269;0;
-15649.43;-13282.72;1921.448;-16137.32;22.97101;-6.334643;-16534.98;-10970.02;0.08214159;-0.4306557;0;
-31540.9;-25797.8;1079.111;-35446.81;23.55016;-7.466988;-32959.94;-21354.76;0.1470264;-0.4951902;0;
-15134.48;-9879.629;8.642612;-20657.81;10.06354;-5.651007;-16437.49;-7314.443;-0.1779581;-0.364758;0;
-11904.78;-6689.644;-1496.453;-17778.85;5.230656;-6.783977;-13393.08;-3187.148;0.1470575;-0.2994242;0;
-2482.674;-1596.869;-2071.972;-6978.827;1.943847;-6.375263;-3031.142;-1286.634;0.1469097;-0.2991233;0;
18705.42;14548.51;-1355.827;20315.27;-4.019953;-6.502823;19761.96;11240.1;-0.3080093;-0.2988227;0;
21195.33;16648.03;-620.8649;26685.84;2.74924;-9.108562;22659.22;13850.92;-0.1127978;-0.03865311;0;
16692.18;12589.17;414.4264;21719.53;2.210614;-8.295676;17910.58;9819.806;-0.2426191;0.3511898;0;
17045.29;12474.39;1988.016;22495.55;2.074671;-14.85148;18456.56;9531.625;-0.5022447;0.4807716;0;
13184.9;9830.387;2582.25;16833.57;6.626938;-16.04219;13963.06;7372.019;-0.04696866;0.2204192;0;
-15389.18;-13090.26;1900.512;-15798.52;-8.986135;-7.720435;-16266.17;-10841.92;0.3428826;-0.03967171;0;
-31498.81;-25717.33;1028.024;-35419.65;-11.5227;-5.569284;-32917.4;-21222.37;0.01770134;0.09030285;0;
-15535.19;-10303.74;-67.95826;-21018.12;10.19086;0.1967219;-16804.25;-7607.597;-0.1122511;0.2201468;0;
-13211.19;-7845.583;-1602.025;-19009.25;15.27181;3.880463;-14667;-4186.449;0.147731;0.02502355;0;
-4004.661;-2525.682;-2186.199;-8640.135;17.39992;7.091745;-4622.206;-2031.465;-0.1772541;-0.1049363;0;
18299.12;14418.26;-1447.185;19721.36;20.99878;9.89778;19287.94;11157.53;-0.2420433;0.09007121;0;
21294.02;16660.73;-711.0535;26775.66;25.80045;9.753869;22763.1;13840.9;0.4078733;0.2199154;0;
16518.43;12445.2;296.4206;21564.89;28.1864;10.61485;17737.6;9690.633;0.08262673;0.4795638;0;
16869.21;12283.67;1856.339;22308.07;23.20159;4.977736;18276.32;9334.132;-0.242293;0.2841799;0;
12846.65;9573.858;2444.349;16368.3;22.50771;1.824659;13569.4;7131.184;0.1477545;-0.4307464;0;
-16030.45;-13567.13;1752.52;-16569.31;11.7688;2.15774;-16975;-11259.41;-0.242198;-0.2354116;0;
-31886.18;-26118.39;891.3475;-35799.35;6.464718;-1.059609;-33301.51;-21641.45;-0.306922;0.02469432;0;
-15114.96;-9877.452;-179.276;-20655.15;9.272237;-2.264115;-16397.81;-7322.816;0.2131251;-0.04029784;0;
-12243.96;-6927.552;-1705.657;-18084.74;7.721703;-3.86943;-13725.78;-3413.654;-0.1119257;0.08967736;0;
-3288.384;-2068.749;-2288.649;-7808.892;2.623729;-11.83633;-3869.684;-1654.653;-0.1767806;-0.1053148;0;
18428.6;14415.9;-1559.246;19958.67;0.611361;-15.2405;19454.48;11133.82;-0.2415703;-0.04024163;0;
21210.38;16613.87;-832.0284;26687.6;8.983491;-13.88553;22676.84;13804.56;0.08350913;0.0897335;0;
16542.96;12464.42;196.1662;21585.51;10.11354;-15.54615;17765.48;9714.209;0.4732293;-0.1052587;0;
16853.68;12264.73;1752.78;22301.84;16.66746;-12.65033;18265.93;9308.46;0.1479171;-0.1701203;0;
12588.05;9351.316;2320.014;16001.41;21.53986;-10.82908;13299;6944.712;0.2127358;-0.299884;0;
-16290.81;-13795.68;1642.694;-16948.89;8.724841;-15.50694;-17240.37;-11446.31;0.3424567;-0.169648;0;
-31965.41;-26178.34;799.3731;-35897.83;6.639969;-14.62058;-33381.56;-21657.15;0.08224323;0.02542447;0;
-15410.14;-10181.46;-255.9001;-20924.42;12.32672;-12.73043;-16675.76;-7452.832;-0.2426761;-0.1695031;0;
-12711.18;-7360.403;-1754.983;-18539.38;11.04154;-12.31574;-14159.93;-3713.016;-0.5023016;-0.3642348;0;
-3597.25;-2214.496;-2337.988;-8182.982;11.9011;-5.06939;-4195.75;-1803.134;-0.3718622;-0.4288362;0;
18248.98;14330.4;-1625.199;19718.33;12.29129;-3.32274;19248.11;11054.54;-0.2415539;-0.2984706;0;
21124.23;16506.51;-889.8256;26611.45;5.380059;-0.5732228;22594.45;13696.96;-0.2413112;-0.1032687;0;
16382.16;12311.4;140.7853;21438.84;3.699714;1.63779;17607.55;9559.632;-0.111134;-0.03819755;0;
16713.4;12121.02;1701;22161;7.112248;-6.334641;18127.25;9166.688;-0.1759897;-0.2330612;0;
12382.2;9202.538;2273.893;15794.33;8.043107;-8.471669;13057.92;6809.86;-0.2407802;-0.2977943;0;
-16914.41;-14311.29;1574.74;-17542.01;5.489429;-8.396174;-17888.86;-11935.69;0.01933108;-0.3624625;0;
-32513.91;-26717.38;734.032;-36396.33;5.014423;-10.39723;-33901.53;-22194.81;0.1492463;-0.03726156;0;
-15450.16;-10220.95;-298.0152;-20945.98;11.1723;-13.33391;-16702.91;-7454.426;0.08412904;0.09271058;0;
-12454.45;-7126.843;-1800.929;-18315.81;11.36215;-15.12905;-13914.83;-3442.324;0.2139792;-0.167252;0;
-3314.052;-2092.927;-2390.666;-7968.047;17.04416;-14.71195;-3936.371;-1697.287;0.08382949;-0.1021166;0;
18298.6;14287.55;-1671.515;19733.29;19.639;-14.83113;19275.4;11017.34;-0.04618942;-0.102014;0;
21095.71;16494.89;-925.5997;26590.19;9.304139;-15.15114;22569.13;13693.36;0.2137264;-0.1668788;0;
16576.18;12495.32;129.3943;21613.4;8.223063;-15.2029;17798.49;9735.674;0.278479;0.02819092;0;
17016.54;12436.66;1707.893;22450.69;3.66045;-11.50363;18424.37;9497.756;-0.3714743;0.2230646;0;
12860.12;9553.391;2280.122;16335.72;1.445969;-10.88922;13587.81;7112.375;-0.9558071;0.3527752;0;
-16229.13;-13829.02;1586.241;-16804.42;2.851035;-8.399971;-17151.77;-11520.13;-0.435108;0.1575187;0;
-31821.21;-26046.11;739.6973;-35766.88;2.044863;-7.185899;-33232.77;-21609.47;-0.04486672;-0.03754164;0;
-15175.52;-9988.976;-312.6267;-20733.12;4.186263;-11.66641;-16459.54;-7456.708;-0.109789;0.02746343;0;
-13170.52;-7789.102;-1829.644;-18983.63;1.636461;-11.78866;-14630.56;-4201.161;0.02025602;0.09240319;0;
-4198.277;-2658.429;-2427.238;-8831.412;22.39879;-17.53722;-4811.052;-2166.726;-0.1746664;0.02734299;0;
18179.73;14315.98;-1709.268;19565.32;30.14582;-20.06489;19165.12;11049.92;-0.1095235;0.2871849;0;
21167.84;16530.24;-975.4814;26646.5;7.141725;-16.82961;22638.35;13711.44;0.2154232;0.7416677;0;
16443.21;12378.54;46.23568;21486.96;7.335619;-17.61649;17664.07;9624.805;0.2801741;0.5460204;0;
16851.49;12260.23;1609.622;22286.44;-3.522742;-12.97709;18260.2;9306.336;0.1499579;-0.1691689;0;
12598.66;9376.603;2199.551;16072.67;-10.75385;-10.08385;13300.98;6963.564;0.1498072;-0.1040316;0;
-16682.51;-14141.55;1520.275;-17260.2;10.22201;-16.102;-17637.61;-11786.15;0.2795914;0.285877;0;
-32107.54;-26326.19;686.0411;-36057.38;11.28346;-16.68866;-33524.86;-21894.32;0.0194411;0.3505571;0;
-15035.36;-9813.292;-354.2663;-20585.49;13.75037;-8.634126;-16325.8;-7301.126;-0.04554578;0.3502048;0;
-12770.42;-7406.543;-1864.011;-18568.7;17.15281;-7.486802;-14247.45;-3835.341;0.01946733;0.1549509;0;
-3806.679;-2455.195;-2449.53;-8427.473;10.97363;-5.20192;-4422.05;-2002.438;-0.3053889;-0.1050742;0;
18255.57;14305.74;-1737.41;19676.97;12.77126;-2.316427;19245.9;11030.67;-0.2401147;0.1549008;0;
21058.02;16443.06;-1011.028;26533.6;1.304227;-12.42834;22527;13634.94;-0.3048408;0.2197125;0;
16429.81;12357.29;17.5493;21476.03;-3.050364;-14.09036;17651.96;9602.352;-0.3045345;-0.300247;0;
16750.09;12160.51;1555.337;22181.69;4.654884;-10.92807;18159.1;9210.911;0.0206082;-0.1050433;0;
12362.13;9154.658;2115.008;15612.77;2.038239;-12.0558;13046.38;6742.907;0.1505222;0.414801;0;
-16701.38;-14142.43;1448.669;-17515.74;9.269859;-7.421984;-17671.84;-11762.83;-0.1744658;0.3494169;0;
-31878.77;-26095.95;625.0801;-35857.71;10.39962;-6.878663;-33291.88;-21684.76;-0.2392578;0.02422903;0;
-14829.79;-9627.371;-426.5353;-20376.32;5.700122;-6.000973;-16109.79;-7211.404;-0.04411538;-0.1706973;0;
-12699.63;-7322.929;-1948.654;-18496.37;7.570405;-5.392097;-14166.97;-3756.766;0.2807657;-0.2354932;0;
-3906.75;-2512.594;-2545.067;-8520.759;-7.776172;-8.668781;-4521.354;-2012.085;0.2155162;-0.1702892;0;
18169.74;14246.6;-1825.776;19560.61;-11.58675;-9.664815;19155.87;10971.66;-0.1745044;-0.04018341;0;
21141.18;16518.01;-1081.159;26616.57;-6.282847;-12.73626;22613.56;13705.93;0.02057296;0.02482431;0;
16510.63;12441.07;-44.48362;21550.89;-8.419988;-14.79987;17733.95;9685.734;0.345389;-0.1701027;0;
16857.75;12272.58;1508.624;22295.76;3.443842;-15.65572;18267.26;9331.925;0.2800746;-0.1049644;0;
12462.7;9230.881;2075.37;15898.97;6.923006;-16.57775;13161.34;6803.376;0.08489116;0.2849451;0;
-16692.32;-14131.41;1392.814;-17324.18;5.041015;-21.04882;-17663.37;-11736.05;-0.3049982;0.4795609;0;
-31540.53;-25826.49;583.2579;-35512.3;7.446847;-23.37201;-32960.17;-21534.75;-0.174757;-0.04065977;0;
-13710.81;-8606.122;-421.0111;-19359.82;5.162189;-16.85137;-15005.72;-6646.208;-0.1745814;-0.2355209;0;
-10904.39;-5686.282;-1917.101;-16826.99;5.290724;-16.29857;-12409.8;-2552.522;-0.5642101;-0.04038226;0;
-2532.748;-1509.196;-2526.118;-7013.721;3.946237;-14.5407;-3120.88;-1194.185;-0.1088718;0.02462566;0;
18412.24;14308.07;-1840.361;20039.17;3.674829;-12.11477;19448.21;10995.2;0.346009;-0.1053338;0;
21086.65;16520.41;-1115.281;26569.82;-0.8168424;-18.46579;22552.27;13730.46;0.2157267;0.02470675;0;
16596.27;12508.56;-87.80157;21636.88;-3.160546;-18.51422;17817.4;9760.402;0.02060788;0.219584;0;
16806.79;12217.74;1445.204;22265.43;5.014303;-17.55791;18220.49;9270.883;-0.1743148;0.08942864;0;
12373.03;9154.564;2020.243;15686.26;6.884299;-17.74116;13059.02;6749.955;-0.239107;0.1543061;0;
-16682.11;-14131.5;1371.132;-17411.08;2.791545;-13.77146;-17651.05;-11722.03;-0.04396476;0.5439551;0;
-31626.36;-25882.07;561.0046;-35606.95;2.387574;-12.81986;-33032.73;-21533.06;0.02104676;0.2835392;0;
-14298.12;-9136.531;-461.7172;-19933.75;6.202592;-7.046633;-15581.31;-6888.528;-0.1738764;-0.1065498;0;
-11661.78;-6382.918;-1956.299;-17560.34;5.325704;-2.819689;-13131.75;-3028.309;0.08616766;-0.1714101;0;
-2796.54;-1703.806;-2551.626;-7386.798;9.071397;-10.78764;-3354.825;-1430.443;0.1510484;-0.04130314;0;
18402.38;14312.54;-1853.131;19885.23;10.53615;-11.04473;19440.21;10988.13;-0.04400537;0.2835751;0;
21028.45;16454.2;-1106.956;26498.26;-0.3254277;-3.665696;22484.95;13678.65;0.2159082;0.2183228;0;
16574.97;12493.36;-42.26873;21614.25;-0.8609641;-2.657269;17797.03;9729.072;0.2806586;-0.04176594;0;
16771.12;12173.11;1508.619;22235.93;-11.0415;0.4934769;18185.34;9235.836;0.2154093;0.3480801;0;
12138.24;9008.45;2057.561;15474.64;-16.3217;2.100571;12739.64;6593.177;0.2801602;0.5426323;0;
-17148.62;-14497.74;1380.442;-17887.88;1.712015;0.02198989;-18206.69;-12130.1;-0.1099254;0.2172504;0;
-32060.85;-26279.73;561.6692;-36050.41;4.724405;0.0219678;-33479.96;-21900.61;-0.6295537;0.02213008;0;
-14790.72;-9604.662;-481.3243;-20378.7;8.002188;-3.528028;-16078.66;-7255.779;-0.3040844;-0.1727942;0;
-12538.89;-7194.921;-1998.562;-18365.87;14.42451;-6.069773;-14021.06;-3721.308;0.2159599;-0.4974572;0;
-3600.964;-2281.189;-2591.302;-8210.381;6.238341;-4.12123;-4205.261;-1858.113;-0.1090938;-0.4319901;0;
18138.37;14177.71;-1883.678;19584.15;7.035379;-5.657636;19140.36;10889.04;-0.3038862;-0.04175196;0;
20891.03;16280.04;-1140.22;26362.9;17.67823;-7.527412;22358.2;13483.86;-0.04371151;0.08822469;0;
16448.26;12376.57;-77.37368;21492.94;20.47448;-7.452865;17669.14;9632.633;0.08626709;0.2180707;0;
16791.35;12184.99;1461.915;22220.54;19.8507;-16.88979;18198.89;9229.09;-0.04375428;0.2828189;0;
11857.8;8772.394;1991.96;15002.04;20.43396;-20.28882;12470.45;6414.71;-0.3035797;0.02266539;0;
-17717.95;-14986.5;1316.313;-18606.4;22.42219;-13.43636;-18750.83;-12558.23;-0.1083726;-0.3671614;0;
-32606.23;-26811.89;493.3249;-36584.46;22.19859;-14.49459;-34006.41;-22277;0.1516057;-0.3667925;0;
-15276;-10074.93;-556.0811;-20888.19;17.21979;-7.647886;-16551.67;-7334.791;0.02151863;-0.04158725;0;
-12624.14;-7272.119;-2049.365;-18511.89;13.31772;-4.090228;-14094.5;-3637.948;0.08646435;0.08838924;0;
-3466.033;-2139.497;-2628.545;-8139.381;14.91193;-13.7984;-4068.445;-1790.578;0.2163122;0.1532678;0;
18028.62;14076.63;-1925.49;19435.46;12.61977;-13.44962;19031.21;10798.69;0.2810621;0.5429178;0;
20811.92;16199.86;-1167.607;26288.18;1.152885;-15.37855;22280.17;13405.48;0.2158124;0.477405;0;
16392.35;12322.43;-90.67812;21437.29;-3.536346;-16.97069;17613.11;9570.647;0.1506282;-0.1727482;0;
16681.38;12075.04;1458.587;22107.13;-6.747973;-8.982849;18089.99;9128.936;-0.04442518;0.02232742;0;
11837.74;8762.257;2005.908;14976.46;-9.890001;-7.969079;12453.09;6392.227;0.08555414;0.1522397;0;
-18120.97;-15385.62;1338.805;-18990.07;-10.75072;-5.348799;-19152.71;-12949.57;0.2803702;-0.17275;0;
-33087.36;-27295.65;527.3829;-37046.38;-11.7443;-3.467963;-34497.43;-22792.85;0.3450558;0.3471623;0;
-15283.89;-10107.8;-512.7026;-20875.62;-7.714006;-4.469223;-16570.72;-7479.591;0.4746438;0.4767482;0;
-12892.57;-7503.229;-2014.792;-18735.66;-6.232387;-2.723176;-14374.63;-3886.097;0.1493302;-0.108437;0;
-3975.589;-2476.759;-2589.649;-8648.133;-1.738146;-8.480849;-4604.296;-2054.345;-0.3705586;-0.2382627;0;
17961.38;14096.63;-1864.894;19343.97;1.545154;-9.343106;18946.42;10829.71;0.08458512;-0.1080886;0;
20861.16;16223.72;-1099.17;26337.5;0.2044307;-7.927076;22329.96;13417.9;0.2144348;-0.10798;0;
16403.9;12346.55;-20.37279;21454.99;1.343301;-8.990838;17627.8;9600.813;-0.1106174;0.02206319;0;
16821.86;12210.28;1518.39;22239.78;6.565888;-1.747769;18231.34;9257.537;0.1493631;0.2819104;0;
11590.18;8584.455;2016.597;14715.09;10.57875;0.3973185;12188.25;6241.169;0.4740498;0.08672512;0;
-18337.8;-15474.5;1311.409;-19250.71;-2.627391;-0.6078247;-19387;-12945.87;0.1487367;-0.3681334;0;
-32520.08;-26749.36;504.3556;-36515.39;-5.773559;1.201325;-33913.52;-22332.29;-0.2412168;-0.4976982;0;
-14347.93;-9142.27;-535.3008;-19991.24;5.419003;1.133135;-15639.69;-6820.684;0.08386232;-0.2373288;0;
-11455.11;-6155.58;-2050.142;-17359.42;4.274482;2.873553;-12952.03;-2783.231;0.2786801;-0.04218826;0;
-2564.972;-1524.329;-2627.447;-7047.432;14.58531;-0.4114982;-3125.304;-1252.047;-0.306306;-0.2370479;0;
18282.14;14212.04;-1906.871;19889.14;18.92394;-1.214758;19319.26;10902.84;-0.3709656;-0.2368097;0;
20871.95;16296.72;-1150.662;26361.65;6.782112;6.623222;22334.51;13515.14;-0.1756908;-0.1066371;0;
16613.14;12528.22;-67.26857;21631.07;8.181817;8.425106;17829.4;9773.919;-0.04557959;-0.04156259;0;
17002.82;12411.17;1492.609;22454.36;-4.754477;8.751555;18411.57;9472.447;0.1493682;0.1533812;0;
12397.79;9198.556;2016.548;15813.64;-10.57685;10.4842;13094.58;6811.95;0.08425081;-0.1066423;0;
-17211.98;-14641.47;1301.786;-17863.86;7.653137;9.335073;-18167.51;-12220.41;0.01919881;-0.04156779;0;
-32194.02;-26411.81;454.6534;-36202.68;8.850896;9.727468;-33598.51;-21986.12;-0.3056572;0.4782127;0;
-14669.03;-9445.111;-598.4619;-20291.19;14.06692;9.315919;-15958.42;-6996.319;-0.5002521;0.02296081;0;
-12105.91;-6784.329;-2103.744;-17977.38;19.74621;8.234832;-13587.6;-3328.098;0.0199893;-0.2369316;0;
-3191.801;-1943.083;-2685.134;-7770.497;9.544961;11.70955;-3740.815;-1666.026;0.2798386;-0.04179153;0;
18151.99;14162.17;-1987.442;19661.71;10.53975;12.50158;19204.44;10856.14;0.2145901;0.0232178;0;
20812.81;16208.62;-1242.74;26287.55;10.79758;6.929554;22268.56;13429.37;0.2793418;0.2180965;0;
16492.36;12424.88;-153.4442;21540.12;8.978067;5.850864;17716.39;9672.285;-0.2406776;0.2828447;0;
16939.24;12326.33;1394.432;22374.74;18.21245;4.505327;18352.79;9389.079;-0.3054031;-0.04227622;0;
11739;8750.862;1893.03;15012.94;18.39522;2.156519;12374.95;6376.951;-0.1751616;0.0227336;0;
-18105.01;-15231.46;1184.623;-18878.43;22.2615;7.244933;-19108.26;-12755.25;-0.1100182;0.08767811;0;
-32390.61;-26622.37;371.06;-36394.75;25.52069;7.17067;-33789.12;-22263.35;0.1499617;0.02262266;0;
-14293.94;-9060.328;-655.2659;-19943.53;9.888629;6.761568;-15586.02;-6846.874;0.2797457;-0.1723021;0;
-11057.91;-5790.535;-2150.996;-16989.42;7.266724;8.630296;-12544.01;-2510.717;0.2144972;-0.3020636;0;
-2111.155;-1213.187;-2742.646;-6606.524;6.120347;-1.961436;-2672.544;-995.6888;-0.305457;-0.2367928;0;
18358.72;14221.35;-2054.812;20014.63;1.827289;-4.102919;19402.97;10892.35;-0.2401828;-0.04165284;0;
20803.31;16254.77;-1308.169;26280.7;11.94049;1.594631;22263.26;13490;0.5396667;0.2182584;0;
16575.58;12484.78;-208.4844;21599.52;12.06221;1.258114;17794.67;9732.455;0.2142877;-0.1067976;0;
16966.5;12364.75;1356.439;22407.31;14.39461;6.280448;18378.61;9412.082;-0.1757317;-0.626429;0;
11814.21;8752.561;1861.899;14989.4;17.9965;7.412848;12430.89;6437.693;0.1492816;0.08884116;0;
-18277.25;-15540.92;1142.217;-19090.04;2.975213;11.29029;-19297.98;-13031.07;0.08416428;0.2186866;0;
-32813.72;-26994.55;304.8803;-36793.59;-0.5113769;14.15921;-34217.59;-22469.57;-0.5655937;-0.3662392;0;
-15231.04;-10065.5;-741.3378;-20815.52;5.785777;6.107152;-16497.51;-7399.244;-0.2401887;0.08890015;0;
-13430.42;-7973.748;-2245.399;-19214.45;3.301717;5.230237;-14899.11;-4264.506;0.5396608;0.2187455;0;
-4565.542;-2828.911;-2831.534;-9298.879;8.924478;3.684496;-5248.809;-2328.021;0.1493145;-0.301213;0;
17725.75;13986;-2115.095;18984.03;10.79152;1.403374;18661.7;10744.33;0.08419709;-0.4958124;0;
20846.22;16175.37;-1335.548;26321.28;0.3982002;5.68875;22322.85;13364.35;0.2790145;-0.1055102;0;
16426.2;12374.13;-213.1445;21478.92;-0.2054124;6.151914;17648.69;9639.146;-0.3709393;0.479302;0;
17090.76;12482.21;1373.85;22488.71;-3.554109;3.868435;18497.56;9526.715;-0.1756645;0.3488857;0;
11886.76;8842.662;1879.699;15121.85;-6.028784;4.199341;12499.08;6517.057;0.01941402;-0.236171;0;
-18263.44;-15445.88;1155.58;-19073.02;-0.195577;4.195121;-19310.05;-12897.53;-0.1105402;-0.3658684;0;
-32616.54;-26859.27;341.1867;-36608.22;-2.204136;3.387233;-34022.39;-22433.16;-0.04546176;-0.1056314;0;
-14606.44;-9397.436;-690.0754;-20236.68;8.246927;10.21584;-15898.62;-6978.458;-0.5001875;0.2193115;0;
-11516.31;-6237.358;-2175.323;-17430.62;11.05168;12.483;-13005.53;-2819.612;-0.04491349;0.4139931;0;
-2455.57;-1424.163;-2736.369;-6991.624;-1.015864;5.571336;-3036.155;-1199.591;0.215001;0.2836425;0;
18224.85;14142.49;-2030.864;19839.03;-1.684429;4.895908;19251.26;10826.91;-0.3699211;0.2833575;0;
20659.52;16088.65;-1269.533;26153.33;-13.47173;4.757023;22120.48;13317.25;-0.10968;0.1531381;0;
16414.12;12331.46;-150.6159;21443.23;-18.95055;3.747621;17634.28;9580.174;0.08533219;0.2179515;0;
16964.54;12356.62;1429.507;22386.83;-12.63585;5.351324;18373.18;9406.583;-0.04468823;0.2177325;0;
11677.41;8651.759;1942.781;14816.83;-13.69488;5.948793;12270.8;6344.916;0.02032402;0.02261172;0;
-18569.36;-15774.46;1244.163;-19419.54;-13.74749;3.732501;-19617;-13213.1;0.2152056;0.3474257;0;
-32759.31;-26966.82;445.4699;-36747.36;-13.8674;3.661768;-34162.25;-22505.54;0.4098914;0.412044;0;
-14542.44;-9361.666;-569.499;-20150.38;-7.624173;7.475994;-15823.13;-6872.723;0.4744469;0.2167279;0;
-12071.48;-6683.242;-2058.475;-17901.68;-5.607757;8.607192;-13563.56;-3110.643;0.4090028;0.5413468;0;
-3471.34;-2064.719;-2651.232;-8166.105;-5.132631;10.94282;-4118.686;-1675.862;0.08375514;0.2159662;0;
17834.41;13926.9;-1941.065;19156.96;-2.850298;12.94132;18804.12;10649.64;-0.2411657;0.1507819;0;
20691.26;16065.26;-1174.062;26179.85;-8.809281;10.85184;22162.82;13274.13;0.0839133;0.02069566;0;
16321.38;12250.07;-83.67928;21361.94;-8.465637;11.04189;17542.82;9507.292;0.4086657;-0.1092598;0;
17143.85;12545.19;1511.697;22544.02;-13.68107;12.10252;18552.14;9600.422;0.08341836;0.3456214;0;
12325.67;9195.587;2047.907;15733.58;-16.54771;11.68846;12985.59;6848.481;0.0183672;0.2153394;0;
-18212.38;-15538.24;1309.173;-18826.12;-4.943156;12.94939;-19204.63;-13034.71;0.3431855;0.08518834;0;
-32804.65;-27032.31;477.0877;-36797.47;-3.063155;12.8694;-34213.73;-22635.29;-0.04696343;0.4099395;0;
-14656.99;-9507.46;-545.4717;-20265.15;-1.921002;8.636663;-15954.06;-7102.485;-0.3067856;0.4744949;0;
-12520.43;-7147.198;-2045.451;-18321.21;0.8939678;5.881685;-14011.92;-3591.5;-0.1115753;-0.110688;0;
-3728.203;-2263.686;-2639.221;-8347.112;-1.317733;8.689058;-4324.328;-1845.907;0.2133735;-0.3704461;0;
17954.93;14057.07;-1942.777;19354.4;-0.3784041;7.340669;18968.15;10778.85;0.5379958;0.01973015;0;
20691.48;16059.08;-1200.603;26178.9;1.363288;2.644609;22160.31;13267.7;0.2775859;0.08467769;0;
16420.92;12361.48;-121.0951;21457.34;2.769414;0.9673787;17640.51;9621.369;0.08240491;-0.1103094;0;
17288.79;12680.16;1456.031;22687.72;-0.4485493;-3.588311;18697.91;9730.798;0.2122568;0.01973608;0;
12177.28;9102.113;1975.322;15635.35;-1.386104;-4.924364;12871.03;6772.565;0.3419782;0.2146183;0;
-18077.22;-15324.48;1251.106;-18667.77;3.43806;-7.79956;-19040.36;-12795.61;0.2766672;0.27937;0;
-32334.26;-26572.31;422.1556;-36360.89;3.032464;-8.729484;-33759.52;-22137.49;-0.1783821;-0.1107148;0;
-14704.77;-9484.622;-627.7098;-20340.38;7.383674;-4.433927;-16013.66;-7018.333;-0.04826823;-0.5653749;0;
-12289.17;-7002.601;-2129.683;-18197.36;8.782774;-3.893608;-13781.16;-3487.318;0.2116496;-0.4348722;0;
-2871.786;-1807.469;-2708.985;-7441.142;4.754485;4.817842;-3450.783;-1493.674;-0.1133997;-0.1095985;0;
18262.71;14205.42;-2028.401;19857.77;6.223576;8.162147;19295.86;10911.7;0.01664889;-0.1094884;0;
20586.15;16004.66;-1306.943;26080.98;-6.107537;9.493483;22046.02;13224.32;-0.04833518;-0.1743457;0;
16245.92;12166.84;-231.826;21268.65;-10.58938;13.36895;17464.99;9424.045;-0.1782213;0.08569887;0;
16998.68;12389.63;1341.21;22411.42;1.411329;4.84881;18405.68;9445.185;-0.2430096;-0.04432194;0;
11885.79;8835.895;1857.321;15214.14;1.744703;4.576006;12509.84;6521.409;-0.2427654;-0.1092447;0;
-18430.19;-15633.46;1126.399;-19152.73;4.221197;5.710118;-19454.84;-13078.33;-0.04761942;0.2157017;0;
-32590.2;-26825.97;301.994;-36621.61;6.294036;5.168517;-33996.37;-22387.66;-0.2424736;0.08555032;0;
-14353.01;-9122.121;-718.9058;-20014.38;3.206253;9.24916;-15656.55;-6708.14;-0.3071973;-0.174405;0;
-11046.99;-5827.153;-2197.908;-16988.92;3.671546;9.172884;-12551.7;-2493.296;-0.04701926;-0.5640338;0;
-1817.715;-999.9093;-2777.938;-6197.313;0.9221665;17.33546;-2353.705;-883.7701;0.01799532;-0.6284344;0;
18388.28;14232.13;-2111.2;20177.18;-0.4189068;19.52836;19458.59;10914.47;0.01797724;-0.4978683;0;
20588.83;16041.24;-1391.876;26079.33;1.189105;19.30779;22046.27;13282.21;0.01795918;-0.302466;0;
16404.25;12314.94;-302.8839;21424.31;1.791122;21.83374;17621.64;9561.043;-0.04702621;-0.1722274;0;
17093.35;12496.28;1266.944;22509.32;-4.975832;8.884337;18504.44;9558.136;0.2778578;-0.301989;0;
11998.59;8896.338;1765.342;15304.5;-7.5828;5.325437;12654.31;6564.86;0.6673826;-0.3016856;0;
-18257.67;-15525.1;1031.436;-18984.43;-0.6099322;9.606872;-19258.18;-12979.99;0.4068426;-0.3663498;0;
-32390.15;-26643.57;209.3278;-36425.38;-2.082212;8.391648;-33806.01;-22259.08;-0.04833753;-0.04114497;0;
-14086.57;-8890.179;-811.963;-19771.23;3.9481;9.722753;-15389.61;-6615.86;-0.1782237;0.02386371;0;
-10653.35;-5466.509;-2292.668;-16631.33;5.283304;11.32057;-12158.37;-2221.059;-0.3079793;-0.690801;0;
-1481.269;-740.2017;-2879.1;-5830.1;-1.152366;8.897813;-2020.465;-644.6343;-0.2427025;-0.6901069;0;
18556.34;14351.32;-2214.867;20392.25;1.394387;8.755029;19629.14;11025.9;-0.1125239;-0.2996094;0;
20707.69;16175.89;-1510.354;26208.47;-20.24165;17.38679;22167.69;13422.73;-0.1773782;-0.4292431;0;
16430.88;12336.64;-451.8991;21445.06;-25.78101;18.37406;17651.71;9584.746;-0.1122326;-0.4288118;0;
17165.37;12569.5;1121.764;22585.45;-13.16281;22.84333;18576.53;9638.553;-0.1770872;-0.1035442;0;
12251.26;9128.542;1651.355;15707.7;-15.35941;24.96371;12924.4;6796.698;-0.1769092;0.0914619;0;
-18183.9;-15491.54;921.78;-18749.99;4.68307;13.21698;-19156.42;-12961.19;0.01817055;0.09137;0;
-32458.65;-26699.44;91.81736;-36464.33;10.63924;10.18947;-33856;-22285.03;-0.1117824;-0.1685912;0;
-14119.83;-8904.719;-930.3549;-19744.91;2.256776;5.959426;-15412.03;-6581.165;-0.1116701;0.02648024;0;
-10884.59;-5679.575;-2408.396;-16788.11;1.91874;2.604414;-12383.98;-2414.284;0.2132788;0.02645363;0;
-1671.886;-875.7018;-2969.286;-5965.449;4.529757;-2.287836;-2195.478;-748.4441;0.01816251;-0.2984097;0;
18593.25;14411.09;-2284.427;20489.58;6.199168;-6.03652;19678.16;11099.63;-0.2417251;0.1566616;0;
20657.16;16117.63;-1577.157;26151.38;-19.7286;-0.6720029;22111.37;13358.42;-0.3714169;0.5463082;0;
16371.63;12282.39;-499.0981;21389.58;-26.47393;-1.67595;17592.02;9543.594;-0.3060763;0.675694;0;
17104.44;12506.4;1071.536;22527.07;-25.10719;4.621886;18516.84;9562.006;0.2139699;0.7399824;0;
11918.04;8828.486;1578.485;15208.94;-29.97208;6.827679;12576.55;6525.919;0.408657;0.2195001;0;
-18309.3;-15575.95;868.1929;-19015.64;-11.99102;3.471794;-19294.49;-13033.23;0.2133443;-0.04058983;0;
-32406.94;-26634.03;40.50182;-36399.88;-6.084476;5.209739;-33808.97;-22171.39;-0.04673943;0.2193203;0;
-14658.35;-9404.931;-1024.785;-20294.01;-7.953397;-3.369067;-15957.83;-6765.241;0.01827487;0.08916528;0;
-11353.43;-6158.279;-2519.878;-17356.94;-4.663851;-5.040255;-12852.89;-2691.878;0.08322385;-0.3007284;0;
-1604.745;-876.7432;-3085.467;-6121.11;9.94287;-5.838924;-2128.583;-814.0216;-0.3716312;-0.1055242;0;
18514.18;14300.37;-2413.203;20236.11;16.36324;-8.646279;19592.25;10979.73;-0.6960945;0.08948389;0;
20518.6;15991.5;-1694.763;26012.61;8.107777;2.615297;21973.23;13248.21;-0.305591;0.1543613;0;
16284.87;12195.54;-604.5289;21315.16;9.506149;5.358847;17505.48;9444.814;0.2794222;0.2841409;0;
16961.49;12357.73;973.5512;22374.45;0.3205458;1.870472;18370.76;9412.82;0.2141741;-0.04098133;0;
11797.06;8777.728;1487.174;15108.21;-4.502547;3.610027;12471.41;6512.846;-0.1758452;-0.3008095;0;
-18938.19;-16132.94;752.0637;-19613.48;1.329126;1.931948;-19903.76;-13545.82;0.2141355;-0.4954093;0;
-33349.22;-27566.66;-96.31275;-37364.75;-0.8820364;1.528109;-34762.52;-22985.96;0.2788877;-0.6248462;0;
-15275.16;-10075.86;-1149.343;-20936.58;-0.4126357;4.808616;-16577.12;-7223.321;-0.3060986;-0.2344143;0;
-12252.21;-6989.658;-2640.157;-18201.82;-0.07742837;5.004733;-13752.2;-3346.883;-0.04592164;-0.03927672;0;
-2554.267;-1491.41;-3194.849;-6996.65;-4.565329;2.186543;-3130.211;-1278.23;0.08405919;0.09069744;0;
18330.8;14293.72;-2488.227;20100.87;-5.162978;0.5767553;19376.17;11017.08;0.1489421;-0.03932839;0;
20505.22;15926.29;-1758.342;25998.36;-1.005581;2.853595;21963.75;13150.76;0.5385965;-0.1042562;0;
16145.7;12070.17;-662.6876;21171.91;1.206233;3.386592;17363.92;9330.396;0.01831654;0.1557179;0;
16905.71;12305.3;936.2062;22323.08;-4.019892;-4.118778;18316.56;9352.364;-0.6313753;0.2854961;0;
11648.66;8618.825;1454.942;14850.66;-5.556094;-5.789151;12279.21;6342.662;-0.3059042;0.4801113;0;
-19036.14;-16216.81;725.7519;-19827.34;7.310212;-3.84089;-20053.1;-13652.68;0.01923992;0.6095636;0;
-33308.43;-27527.45;-99.04749;-37327;10.38335;-4.640826;-34718.68;-22985;-0.04574675;0.2841144;0;
-15252.02;-10015.36;-1135.755;-20896.39;4.478418;-1.153173;-16552.94;-7142.916;0.4740379;-0.1059752;0;
-12046.31;-6816.723;-2608.638;-17988.42;4.674989;-0.6831334;-13542.98;-3186.255;0.6034963;0.02406599;0;
-2211.8;-1350.977;-3136.391;-6706.306;3.733262;4.006236;-2773.168;-1211.654;-0.2416855;0.1539765;0;
18362.21;14203.28;-2430.359;20071.46;3.461091;7.083426;19410.75;10907.43;-0.3713773;-0.1060476;0;
20320.7;15777.15;-1709.231;25821.02;-0.6955724;-1.028505;21776.66;13014.68;0.01879985;-0.1709084;0;
16020.18;11934.47;-610.7524;21045.68;-2.301488;-1.697178;17240.23;9186.476;-0.1111537;-0.235704;0;
16811.95;12205.13;974.3773;22220.87;-2.634944;-1.293698;18221.19;9253.879;-0.2409767;-0.4303692;0;
11603.07;8625.428;1478.348;14790.09;-5.377986;-3.90461;12196.4;6362.107;0.08410212;-0.6248388;0;
-19450.89;-16591.97;731.5492;-20236.61;2.59802;4.80685;-20497.93;-14028.85;0.2789196;-0.2344069;0;
-34001.52;-28167.41;-121.5074;-37992.28;2.729131;6.409611;-35408.88;-23547.67;-0.04619732;0.3505347;0;
-15754.67;-10568.08;-1178.198;-21375.11;3.061182;-1.500693;-17048.07;-7543.414;-0.1760856;0.0253458;0;
-13285.59;-7875.921;-2684.897;-19164.12;5.737423;-1.900961;-14777.15;-4081.336;-0.1109413;-0.1695817;0;
-3694.648;-2218.457;-3238.076;-8226.931;-10.67806;-5.382164;-4290.034;-1898.33;0.01910484;-0.104444;0;
18122.27;14233.21;-2519.76;19718.92;-13.48135;-6.448421;19136.57;10976.51;0.08405299;0.02559568;0;
20500.65;15868.61;-1807.912;26008.12;-10.92221;-5.772113;21961.83;13077.14;-0.04596616;0.3504067;0;
15982.47;11923.26;-738.648;21010.17;-12.11668;-6.235193;17196.96;9190.948;-0.1108873;0.09018523;0;
16836.43;12233.28;842.253;22248.41;-4.066554;-0.7365108;18244.21;9267.576;-0.04580855;-0.2997095;0;
11857.6;8794.129;1358.475;15165.12;-1.986363;0.5369051;12489.93;6528.105;0.08417217;0.0254284;0;
-18691.31;-15942.84;628.1951;-19404.59;6.589448;4.019356;-19712.38;-13450.13;0.4089243;-0.03956449;0;
-33685.71;-27887.78;-257.8817;-37707.52;10.86973;5.421959;-35124.66;-23156.75;0.0836767;-0.2344268;0;
-16832.79;-11653.23;-1381.542;-22406.76;12.06426;6.488238;-18123.33;-8228.396;-0.4361461;-0.1042565;0;
-14490.48;-9124.989;-2883.57;-20368.26;15.33369;8.424224;-15954.01;-5179.984;-0.3707405;-0.2340865;0;
-4036.281;-2566.253;-3412.249;-8869.014;8.821551;-1.095696;-4702.208;-2288.152;-0.175466;-0.03894921;0;
18024.33;14143.68;-2693.696;19349.89;8.143103;-2.702063;18971.51;10916.78;-0.1103223;0.350894;0;
20430.33;15799.49;-1942.724;25935.42;3.780663;-4.105989;21901.64;12995.01;0.2795926;0.1556394;0;
16003.78;11946.43;-837.655;21058.87;0.4279621;-6.245257;17221.29;9219.95;0.2793116;-0.03941905;0;
16856.23;12243.44;745.9536;22237.26;5.049232;-2.487998;18259.93;9278.808;-0.3056751;0.0255879;0;
11645.23;8639.945;1249.888;14852.5;4.709366;-3.825157;12252.19;6393.368;-0.3703353;-0.2343072;0;
-19261.41;-16419.94;495.5574;-20053.82;4.503563;5.02019;-20310.51;-13835.39;0.01984087;-0.2990391;0;
-34058.86;-28257.61;-370.0994;-38048.22;5.704487;7.359548;-35467.93;-23606.52;0.2796903;0.0260981;0;
-16126.69;-10920.37;-1426.072;-21758.35;4.828099;2.797436;-17421.48;-7694.088;0.2794093;0.02607188;0;
-12641.33;-7347.639;-2889.699;-18603.73;5.292738;4.000196;-14132.01;-3598.224;0.1491938;0.02604568;0;
-2679.406;-1482.591;-3412.828;-7229.668;11.04722;-5.85001;-3257.191;-1416.11;-0.1108254;0.2209215;0;
18170.42;14178.18;-2698.818;19849.41;13.38064;-8.657353;19204.53;10894.75;0.0192206;0.2206996;0;
20321.08;15722.42;-1970.862;25822.03;11.96068;-8.983569;21781.63;12954.79;0.53894;0.2854452;0;
15859.26;11790.54;-873.9943;20908.98;13.15411;-12.12268;17079.16;9051.904;0.4734311;0.1552237;0;
16680.4;12071.92;718.084;22076.34;12.40396;-6.14914;18091.76;9102.825;-0.04678329;-0.1048017;0;
11375.66;8358.592;1228.668;14370.08;12.12405;-6.544858;11955.7;6171.476;-0.1117036;0.02523829;0;
-19402.71;-16583.79;499.9241;-20361.7;14.52277;-4.126958;-20459.52;-13936.36;0.4081473;0.1551476;0;
-33852.38;-28064.22;-358.4439;-37820.46;14.70925;-2.649187;-35253.63;-23301.87;0.1478679;-0.169845;0;
-16667.47;-11461.51;-1446.615;-22203.05;11.68036;-9.143747;-17951.29;-8002.106;-0.5669215;0.09019505;0;
-13619.75;-8367.621;-2917.187;-19552.08;9.658887;-10.07232;-15102.43;-4451.955;-0.3714498;0.2850064;0;
-2855.217;-1767.355;-3433.463;-7540.209;11.1904;-11.60275;-3477.914;-1620.668;-0.1112072;-0.299986;0;
18246.16;14212.45;-2735.628;19816.07;8.83463;-12.12695;19238.48;10966.29;-0.2410301;-0.2347172;0;
20220.2;15641.48;-2006.088;25741.08;9.160546;-15.93267;21688.75;12852.52;-0.1758206;0.4801594;0;
15890.97;11817.1;-900.8303;20933.45;8.682827;-17.3233;17112.03;9083.151;0.1491928;0.2847749;0;
16751.25;12139.4;679.4372;22142.67;-4.186621;-11.14359;18158.17;9172.35;0.4089122;0.3494561;0;
11292.18;8349.037;1180.893;14378.33;-8.603044;-9.725811;11866.64;6136.452;-0.04627004;0.2191703;0;
-19607.26;-16694.64;451.1817;-20503.48;-7.522672;-5.094338;-20680.93;-14095;-0.2411256;-0.560658;0;
-34071.67;-28278.35;-398.173;-38025.61;-9.592195;-1.807056;-35473.87;-23548.44;0.2788554;-0.235258;0;
-16464.76;-11265.1;-1464.549;-22013.73;-9.046693;-3.61378;-17748.59;-7790.124;-0.04626146;0.02484774;0;
-12849.77;-7577.126;-2921.313;-18777.76;-8.43439;-2.806353;-14321.88;-3749.62;-0.04621498;-0.3000139;0;
-2311.415;-1221.891;-3437.789;-6777.051;-7.286839;0.880406;-2862.112;-1236.067;0.2786682;0.02512422;0;
18388.54;14349.71;-2740.683;20157.44;-5.538205;1.951248;19431.34;11076.55;-0.2413506;0.1550337;0;
20357.59;15771.57;-2016.901;25871.52;-1.38043;-3.141293;21815.37;12999.43;-0.3710428;-0.2349262;0;
15906.13;11833.63;-924.8756;20943.43;0.7644104;-4.946676;17123.19;9086.049;-0.04583321;-0.4295921;0;
16680.12;12071.21;648.5914;22085.86;6.390697;-5.544491;18090.54;9109.2;0.01918018;-0.1043238;0;
11476.25;8511.913;1153.092;14612.07;9.866899;-7.816278;12066.68;6272.375;0.2790303;-0.1042189;0;
-19026.38;-16133.04;425.1581;-19900.74;5.369007;-8.411271;-20091.93;-13567.38;0.3437172;-0.03914689;0;
-33510.73;-27731.24;-432.4008;-37533.55;5.564683;-9.943427;-34930.34;-23027.31;0.4083392;0.4156639;0;
-16479.61;-11275.6;-1516.624;-22080.31;5.358021;-11.07208;-17787.07;-7830.959;0.2130269;0.09040949;0;
-13056.18;-7834.151;-2983.706;-19048.7;4.28091;-11.12794;-14549.27;-3999.2;-0.04705652;-0.1045834;0;
-2151.833;-1237.623;-3495.761;-6703.238;4.746099;-16.07338;-2694.166;-1229.588;0.08292545;0.4152604;0;
18516.22;14387.39;-2808.561;20249.52;4.205467;-17.53085;19572.47;11114.77;0.01787478;-0.1698629;0;
20248.38;15690.98;-2104.061;25762.09;3.330585;-12.42265;21702.43;12915.52;-0.1120779;-0.884333;0;
15925.74;11848.2;-1008.996;20965.53;3.193516;-11.33844;17143.52;9102.344;-0.04699791;-0.4936403;0;
16844.33;12234.78;567.0856;22247.13;-0.09222201;-11.46102;18253.32;9267.688;0.082984;-0.03837295;0;
11472.58;8499.794;1060.158;14605.28;-2.637725;-11.18157;12061.97;6261.304;0.2778026;0.1565676;0;
-19358.66;-16480.32;329.5067;-20218.35;6.675675;-7.687283;-20409.23;-13912.4;-0.04731321;0.02647563;0;
-33879.24;-28069.13;-518.9138;-37876.07;8.008138;-7.076773;-35279.55;-23333.08;-0.112233;-0.363355;0;
-16707.3;-11513.59;-1586.715;-22277.15;1.570706;-8.141328;-17995.94;-7985.776;0.5375532;-0.2980226;0;
-13398.16;-8130.641;-3044.965;-19357.83;1.233359;-7.597345;-14878.29;-4266.055;0.6019803;-0.03785376;0;
-2506.2;-1389.34;-3554.694;-7037.141;-6.939554;-14.48877;-3058.821;-1405.814;0.2765388;0.02715161;0;
18461.47;14432.48;-2846.898;20207.97;-11.55428;-15.94778;19508.19;11159.69;0.4061956;-0.1028104;0;
20337.68;15751.29;-2131.708;25848.26;-4.040583;-18.41006;21794.88;12976.2;0.2758528;-0.2326417;0;
15830.64;11758.56;-1061.588;20877.43;-3.366938;-20.80289;17052.01;9013.739;0.01570625;-0.232408;0;
16550.87;11938.52;505.7231;21966.8;-11.66895;-12.34238;17960.55;8978.819;-0.1142442;-0.3621091;0;
11368.49;8413.682;1035.136;14438.84;-11.99202;-10.2535;11942.32;6179.154;0.01580526;-0.2318106;0;
-18881.17;-15963.49;346.1918;-19810.53;-11.91262;-10.77906;-19943.08;-13390.42;0.01578938;0.09325905;0;
-33167.88;-27370.62;-495.7018;-37138.97;-12.57121;-8.490875;-34565.16;-22672.97;-0.3740305;-0.03676935;0;
-16634.77;-11426.52;-1586.671;-22137.67;-5.927147;-8.214412;-17923.08;-7964.6;-0.5035894;-0.03673241;0;
-13707.85;-8462.087;-3045.186;-19637.46;-6.122262;-7.335441;-15174.18;-4603.033;-0.3731487;0.0932392;0;
-2399.689;-1461.161;-3556.056;-6967.256;5.338093;-2.840275;-2928.795;-1452.364;-0.2428391;-0.03678919;0;
18493;14376.27;-2886.723;20193.94;10.08815;-0.49314;19544.37;11111.23;0.0172743;-0.03675222;0;
20176.35;15612.09;-2170.837;25699.67;-3.518667;-5.516181;21638.46;12837.43;-0.0477104;0.09321941;0;
15951.51;11870.16;-1063.321;20974.18;-2.845546;-6.113485;17170.57;9121.533;0.1472396;0.2230604;0;
16884.15;12292.66;522.5289;22289.15;-14.43061;-2.624291;18296.41;9337.973;0.08212428;0.157869;0;
11948.61;8817.312;1054.517;15229.57;-19.43995;-2.889585;12613.55;6540.882;-0.3727296;-0.1021591;0;
-18699.79;-16036.18;336.5838;-19433.63;-8.703151;-1.480041;-19680.43;-13521.97;0.01744893;0.2877477;0;
-33487.77;-27703;-527.9138;-37484.46;-10.16827;-1.143639;-34906.95;-23053.49;0.4072354;0.4823605;0;
-16630.68;-11421.52;-1611.354;-22175.67;2.568944;-1.678353;-17931.7;-8074.14;0.2768916;0.02710447;0;
-13749.85;-8476.031;-3077.747;-19682.77;8.259789;-0.7390276;-15221.71;-4690.771;0.2766134;-0.1028575;0;
-2602.331;-1516.305;-3568.906;-7124.953;-1.997265;-6.230702;-3184.331;-1506.921;-0.1134686;-0.1677214;0;
18621.65;14559.26;-2852.257;20384.7;-0.5887381;-7.430135;19635.99;11294.6;-0.178322;0.1572838;0;
20400.31;15821.74;-2153.99;25929.12;-2.931695;-3.336771;21861.68;13038.76;0.3415959;0.6118972;0;
15949.34;11879.38;-1089.329;20972.46;-5.00583;-2.730572;17164.69;9126.942;0.2762854;0.4813477;0;
16847.54;12246.6;500.6859;22258.14;2.702359;-0.3835474;18254.9;9294.933;0.1460731;0.3509293;0;
11978.29;8890.957;1041.614;15310.87;3.837743;1.02348;12638.73;6593.681;0.3408283;0.09070731;0;
-18569.95;-15826.45;318.2584;-19277.13;-1.323677;0.9554682;-19565.72;-13301.98;0.4704205;-0.4291226;0;
-32778.25;-26991.74;-526.6057;-36826.32;-1.857234;0.4186447;-34201.99;-22521.32;0.01517647;-0.4936587;0;
-15772.17;-10509.81;-1587.231;-21327.55;-2.056439;5.977685;-17087.59;-7528.555;-0.2447082;-0.2332933;0;
-13198.58;-8000.52;-3051.243;-19101.56;-3.193448;6.976423;-14667.45;-4353.379;0.0154071;0.02681044;0;
-1959.785;-1203.019;-3538.68;-6381.171;-1.917442;-0.4655704;-2454.489;-1216.158;0.1453263;0.09175086;0;
18980.61;14777.14;-2829.823;20860.33;-3.322035;-1.670673;20061.08;11474.22;0.1451803;0.2865607;0;
20401.71;15871.36;-2126.363;25918.05;3.178038;-9.773808;21849.95;13106;0.01509972;0.6111094;0;
16097.69;12015.5;-1040.177;21125.5;7.529101;-14.25172;17313.6;9256.684;0.1450192;0.5455281;0;
16750.58;12147.03;518.4128;22168.64;-10.5641;-10.28547;18158.98;9186.022;0.2748082;0.2851106;0;
11500.51;8506.349;1030.603;14608.38;-12.89703;-12.01669;12103.98;6240.472;0.07963004;-0.2349147;0;
-18445.67;-15590.36;341.8662;-19393;-3.775372;-10.73194;-19494.84;-13032.05;0.01458269;-0.299646;0;
-32204.2;-26400.81;-495.4628;-36269.35;-3.971673;-10.38624;-33621.44;-21894.78;-0.05039931;0.02549183;0;
-15678.69;-10439.9;-1588.79;-21196.87;9.093135;-9.706038;-16979.5;-7397.912;-0.1802834;0.09043357;0;
-13244.78;-8032.336;-3066.778;-19133.43;14.04049;-7.150994;-14729.42;-4384.958;-0.3100369;0.02537535;0;
-1977.86;-1152.282;-3561.556;-6405.572;13.08935;-13.44002;-2495.281;-1211.676;-0.5695947;0.1552846;0;
18857.65;14694.27;-2851.473;20707.35;16.35776;-13.76143;19934.19;11388.27;-0.5690224;-0.03977352;0;
20384.37;15843.25;-2137.746;25898.52;12.45655;-6.982511;21835.99;13086.92;0.01625544;-0.4945049;0;
15999.86;11916.53;-1056.375;21029.75;12.10924;-5.903768;17221.2;9157.115;0.4060431;-0.3640734;0;
16629.21;12029.96;497.078;22062.56;11.15907;-1.811938;18041.57;9075.435;0.4706025;0.2209985;0;
11466.4;8477.2;1005.807;14644.8;9.540269;-0.4705808;12067.06;6216.936;0.08032559;0.1558091;0;
-18872.39;-16016.82;295.7621;-19732.14;9.932824;2.745073;-19915.06;-13454.3;-0.4394939;-0.03924947;0;
-32720.91;-26902.67;-551.7655;-36779.13;10.12391;5.354527;-34149.95;-22336.9;-0.4390523;-0.1691447;0;
-16265.03;-11043.36;-1639.617;-21747.35;4.151895;-4.229169;-17536.09;-7914.152;-0.5035784;-0.2989095;0;
-14811.65;-9443.347;-3131.938;-20602.45;2.138967;-5.832448;-16217.48;-5633.514;-0.1782357;0.1561623;0;
-3359.786;-2159.108;-3622.027;-7929.674;12.85311;-6.697366;-3896.185;-2005.299;0.08181274;0.2209727;0;
18728.68;14700.56;-2879.165;20369.73;15.45314;-9.168944;19756.44;11435.57;-0.04820415;0.1557834;0;
20490.9;15901.33;-2145.218;26016.55;13.69532;-4.872885;21956.14;13115.09;0.1467463;0.3505289;0;
16170.38;12107.66;-1033.651;21192.31;14.95436;-5.269886;17389.86;9361.15;0.2115662;-0.1045948;0;
17016.71;12419.42;533.5063;22429.24;17.08279;-3.121198;18431.56;9453.35;0.08141893;-0.4293264;0;
11742.32;8702.463;1016.227;15054.73;17.93628;-1.979352;12389.68;6442.422;0.4061738;-0.1040583;0;
-18602.86;-15815.13;296.3333;-19360.09;17.98561;-3.04909;-19611.5;-13240.02;0.3407983;-0.2988558;0;
-32476.03;-26676.49;-556.8795;-36538.28;19.6415;-1.237487;-33902.43;-22120.03;-0.04934812;-0.3635228;0;
-16220.24;-10975.27;-1663.857;-21689.49;9.977196;-7.733466;-17498.27;-7874.326;0.01566881;0.1565812;0;
-14695.73;-9364.204;-3155.294;-20482.4;7.019434;-9.266303;-16113.53;-5603.708;-0.1142816;0.09145655;0;
-3062.379;-1961.214;-3627.822;-7599.835;14.04595;-2.893735;-3592.531;-1861.393;-0.1791341;-0.2984394;0;
18896.71;14825.46;-2866.495;20615;12.55797;-2.287981;19942.7;11554.16;0.01594789;-0.2331722;0;
20496.86;15922.38;-2122.644;26032.3;18.30613;0.393513;21955.35;13136.43;-0.3738722;-0.2979052;0;
16095.95;12031.25;-1011.912;21131.95;18.88997;2.201657;17318.87;9288.63;-0.5034312;-0.1676712;0;
16891.87;12284.75;559.9718;22304.31;14.58408;0.8597859;18301.29;9320.683;-0.04815396;0.09236663;0;
11465.88;8493.708;1040.464;14638.11;13.96719;1.327802;11993.5;6228.039;0.4066658;0.02730646;0;
-19005.8;-16109.53;302.7422;-19882.55;3.570683;4.407561;-20121.71;-13506.51;0.6661265;-0.167623;0;
-32447.87;-26635.88;-541.6378;-36509.09;-0.7861851;6.613569;-33844.24;-22246.05;0.08075116;-0.1674546;0;
-15187.74;-9926.802;-1618.458;-20782.59;-3.532061;-1.56475;-16492.42;-7134.142;-0.2441667;0.1575504;0;
-12871.73;-7650.232;-3094.745;-18809.22;-7.681698;-3.4387;-14351.87;-4143.286;-0.04901932;-0.03750994;0;
-1777.819;-997.2139;-3573.425;-6104.591;-4.927313;2.994995;-2229.034;-1132.134;-0.3088394;0.0274951;0;
19105.6;14910.73;-2846.01;21077.88;-4.721292;2.18819;20220.47;11584.53;-0.2435618;0.4172715;0;
20470.44;15935.22;-2123.06;25990.51;-9.67304;8.750197;21920.43;13192.38;0.08151967;0.09201555;0;
16144.17;12067.32;-999.7401;21175.73;-10.26653;11.55457;17364.43;9305.787;0.2763398;-0.297881;0;
16796.57;12193.03;569.7105;22223.04;-2.754129;1.562743;18208.3;9237.153;0.2110948;-0.4275163;0;
11343.75;8369.291;1040.229;14444.71;-0.8763278;-0.2473664;11936.69;6121.152;-0.1789214;-0.3621194;0;
-18567.59;-15682.03;324.5902;-19507.04;3.41146;2.164268;-19624.64;-13068.39;-0.2437089;-0.03691887;0;
-31704.86;-25907.14;-513.4711;-35765.71;7.025355;1.358298;-33131.14;-21470.46;0.4711767;-0.03688177;0;
-15049.03;-9796.307;-1631.127;-20567.8;-0.1489999;-1.121313;-16367.39;-6907.043;0.79554;-0.3616814;0;
-13058.84;-7851.436;-3128.266;-18927.97;-1.488021;-2.057948;-14535.87;-4202.349;0.2100345;-0.6211873;0;
-1860.437;-1118.521;-3593.887;-6194.168;5.14393;-2.189846;-2338.98;-1140.57;-0.3748826;-0.1657918;0;
19078.46;14878.03;-2843.152;21014.76;6.010394;-2.790492;20177.74;11573.09;0.01529814;0.2891462;0;
20545.93;16018.11;-2096.981;26058.35;-0.02484111;0.6953025;21992.5;13252.68;0.3401195;0.09395363;0;
16195.76;12112.64;-975.3587;21216.79;-0.5606796;2.369177;17413.85;9351.361;-0.2449283;0.02889187;0;
16856.66;12255.99;597.8779;22286.75;-3.707948;0.02239399;18265.51;9302.047;-0.3096496;-0.1010718;0;
11429.57;8467.445;1071.851;14637.22;-6.11512;0.491252;11988.08;6198.365;0.4702697;-0.03600295;0;
-18779.71;-15879.08;325.9297;-19635.05;3.469218;2.299298;-19867.29;-13230.97;0.4697971;0.3538373;0;
-31764.6;-25964.08;-507.1042;-35865.48;6.14505;2.163021;-33175.73;-21706.29;-0.115381;0.02864503;0;
-14198.98;-8948.325;-1579.54;-19798.1;1.650896;6.112719;-15510.31;-6539.465;-0.2451998;-0.2962205;0;
-12077.41;-6810.592;-3061.082;-17951.06;2.720964;7.178304;-13554.08;-3452.896;0.01491599;-0.3608902;0;
-1580.891;-742.998;-3536.25;-5775.32;4.12475;2.683357;-2019.935;-857.979;-0.05006634;-0.2305928;0;
19106.14;14940.26;-2796.083;21145.19;4.187954;1.54195;20227.66;11596.31;0.07991865;0.4193123;0;
20653.11;16108.73;-2039.871;26173.65;7.73372;1.607384;22101.45;13367.98;0.1448057;0.418891;0;
16333.69;12256.83;-902.2513;21358.28;7.92702;1.069905;17550.1;9488.648;-0.3101112;0.02866599;0;
16993.8;12397.89;657.0126;22427.89;7.919055;-2.41416;18402.34;9448.036;-0.3747669;0.1585719;0;
11752.91;8683.683;1124.555;15053.93;8.044819;-3.282512;12400.95;6400.07;0.08038101;-0.1664242;0;
-17999.15;-15236.05;389.5591;-18804.02;3.213965;-2.27447;-19006;-12616.95;0.2102349;-0.2312243;0;
-30931.29;-25169.81;-458.0627;-35094.19;2.407428;-2.071236;-32358.18;-20918.79;-0.114813;0.09384477;0;
-14077.32;-8809.571;-1562.453;-19684.15;-4.963357;0.8779722;-15393.13;-6374.011;-0.2446323;-0.2960536;0;
-12404.86;-7238.208;-3070.593;-18300.89;-8.910485;2.283732;-13880.82;-3731.416;0.01548283;-0.3607235;0;
-1545.703;-941.4709;-3556.59;-5789.281;0.07442498;5.898393;-1997.591;-917.4693;0.08043461;-0.1004916;0;
19324.83;15065.73;-2820.76;21366.37;0.4755158;7.968937;20448.79;11733.48;-0.1145482;0.2894134;0;
20663.85;16156.45;-2083.779;26175.8;-0.7304108;9.501415;22107.6;13411.03;-0.1144331;0.2241553;0;
16312.55;12225.88;-970.9464;21330.79;-0.0600916;11.36739;17534.47;9467.627;0.2105186;-0.2958087;0;
16934.9;12336.04;568.5684;22373.33;-1.064409;9.413464;18346.75;9386.368;0.2752744;0.3541619;0;
11410.4;8441.835;1027.126;14644.35;-0.661198;10.00685;11992.69;6173.157;0.1450631;0.6786428;0;
-18353.44;-15459.59;302.1919;-19239;-4.210507;6.647772;-19419.74;-12818.57;-0.04998469;0.2881568;0;
-30977.72;-25178.52;-519.9799;-35151.52;-6.082286;4.631604;-32391.87;-20961.66;-0.1149018;0.09296527;0;
-13684.3;-8421.462;-1593.136;-19330.16;-1.319777;10.85624;-15003.31;-6110.399;-0.04981901;-0.1020302;0;
-11571.56;-6377.258;-3085.582;-17500.52;-0.3140726;11.3812;-13059.44;-3062.914;0.08016573;0.09297437;0;
-1098.252;-422.3243;-3568.159;-5248.152;-8.753851;9.360272;-1526.135;-550.035;0.1450525;0.09288095;0;
19230.15;15012.22;-2828.428;21350.75;-11.62447;9.953713;20366.18;11657.32;-0.1799299;-0.2320491;0;
20691.52;16174.53;-2091.845;26190.58;-5.183401;7.13055;22132.85;13447.95;-0.1147818;-0.03691391;0;
16370.86;12286.09;-973.0392;21386.1;-5.847778;6.788471;17590.77;9519.64;0.3401049;-0.1668115;0;
16950.02;12358.86;577.191;22394.86;-5.507109;6.647684;18362.4;9415.091;0.2098285;-0.3615459;0;
11568.77;8563.408;1051.638;14818.43;-4.3625;5.770226;12194.2;6297.302;-0.1801864;0.02862142;0;
-18297.7;-15449.3;343.218;-19127.6;-12.12765;9.314402;-19317.5;-12821.48;-0.3749074;0.02859266;0;
-31071.87;-25270.82;-482.2746;-35240.91;-13.18719;9.23806;-32506.61;-21003.49;-0.04969395;-0.2962728;0;
-14225.52;-9009.243;-1562.419;-19837.5;-15.45209;10.36749;-15557.61;-6573.164;0.08029067;-0.1010731;0;
-13137.46;-7832.965;-3062.594;-19008.41;-17.98118;10.2231;-14627.08;-4296.825;-0.2446267;-0.03600416;0;
-2470.736;-1465.635;-3551.816;-6872.897;-8.853437;7.198722;-2976.727;-1365.432;-0.1144462;-0.1659027;0;
19017.68;14913.89;-2793.705;20843.47;-7.57272;6.052779;20092.97;11599.58;0.2105055;-0.1007686;0;
20729.29;16167.56;-2041.29;26244.16;-5.689101;1.157065;22176.13;13405.26;0.08035927;-0.03570003;0;
16364.06;12298.28;-927.5007;21375.32;-1.999689;-0.7196199;17573.93;9539.759;0.01531119;0.1592379;0;
17173.9;12572.66;632.9286;22581.43;-10.2367;-4.402836;18573.91;9620.862;-0.1146389;0.09411054;0;
11821.45;8808.831;1110.537;15193.84;-9.824275;-6.139907;12435.5;6492.076;-0.1145237;0.02904862;0;
-18248.83;-15400.26;366.8565;-19020.03;-8.474257;-4.258277;-19313.95;-12841.37;0.2753954;0.1589541;0;
-30970.08;-25191.58;-474.7924;-35191.46;-9.068954;-4.120032;-32455.91;-21087.74;0.2101514;0.3536964;0;
-13599.97;-8343.424;-1535.469;-19285.21;1.054215;0.2378762;-14999.25;-6223.481;-0.04992915;0.4183084;0;
-11920.89;-6697.004;-3028.3;-17878.79;3.397681;1.778245;-13487.27;-3497.517;-0.1798137;0.028084;0;
-1461.635;-713.0923;-3534.501;-5715.371;5.738791;8.273681;-1966.66;-834.1054;-0.2446003;-0.2967809;0;
19265.87;15073.6;-2800.692;21320.89;8.143923;12.21724;20368.9;11706.98;-0.1144199;-0.03661335;0;
20712.8;16181.7;-2071.29;26188.98;2.777105;8.119125;22134.41;13429.36;-0.3092069;0.2882602;0;
16329.5;12249.97;-978.9444;21323.47;1.234073;9.919384;17520.2;9466.302;-0.3738636;0.02810113;0;
17000.32;12399.86;551.5517;22396;1.366555;5.421682;18386.62;9426.523;-0.1785859;-0.4266985;0;
11333.49;8366.265;1003.817;14386.56;0.09238385;3.20592;11866.87;6094.3;-0.1784064;-0.101433;0;
-18581.11;-15652.34;290.4787;-19662.35;-6.471792;10.1017;-19763.79;-13054.42;-0.1782272;0.1585383;0;
-30690.81;-24927.55;-512.7377;-35035.23;-8.876187;9.689649;-32256.72;-20870.8;-0.04811342;0.09341162;0;
-13279.25;-8068.417;-1580.279;-19129.01;-10.67593;10.34974;-14747.53;-5963.504;0.146837;0.02835041;0;
-11498.02;-6359.228;-3063.102;-17603.5;-13.14345;10.54029;-13148.34;-3167.477;0.08172207;-0.1016128;0;
-977.5576;-441.9185;-3543.952;-5249.184;-7.771607;6.443863;-1538.252;-611.9052;-0.2431968;-0.6212494;0;
19310.2;15023.17;-2801.513;21386.66;-7.89752;5.968508;20392.52;11640.8;-0.4378544;-0.4257231;0;
20643.96;16145.12;-2058.804;26115.83;-3.335233;-0.936609;22049.03;13379.74;-0.5023818;0.2893454;0;
16328.84;12240.52;-957.6317;21305.47;-0.3851212;-4.083744;17501.56;9434.819;-0.3719423;-0.03578205;0;
16895.16;12285.04;566.5493;22284.94;-6.747747;0.006196512;18265.44;9307.991;0.01823546;-0.3605828;0;
11132.33;8251.416;1021.423;14202.66;-5.334447;-1.333346;11640.05;5952.321;0.5379559;-0.03538378;0;
-18749.51;-15726.86;314.0173;-19851.83;-13.09862;1.816069;-19980.74;-13163.45;0.08264393;-0.1652829;0;
-30645.99;-24883.54;-487.0208;-35044.11;-16.90385;3.019937;-32278.32;-20897.48;-0.3072431;-0.2300842;0;
-12913.71;-7693.147;-1543.813;-18801.54;-3.020789;-0.8011244;-14454.64;-5808.822;0.147837;-0.03495096;0;
-11045.27;-5912.48;-3026.796;-17175.19;-2.147097;-0.8673024;-12759.9;-2906.176;-0.112181;-0.03491585;0;
-806.7998;-283.6159;-3517.663;-5021.786;-0.06883491;-2.607865;-1390.788;-471.431;-0.631807;0.1600213;0;
19325.58;15068.95;-2787.353;21454.44;3.079066;-4.011886;20409.61;11677.78;-0.3063354;0.02992579;0;
20736.43;16238.29;-2055.294;26188.9;-9.717402;-0.05598414;22132.1;13463.22;-0.04615825;-0.1650063;0;
16407.01;12311.38;-945.4261;21375.79;-12.6544;1.015799;17568.78;9505.769;-0.1760466;-0.03490582;0;
16967.23;12366.33;587.0353;22370.44;-8.354775;-4.075802;18334.34;9373.842;-0.04593497;-0.09983809;0;
11354.03;8470.814;1035.86;14478.73;-9.418108;-4.540587;11856.37;6155.27;0.2789479;0.09516427;0;
-18685.51;-15675.36;306.9039;-19748.16;-13.82927;-2.727486;-19943.33;-13183.6;0.1487329;0.09506865;0;
-30962.3;-25197.66;-533.4041;-35391.08;-16.69577;-2.523797;-32634.01;-21180.91;0.01864879;-0.03496158;0;
-13494.07;-8296.776;-1621.196;-19377.57;-9.377973;1.162678;-15059.07;-6155.62;-0.04633729;0.09500825;0;
-11961.11;-6772.046;-3115.628;-18104.09;-8.095752;2.903066;-13701.97;-3549.211;0.08364395;-0.03502191;0;
-1511.998;-826.7576;-3611.887;-5896.678;-13.04509;2.297303;-2143.303;-937.19;-0.04637478;0.02998062;0;
19194.46;14968.21;-2877.531;21200.27;-11.96025;2.763875;20256.87;11591.13;-0.1112955;0.2248525;0;
20621.57;16101.45;-2135.886;26067.4;-17.37324;5.038396;22018.42;13315.9;0.1486857;0.3545613;0;
16274.79;12192.75;-1022.392;21242.43;-18.89603;4.899367;17434.14;9385.462;0.08356893;0.2892377;0;
16933.75;12319.75;513.7698;22303.2;-11.04113;6.970915;18294.47;9317.357;-0.3063191;-0.1658244;0;
10895.78;8050.968;957.5771;13796.93;-9.15403;8.504519;11343.45;5803.866;-0.435946;-0.2306251;0;
-19466.96;-16427.1;229.9021;-20716.67;-6.532864;-0.3456521;-20774.17;-13836.07;-0.5654426;-0.03549132;0;
-31510.46;-25736.07;-599.4903;-35922.26;-2.908977;-1.41691;-33176.13;-21625.9;-0.3699724;-0.1653903;0;
-13867.67;-8658.901;-1698.726;-19735.3;-6.389655;-2.085315;-15420.87;-6385.129;-0.04476398;-0.03528947;0;
-12266.08;-7036.184;-3203.777;-18395.21;-6.449607;-3.757793;-14006.6;-3732.887;-0.239621;0.159648;0;
-1803.661;-941.7991;-3689.843;-6273.844;5.545964;4.015759;-2461.692;-1001.866;-0.3043476;0.1594876;0;
18998.54;14880.38;-2940.229;20860.62;9.626228;4.815519;20036.13;11522.85;-0.1091398;0.02939266;0;
20653.51;16107.32;-2192.228;26109.32;2.316514;10.37014;22058.86;13312.66;-0.1739974;-0.03560422;0;
16329.07;12246.66;-1073.648;21287.67;2.38056;13.17301;17490.73;9453.965;-0.1088553;0.09436626;0;
17112.96;12503.89;474.3246;22487.23;1.507511;7.466341;18483.65;9505.81;-0.1737132;0.2891735;0;
11350.23;8484.048;898.3066;14527.22;-1.374391;7.056942;11869.49;6231.524;0.08633069;0.1589482;0;
-19172.31;-16160.06;122.9183;-20160.5;3.918275;4.571482;-20406.61;-13585.34;0.281146;-0.2310156;0;
-31578.41;-25795.71;-727.4498;-35971.03;2.507819;3.227352;-33234.79;-21609.65;-0.1089406;-0.1658161;0;
-14496.78;-9318.479;-1825.417;-20284.1;0.1617502;-2.335352;-16022.97;-6836.634;0.3459403;-0.2955842;0;
-13651.85;-8337.823;-3333.027;-19708.43;0.09423872;-5.749074;-15346.09;-4881.681;0.9302987;-0.5551565;0;
-2846.835;-1696.155;-3815.012;-7512.001;-14.77534;-1.858348;-3518.126;-1694.157;0.4745926;-0.1647947;0;
18832.79;14824.53;-3059.306;20546.62;-19.85168;-2.995191;19854.72;11490.87;0.149279;0.1602077;0;
20568.37;15978.72;-2301.487;26034.92;-17.21879;-0.1790203;21982.21;13181.92;0.344031;0.1600467;0;
16177.78;12118.98;-1163.604;21175.66;-20.41667;1.42875;17349.13;9343.851;0.278718;0.2898206;0;
16937.83;12321.35;386.6767;22291.64;-14.569;-4.400079;18308.88;9321.999;0.1485033;0.1595947;0;
10749.35;7903.532;818.1024;13616.22;-13.14785;-5.534307;11209.41;5695.435;0.2133214;-0.03546775;0;
-19924.96;-16851.36;65.14275;-21176.64;-15.41181;-1.643796;-21191.33;-14194.09;0.2780744;-0.1003994;0;
-31818.98;-26046.27;-785.1672;-36162.77;-13.58766;-1.30723;-33420.05;-21911.55;-0.04704173;0.02963611;0;
-13932.65;-8689.089;-1870.161;-19750.59;-15.51737;-2.176695;-15430.39;-6290.859;0.08294022;-0.1003283;0;
-12032.4;-6857.961;-3334.95;-18148.83;-14.69749;-1.370712;-13721.6;-3520.006;0.1478242;-0.1651949;0;
-1336.054;-703.6602;-3812.389;-5758.646;-14.34793;-4.651499;-1967.257;-874.7965;-0.177161;0.1598078;0;
19065.19;14833.61;-3087.671;21036.11;-15.20417;-4.780791;20112.78;11476.56;-0.04704832;0.09467991;0;
20461.76;15949;-2330.557;25946.64;-7.08457;-2.163653;21879.69;13186.73;0.08293363;0.09458478;0;
16206.03;12122.56;-1167.548;21197.55;-5.469861;-1.223717;17385.64;9337.983;-0.3069538;0.2244244;0;
16841.54;12225.07;394.3716;22234.86;-6.937257;2.796366;18222.3;9242.737;-0.241678;-0.1656051;0;
10646.46;7874.391;817.2938;13619.32;-4.45204;4.802922;11151;5703.131;0.2783036;-0.4253081;0;
-19946.71;-16805.78;66.33402;-21096.92;-17.30829;5.534908;-21157.2;-14071.74;-0.04681275;-0.100044;0;
-31684.89;-25898.95;-756.9907;-36041.9;-21.30939;5.864262;-33261.91;-21659.37;-0.3716024;-0.1649109;0;
-13991.09;-8787.234;-1840.154;-19796.13;-9.968469;10.54705;-15456.86;-6322.996;0.08354235;-0.6195166;0;
-12627.9;-7384.137;-3331.398;-18677.14;-9.288867;11.80913;-14268.21;-3957.5;0.2783604;-0.22909;0;
-1906.296;-1046.369;-3786.305;-6297.053;-10.55233;6.505735;-2503.892;-1101.129;-0.241658;0.3558463;0;
18953.01;14832.33;-3005.188;20923.1;-9.470001;6.298249;20015.81;11503.13;-0.6312192;0.1605867;0;
20444.25;15895.85;-2224.809;25929.83;-7.383405;-2.348634;21874.39;13129.26;-0.3057483;-0.2293787;0;
16164.1;12091.27;-1056.019;21177.8;-4.630296;-5.896308;17359.23;9331.361;-0.04557168;-0.1641809;0;
16878.56;12264.95;500.916;22269.07;-8.577759;-1.737503;18270.9;9286.409;-0.04552589;-0.0990486;0;
10608.75;7809.574;915.6258;13523.02;-7.965927;-3.544296;11129;5650.104;-0.1104475;-0.03398174;0;
-20069.1;-16938.24;175.8116;-21239.57;-3.403572;3.626317;-21240.45;-14184.25;0.08456552;0.0959871;0;
-31672.75;-25910.5;-639.674;-35998.32;-2.864288;6.5698;-33200.66;-21700.97;0.3443499;0.4856947;0;
-13812.17;-8595.689;-1717.848;-19581.02;3.367881;-0.001006388;-15232.58;-6149.959;0.08413454;0.7450761;0;
-12273.19;-7087.384;-3198.721;-18278.61;4.905714;0.4008922;-13866.6;-3672.975;-0.04588468;0.1596213;0;
-1463.055;-846.5367;-3666.801;-5849.75;7.914895;3.280756;-2028.593;-949.8388;-0.04583858;-0.1653758;0;
19099.8;14856.5;-2912.713;21066.41;11.52329;4.282081;20176.69;11519.08;0.01917483;-0.1002423;0;
20422.57;15920.53;-2138.174;25928.13;-0.2763106;4.344761;21860.95;13177.23;0.0841229;-0.3600109;0;
16270.05;12185.32;-980.3874;21271.74;-0.6108257;5.010225;17475.63;9426.167;-0.04589631;-0.03481248;0;
16906.83;12299.89;557.5283;22319.08;-3.75902;4.804242;18305.85;9326.335;-0.1757849;-0.09974484;0;
10763.93;7946.261;981.286;13766.89;-7.237867;3.593844;11274.43;5804.385;-0.1106409;-0.6843507;0;
-19852.73;-16781.77;234.2532;-20950.09;8.777961;11.56096;-21017.61;-14045.39;0.214307;-0.2288917;0;
