Fp1;Fp2;O1;O2;POLY3;POLY4;A1;A2;Video;Audio;event;
1370.219;588.1478;-22.52758;2366.826;-2.158099;-1.560127;1496.891;93.28311;-0.1347423;0.08783584;0;13:17:39 Глаза закрыты;
-8252.696;-9043.57;299.1615;-6944.748;10.70479;-3.367037;-8158.885;-9544.403;0.1902298;-0.1721218;0;
-17033.63;-17817.46;390.799;-15800.64;14.31038;-5.774979;-16941.66;-18319.49;0.1250713;0.1528879;0;
-16006.77;-16780.02;200.5018;-15063.08;18.78398;-1.48239;-15897.21;-17274.79;-0.004989009;0.2177016;0;
-16378.57;-17151.14;207.984;-15405;24.05639;-0.8780544;-16268.92;-17643.72;0.1249507;-0.1073539;0;
-17045.25;-17814.31;190.1745;-16146.08;17.26707;-9.383821;-16952.13;-18310.21;-0.1350442;0.08765603;0;
-7672.999;-8437.008;-123.0467;-7092.009;17.31707;-10.78097;-7588.934;-8929.502;-0.1998759;0.1525353;0;
625.3247;-150.504;-218.3439;1264.67;20.38112;-13.65035;709.3991;-637.2871;0.2550963;0.08741468;0;
-505.5168;-1293.965;-20.92675;384.1854;17.94877;-16.11494;-437.0503;-1787.506;0.3847747;0.2172616;0;
200.5428;-588.4255;-26.38734;1053.432;28.37959;-9.333652;254.2291;-1085.687;0.4493554;0.0221412;0;
739.8201;-52.25965;-14.11698;1674.092;31.16509;-8.520478;780.459;-547.6155;0.3839366;0.1520537;0;
-8901.796;-9694.517;276.4543;-7645.813;14.11986;-8.243985;-8900.803;-10199.12;0.1236814;0.08693352;0;
-17520.2;-18315.84;366.7091;-16325.75;11.02519;-7.431967;-17538.87;-18807.51;-0.1363122;-0.04308852;0;
-16460.82;-17282.39;178.8411;-15537.2;9.942387;-6.888636;-16463.02;-17725.35;0.05872677;0.2817915;0;
-16809.54;-17673.47;173.9763;-15862.93;7.18573;-6.144902;-16810.18;-18068.7;0.5134392;0.08660631;0;
-17354.9;-18244.39;167.2423;-16767.09;9.724106;-9.956694;-17353.52;-18610.64;-0.07178283;-0.1733501;0;
-7921.083;-8798.794;-133.9151;-8154.973;8.843678;-10.75042;-7900.643;-9164.317;-0.3315801;-0.1082086;0;
407.3505;-463.232;-232.5434;-97.19952;12.45114;-14.02172;423.6469;-841.319;0.1884918;-0.1080998;0;
-673.9843;-1566.493;-44.8727;-1056.62;12.03746;-16.61991;-690.4689;-1941.514;-0.1365343;0.08691082;0;
90.9963;-812.8282;-60.49162;-274.8565;18.45475;-11.11073;50.57147;-1180.944;-0.3962664;0.1517908;0;
691.072;-202.1306;-26.57285;583.582;20.51329;-10.4298;637.663;-583.0889;-0.006064219;0.02170363;0;
-8975.967;-9843.987;312.9863;-8765.571;11.91886;-15.24197;-9046.267;-10259.61;0.1238766;0.08664916;0;
-17597.89;-18425.21;406.6246;-17614.08;12.04061;-16.09737;-17662.44;-18875.03;-0.006182597;-0.04337259;0;
-16410.05;-17207.02;186.7951;-16835.74;-0.4300716;-13.20099;-16454.69;-17663.66;-0.3310131;0.02163834;0;
-16687.88;-17476.54;177.7056;-17153.54;-4.850269;-12.85287;-16731.54;-17956.5;-0.2657132;0.02161659;0;
-17350.83;-18109.87;170.9053;-17886.97;0.9817537;-13.64369;-17368.93;-18659.19;-0.2654462;-0.1083398;0;
-8095.275;-8789.618;-123.4935;-8876.172;-0.3584034;-13.36205;-8047.438;-9379.942;-0.5900161;-0.1731983;0;
17.69177;-623.5112;-215.3856;-628.5194;6.339762;-14.15242;111.0197;-1214.336;-0.2645866;-0.1080569;0;
-1318.623;-1932.351;-29.01279;-1627.479;8.074704;-14.1382;-1223.64;-2545.821;0.06051598;0.2168884;0;
-718.6927;-1328.712;-28.78061;-985.6656;14.83174;-13.45416;-625.679;-1984.919;-0.1344468;0.1517031;0;
-285.0632;-917.7081;-12.15066;-387.6316;19.84068;-12.97176;-184.5842;-1606.083;-0.4591485;0.02161598;0;
-10174.02;-10809.38;295.8161;-9860.527;10.57735;-13.36063;-10073.85;-11509.87;-0.3937198;0.0865616;0;
-18991.47;-19588.91;404.3236;-18730.63;10.433;-13.21324;-18860.46;-20262.61;-0.003520109;0.151442;0;
-18054.01;-18641.02;201.6284;-18092.63;10.48986;-10.98958;-17880.93;-19255.75;-0.06848391;0.02135511;0;
-18581.3;-19216.91;185.4338;-18586.02;8.134798;-10.17481;-18440.41;-19788.59;0.06151958;-0.04363369;0;
-19205.58;-19884.49;162.2903;-19195.3;13.88642;-8.289061;-19097.85;-20436.04;0.4512618;0.08634484;0;
-9858.069;-10552.58;-158.2742;-10101.8;14.54303;-6.204322;-9741.59;-11083.34;-0.06893034;-0.1736113;0;
-1983.274;-2682.65;-268.1224;-2169.715;6.35577;-10.81979;-1888.041;-3199.943;-0.1338284;-0.4333062;0;
-3510.2;-4229.8;-80.68147;-3166.782;3.671042;-11.6797;-3427.182;-4754.258;-0.003759271;-0.1080341;0;
-3024.478;-3742.199;-71.51122;-2642.862;8.020634;-7.31419;-2964.625;-4254.885;-0.3285922;-0.04295821;0;
-2804.485;-3549.284;-29.88213;-2194.68;7.945226;-8.512473;-2721.986;-4024.286;-0.13336;0.02205229;0;
-12936.34;-13730.71;292.6264;-12135.04;3.115447;-2.743509;-12853.94;-14194.5;0.3215454;0.1519648;0;
-22269.52;-22970.71;384.0051;-21736.51;2.174312;-1.334172;-22195.37;-23421.31;0.1263203;0.08684478;0;
-21720.73;-22479.02;178.6597;-21136.85;0.7656075;-9.772498;-21546.72;-22975.66;-0.7183821;0.3466269;0;
-22991.52;-23616.29;190.318;-24737.53;-0.8427522;-10.49943;-23151.05;-24110.82;-0.7176602;0.2813113;0;
-24353.32;-25025.57;192.4694;-27222.37;3.445002;-18.12475;-24625.29;-25516.64;-0.002298398;-0.1737428;0;
-15600.99;-16295.95;-120.3638;-15862.25;3.977404;-21.38864;-15483.17;-16801.33;0.1276386;-0.1735682;0;
-8391.255;-8875.293;-215.5855;-7864.267;3.302846;-16.81243;-8215.152;-9274.907;0.1924777;0.2164102;0;
-9761.287;-10684.49;-17.43713;-9240.871;4.371254;-17.13046;-9529.437;-11226.2;0.1273169;0.1512254;0;
-10629.74;-10855.7;-17.68511;-10127.12;1.687545;-14.09907;-10558.34;-11300.03;-0.1976477;-0.4336326;0;
-9739.189;-10819.83;13.17654;-8819.503;2.087991;-13.08016;-9420.641;-11465.24;0.1273876;-0.4331969;0;
-21762.4;-21162.32;321.6489;-22688.17;1.952171;-6.502872;-22156.78;-21765.04;0.582031;0.1519445;0;
-37129.83;-31068.77;417.3555;-44649.07;2.352351;-2.812338;-39443.77;-30901.6;0.1266748;0.02185712;0;
-34775.3;-29825.49;232.9193;-44675.4;5.43047;-6.493513;-36921.75;-29983.57;-0.2632565;-0.4979036;0;
-38724.13;-32458.12;204.7149;-48933.16;6.697812;-4.477561;-41293.15;-31055.15;-0.06809001;-0.2375339;0;
-41674.94;-34244.64;135.1691;-52101.27;11.24641;-10.50134;-44685.39;-32022.57;-0.06802159;-0.04239322;0;
-22714.18;-22323.33;-171.4377;-26982.45;13.57866;-13.371;-23442.11;-22692.32;-0.2628553;-0.2372526;0;
-12923.94;-14381.89;-240.1839;-12415.95;12.96278;-3.779246;-12632.74;-15217.39;-0.002721779;-0.1720469;0;
-15309.56;-15733.93;-33.37453;-15254.77;12.81603;-3.574499;-15430.18;-16308.34;0.2571503;0.1529627;0;
-15135.77;-16156.96;-38.3541;-14916.72;17.29016;-5.178437;-15091.03;-16568.25;0.1269573;0.2177763;0;
-13864.73;-14853.79;3.897597;-13674.28;17.94334;-4.3695;-13965.46;-15722.99;-0.003104998;0.02265547;0;
-30168.72;-27854.37;340.2871;-34290.66;11.29388;-9.187758;-32145.56;-27125.76;0.1268328;-0.04233464;0;
-55622.19;-46493.97;254.5662;-65840.92;10.47825;-8.642663;-59783.24;-41227.22;0.3216074;0.1526099;0;
-53909.99;-43347.42;-100.5581;-65432.62;1.827533;-14.79629;-58065.85;-38558.71;0.2563169;0.0225219;0;
-56307.2;-45980.32;-115.3714;-66791.92;-1.656928;-16.85783;-60022.97;-40507.51;0.1261247;0.2823687;0;
-58694.85;-49061.04;-247.0174;-69286.63;3.970815;-7.329558;-62105.13;-42909.75;-0.1988388;0.6718889;0;
-30376.31;-27288.29;-499.5796;-36416.48;4.502689;-6.719347;-31920.42;-26555.2;-0.3285737;0.1514751;0;
-14977.71;-16255.95;-390.7415;-14635.82;2.957923;1.660028;-14722.64;-17496.29;0.1914952;-0.2384811;0;
-18732.58;-19351.89;-113.9097;-17863.22;0.8114971;5.007506;-18497.04;-19801.35;0.3862048;-0.3032089;0;
-18238.19;-19013.45;-84.35688;-17565.55;10.79004;1.988243;-18042.34;-19847.83;-0.003987281;-0.3678715;0;
-17373.29;-18104.09;-26.2544;-16931.74;7.966159;3.727801;-17232.5;-18857.73;0.3208534;-0.3025346;0;
-39706.83;-35283.13;295.7664;-43823.82;13.04935;-4.44768;-41407.23;-32895.56;0.6453677;-0.1722959;0;
-71913.55;-61476.03;133.6755;-80328.34;12.83516;-6.251688;-75107.66;-54036.77;0.3198826;-0.04218807;0;
-71727.1;-60968.65;-405.5472;-80953.08;-11.82745;-9.996329;-74673.84;-52918.95;-0.005275557;0.02282166;0;
-74185.77;-63870.65;-568.8855;-82940.91;-14.89605;-13.73727;-77010.29;-56084.63;-0.4600416;0.4775701;0;
-75115.49;-64675.05;-719.4099;-84605.1;-52.12311;-4.948884;-78073.46;-57112.9;-0.3296447;0.3471556;0;
-39656.92;-34550.69;-937.2333;-46303.02;-67.4097;-3.336381;-41301.03;-31724.59;-0.06944412;-0.3028667;0;
-17411.69;-18268.69;-700.7382;-17547.23;-40.01293;-5.811337;-17253.35;-19203.04;-0.199309;-0.237595;0;
-20587.79;-21552.72;-265.2838;-19353.06;-40.77701;-4.197968;-20317.36;-22188.38;0.06076061;0.08748044;0;
-20223.15;-21045.92;-151.3869;-19188.81;-21.44495;-3.925818;-19956.81;-21657.77;0.2556016;0.1523599;0;
-19366.44;-19975.66;-36.80791;-19493.28;-11.17563;-4.122822;-19462.59;-20647.03;0.1254101;0.2171741;0;
-46333.56;-41081.68;252.2401;-51199.13;-9.355736;1.239894;-48469.34;-37859.58;-0.06961796;0.2169559;0;
-82357.93;-71780.91;17.16713;-89797.45;-0.8398685;1.372614;-85406.52;-63897.63;-0.004580674;0.1517706;0;
-81205.75;-70682.56;-546.3481;-89568.9;-2.446615;0.2325251;-83834.79;-62525.15;0.190326;0.02168339;0;
-83283.3;-73058.47;-706.5309;-91422.28;1.173166;-0.5715037;-85766.82;-65134.07;0.1901347;0.08662894;0;
-85406.3;-74808.8;-829.8211;-94677.64;-6.262753;-8.541716;-88020.84;-66793.8;-0.134893;0.1515093;0;
-46814.47;-40860.76;-1036.695;-54848.86;-8.802055;-11.68127;-48558.68;-37064.68;-0.3296595;0.08638966;0;
-19491.03;-20012.4;-761.2291;-21667.8;-6.516035;-18.90351;-19549.59;-20714.39;-0.1344263;0.1512702;0;
-22382.19;-23453.94;-282.4077;-24595.5;-7.647588;-23.64018;-22446.25;-24182.24;-0.004356503;-0.2386858;0;
-21977.76;-22991.14;-164.761;-23537.2;-10.1855;-21.87493;-21979.54;-23583.98;-0.1342868;-0.238446;0;
-21999.69;-21854.48;-31.95904;-23217.84;-11.78286;-23.86238;-22282.25;-22416.84;-0.06918453;-0.0433044;0;
-53782.07;-46960.01;229.8477;-60335.76;-4.872139;-21.69501;-56095.13;-43120.95;0.320689;0.02170645;0;
-91612.73;-80901.52;-44.07376;-99692.09;-4.465102;-20.60148;-94384.51;-72608.82;0.1904321;0.02168464;0;
-90223.18;-79845.13;-587.1158;-98929.78;0.7633212;-19.84403;-92511.05;-71515.2;-0.004661254;-0.04330449;0;
-92661.61;-82452.25;-711.1976;-101184.2;3.107079;-17.07785;-94793.18;-74475.38;0.3201801;0.08667371;0;
-95047.35;-83915.98;-831.2661;-104296.9;-8.215549;-18.53425;-97315.71;-75735.7;-0.06994563;0.4114233;0;
-54323.03;-46724.8;-1097.828;-63702.27;-12.69527;-17.24302;-56143.35;-42327.07;-0.4596794;0.5409446;0;
-23261.39;-22129.12;-846.9907;-27858.34;-7.457603;-10.79545;-23983.73;-22589.69;-0.3292828;0.3454991;0;
-26809.13;-25225.31;-332.8976;-31754.8;-8.655559;-8.373278;-27906.78;-25997.76;-0.2639846;0.1502499;0;
-25754.84;-24846.25;-190.166;-30075.02;-21.10544;-5.484659;-26410.5;-25547.92;0.06111734;0.08513154;0;
-25674.7;-24438.38;-43.95452;-29025.53;-23.02662;-3.00084;-26582.04;-24403.06;0.3209253;-0.3697254;0;
-62519.98;-54047.54;202.8719;-69913.56;-35.0609;-4.203518;-65381.86;-48810.32;0.2556355;-0.3693539;0;
-100857;-90132.35;-74.69258;-108752.5;-41.65612;-3.529465;-103644.4;-81442;0.1254439;0.2157233;0;
-96527.81;-86622.96;-612.1599;-105126.9;-18.64046;-3.458935;-99102.63;-78452.98;-0.06958413;0.3454413;0;
-97567.5;-87472.01;-761.8442;-106159.8;-13.59789;-3.723392;-100224.9;-79284.75;-0.1344815;0.2151595;0;
-97913.07;-87654.47;-871.2889;-107226.5;-15.59299;-5.729077;-100750.6;-79429.14;-0.06937908;0.08500858;0;
-55402.85;-47946.15;-1107.763;-64764.93;-9.750168;-7.732748;-57856.16;-43501.93;0.06062531;0.2798252;0;
-22170.12;-21386.52;-861.8666;-26340.12;-11.34796;-3.907073;-23156.75;-21849.3;0.3204338;0.3445114;0;
-23024.97;-23540.81;-336.9827;-26693.05;-8.188727;-3.836164;-24376.65;-24512.23;-0.06969226;-0.1755735;0;
-22567.52;-22952.25;-203.1487;-24693.81;-5.903324;-9.39177;-23317.51;-23497.75;-0.3294916;-0.1753971;0;
-20397.3;-20678.53;-84.30111;-20745.96;-6.298557;-10.65495;-20596.26;-21310.11;0.1905782;0.01968114;0;
-49723.8;-43416.34;185.726;-54568.05;7.304453;-12.05088;-52078.84;-39609.56;0.3203214;-0.04530598;0;
-82680.3;-71756.96;-82.99747;-89204.21;11.24923;-13.17742;-85559.03;-63280.81;-0.1997392;-0.1102278;0;
-75355;-65290.59;-599.2483;-81822.9;1.056519;-11.89157;-77669.06;-56919.24;-0.004636474;0.08478498;0;
-72713.23;-62251.56;-741.5743;-79690.3;0.653316;-11.07582;-75312.12;-53761.29;0.5151069;0.2146345;0;
-68804.14;-58832.41;-851.5704;-75589.63;-3.969041;-14.21283;-71202.69;-51486.43;0.25472;-0.2403526;0;
-31713.02;-27668.31;-952.3043;-35631.66;-6.778092;-15.67212;-32810.66;-25827.4;0.254464;-0.4350131;0;
-11857.62;-12953.56;-674.1118;-10778.52;-5.364761;-5.743137;-11491.23;-14041.27;0.6440124;-0.04477194;0;
-14262.39;-15610.64;-294.2188;-12210.87;-6.899612;-3.928889;-13706.55;-16212.23;0.1236265;0.2151424;0;
-11531.1;-12137.26;-216.5558;-10444.39;-4.615504;-5.130573;-11317.21;-12823.56;-0.136367;0.2798936;0;
-10143.11;-11672.71;-127.1487;-7900.839;-4.342447;-2.848059;-9532.038;-12374.55;-0.006295333;0.01974297;0;
-20055.4;-19894.11;226.6295;-19854.34;-2.865191;-12.82541;-20371.83;-20538.54;0.05867833;0.08469047;0;
-32150.63;-27111.25;318.5586;-35936.41;-2.058029;-14.82195;-34167.59;-27762.93;-0.006347968;0.4744094;0;
-27529.71;-24575.25;108.7188;-29465.75;0.8244274;-12.66366;-28488.02;-25179.16;-0.3311783;-0.04580599;0;
-22590.5;-23428.9;131.2856;-23677.2;3.636638;-14.05758;-23013.21;-24123.29;-0.3308455;-0.5654987;0;
-22926.62;-22896.6;111.6948;-24486.17;-6.14628;-8.818909;-23758.89;-23560.32;-0.2005784;0.01977559;0;
-10924.04;-11782.67;-230.1051;-9374.543;-8.953143;-7.604355;-10553.63;-12440.39;-0.2653442;0.3445925;0;
-1061.659;-2359.123;-321.0156;1052.89;2.642802;-3.979758;-528.8357;-3019.434;0.05975912;0.1493442;0;
-1404.201;-2303.061;-106.3476;488.3338;5.185742;-0.2247757;-1153.771;-2954.838;-0.07023561;0.3440961;0;
1119.005;-128.5889;-98.82262;3498.798;-2.522628;-6.654789;1544.439;-797.7951;-0.3950017;0.4736851;0;
2488.161;1458.805;-63.05376;4699.99;-2.385395;-6.58112;2785.262;795.9558;0.1251339;-0.04652964;0;
-6217.746;-7341.707;249.1808;-3504.877;-0.5743372;-0.6801308;-5856.991;-8015.103;0.3848775;-0.5012543;0;
-13547.7;-14641.25;334.9809;-10985.67;-0.9759018;-0.009618135;-13189.45;-15311.44;-0.2002153;-0.2408812;0;
-11142.99;-12174.87;145.8018;-8824.822;5.18702;3.741314;-10764;-12827.86;-0.3299488;-0.1107045;0;
-10376.85;-11468.98;144.3122;-7903.539;6.253536;5.814025;-9966.878;-12110.85;0.0601868;-0.240528;0;
-9470.403;-10531.86;101.954;-7160.451;5.376596;2.124122;-9102.995;-11162.69;-0.004841023;-0.370221;0;
1601.411;487.7209;-225.9055;3609.084;4.902679;2.322937;1985.723;-125.5439;-0.1997382;-0.2399143;0;
10909.06;9795.364;-312.4787;12902.1;5.567338;1.449946;11273.93;9194.304;0.3851686;0.6049022;0;
11065.64;9948.284;-117.7;13235.49;6.633471;0.3767625;11410.34;9341.269;0.5796836;1.059066;0;
13442.45;12317.62;-135.6507;15563.98;-6.702432;3.99334;13785.24;11715.53;0.05936239;0.5382629;0;
15185.68;14059.46;-100.5164;17463.97;-10.0446;4.391225;15523.82;13470.8;0.2542048;0.01798333;0;
6785.543;5652.019;223.9372;9400.314;-7.35519;3.047154;7109.288;5055.461;0.383884;0.1479;0;
45.04703;-1078.093;303.875;2514.232;-9.491253;3.512973;376.8063;-1683.202;0.1885963;0.3426534;0;
2785.281;1671.109;107.5744;4932.396;-1.779533;1.901975;3146.129;1073.854;0.6431782;0.147407;0;
3588.389;2475.9;104.3742;5736.408;-0.3712255;1.766098;3956.372;1879.619;0.3826625;-0.1126105;0;
4415.491;3309.679;64.86722;6437.538;0.8355724;4.041621;4786.727;2704.815;-0.2673954;-0.04752996;0;
15213.25;14107.17;-242.4185;16882.47;1.771762;5.17627;15596.17;13504.39;-0.007257343;0.08245248;0;
24334.43;23212.04;-311.7025;26029.78;4.048133;4.635205;24702.82;22609.86;0.3175867;0.147337;0;
24038.65;22901.71;-108.8349;25925.32;6.588685;5.300377;24374.93;22288.26;0.1223655;-0.1776478;0;
25781.86;24643.09;-106.9139;27568.24;-7.8189;8.644075;26112.43;24025.32;-0.007692117;-0.1125019;0;
27018.13;25878.54;-56.08199;28858.32;-11.29367;9.908066;27350.34;25256.08;0.252185;0.1474805;0;
17888.71;16750.05;271.7315;20003.38;-9.473659;10.70191;18208.97;16108.6;0.05702956;-0.2424718;0;
10168.08;9050.953;342.782;12167.46;-12.88039;11.02607;10502.35;8394.849;-0.3328318;-0.3721628;0;
12009.21;10916.04;124.8282;13710.02;-5.36536;13.49323;12376.41;10261.47;-0.007660657;-0.1119195;0;
11826.76;10734.85;115.7385;13515.92;-5.025177;14.61839;12201.99;10084.34;0.3171837;0.01812765;0;
11661.61;10568.95;82.96675;13210.05;-4.752684;8.642339;12042.71;9920.595;0.1869304;0.08307678;0;
21551.89;20460.54;-219.043;22743.04;-3.006596;7.360979;21951.22;19822.93;0.2517099;0.0829933;0;
29640.25;28538;-280.5887;30863.44;-8.964446;4.540421;30031.43;27903.06;0.3164243;0.3427793;0;
28472.79;27362.84;-73.8012;29886.72;-8.352225;0.9858857;28836.9;26715.57;0.1212043;0.08256548;0;
29365.12;28259.01;-66.96481;30649.91;-14.17196;7.34803;29725.78;27611.02;0.0561152;-0.04745216;0;
29400.99;28296.27;-16.64154;30695.27;-16.43489;6.737922;29763.85;27652.39;0.05605881;0.4723343;0;
19163.14;18062.22;317.6134;20697.49;-6.370697;3.917869;19516.04;17404.71;0.1209698;0.4718597;0;
10576.57;9495.834;428.7851;11972.7;-4.355539;4.047898;10948.64;8826.343;0.3157503;-0.04835321;0;
11501.69;10440.97;233.1555;12595.82;-4.351163;-5.132587;11912.62;9780.865;0.120531;-0.3731413;0;
10446.62;9392.749;206.622;11558.89;-3.676229;-8.141601;10867.26;8737.463;-0.009524788;-0.2428317;0;
9525.396;8479.734;164.3261;10544.38;3.360062;-5.58813;9948.67;7813.175;0.1204195;0.1472163;0;
18760.12;17719.13;-159.317;19476.35;5.968655;-6.654242;19197.24;17052.77;-0.07460356;-0.112801;0;
26364.53;25310.84;-265.6815;27172.71;-0.4667282;-4.236231;26789.09;24648.46;0.05540609;-0.2426223;0;
24723.6;23654.95;-74.69792;25796.78;-0.3325374;-2.289469;25115.31;22985.74;0.4451545;0.2123929;0;
25290.12;24216.35;-60.30194;26315.02;-10.04509;-5.837204;25671.07;23549.66;-0.1399989;0.01727744;0;
25389.3;24308.4;-12.67151;26493.07;-15.32629;-5.898321;25765.43;23652.4;-0.2697929;-0.04770726;0;
15270.05;14184.33;300.1684;16690.33;-7.607728;1.877504;15628.38;13529.65;0.05531488;0.01730802;0;
6849.209;5776.768;370.9404;8200.477;-9.676188;3.416103;7218.454;5124.774;-0.3345447;-0.2425787;0;
8185.715;7128.688;166.7326;9295.682;-6.384912;5.489141;8588.789;6492.123;-0.1393066;0.1474691;0;
7588.036;6535.163;176.9505;8784.25;-3.364386;7.091094;7997.702;5908.108;-0.009231911;0.2122882;0;
7164.464;6117.709;152.4099;8302.599;-18.69998;1.323681;7574.25;5491.565;-0.07418998;-0.2426965;0;
16841.55;15798.79;-162.788;17687.79;-21.09208;-0.2852399;17265.14;15182.86;0.2507213;-0.0475506;0;
24752.74;23699.53;-254.9061;25706;-14.57415;-1.490646;25165.56;23088.97;-0.204302;0.1473992;0;
23634.42;22570.24;-81.59636;24862.99;-15.56389;-2.69478;24016.53;21950.11;-0.3989988;-0.1126183;0;
24701.65;23637.29;-76.36071;25911.53;-6.908062;-7.71567;25076.97;23013.23;-0.008793815;-0.2424398;0;
24969.94;23904.43;1.536272;26300.1;-4.757667;-9.583379;25344.94;23281.86;0.1861171;0.2125752;0;
15115.41;14051.07;327.2148;16777.04;-5.422472;-7.363373;15477.24;13421.88;0.2508974;0.277329;0;
7014.225;5967.629;385.5128;8611.654;-4.076877;-7.757872;7391.178;5335.392;0.2506453;-0.3076558;0;
8445.892;7417.214;175.8087;9791.622;-8.225965;-2.190616;8856.886;6794.044;0.1854261;-0.1124446;0;
7942.185;6918.195;183.1283;9335.258;-8.150352;-0.5139022;8359.825;6298.588;0.3801418;0.2774724;0;
7685.58;6666.336;156.5045;8992.701;-17.05077;3.036587;8104.581;6044.696;0.1848578;0.342161;0;
17553.52;16535.74;-160.7746;18545.67;-20.51724;6.181734;17983.5;15921.84;-0.3350667;0.1469151;0;
25678.07;24646.19;-252.9573;26730.32;-14.80319;-0.1207509;26093.88;24036.26;-0.009893297;-0.1780692;0;
24585.77;23538.44;-67.54618;25864.54;-15.05576;-0.5225272;24969.64;22918.09;0.3149534;-0.04795561;0;
25598.36;24547.11;-68.80577;26817.68;-14.16998;0.8176565;25972.1;23923.7;0.05476752;0.211962;0;
25974.78;24919.25;-21.02624;27276.27;-14.22309;0.2809715;26344.55;24300.74;0.1846472;0.3416837;0;
16140.74;15082.49;304.878;17738.24;-8.113231;-1.058969;16495.46;14458.14;-0.01044039;0.471275;0;
8030.897;6986.893;378.9092;9523.568;-6.296417;-2.598452;8397.726;6359.08;-0.6601033;0.1459648;0;
9636.61;8607.772;172.226;10839.61;-9.840064;2.427696;10035.43;7989.586;-0.3346033;0.08085075;0;
9149.637;8122.8;197.8212;10377.57;-10.23232;3.697932;9554.801;7508.89;0.3154063;0.08076951;0;
8691.325;7668.113;177.4138;9812.207;-12.70028;-1.128433;9096.738;7052.227;0.1201873;0.1456557;0;
18387.71;17366.09;-150.7246;19171.89;-13.02231;-1.529196;18805.18;16758.04;0.05509925;0.01557466;0;
26304.12;25268.19;-233.6095;27145.79;-21.71677;-2.666309;26708.05;24666.34;0.1200112;-0.2443104;0;
25036.85;23987.43;-42.06469;26104.46;-24.24054;-4.740039;25409.51;23376.57;-0.3998481;-0.04916285;0;
25923.98;24873.4;-44.70857;26924.75;-21.46952;0.2883214;26289.96;24259.06;-0.334479;0.2757233;0;
25919.58;24866.34;2.984275;27005.61;-22.72074;0.3550146;26283.16;24255.46;-0.2042082;0.2104789;0;
15741.23;14688.27;321.7742;17126.05;-13.05237;-3.798223;16091.02;14068.82;-0.4638724;-0.3094714;0;
7475;6438.933;393.321;8764.848;-10.35994;-4.598141;7839.022;5815.573;-0.07360224;-0.8288991;0;
8725.138;7705.073;168.2262;9742.326;-8.00598;-8.143555;9120.591;7091.398;0.1213737;-0.7630989;0;
7997.326;6980.722;161.4199;9040.541;-4.380613;-9.00615;8398.473;6368.788;0.1212518;-0.3725281;0;
7549.418;6537.396;146.6088;8490.386;-11.07402;-12.07819;7951.379;5922.454;0.2510646;0.01765027;0;
17113.33;16102.61;-155.3243;17738.45;-11.6661;-13.00382;17527.7;15496.5;-0.1389917;0.1475672;0;
24799.52;23774.13;-222.6343;25498.97;-9.309855;-9.507701;25200.06;23174.47;-0.2687867;0.2773536;0;
23344.82;22304.78;-25.80634;24277.29;-8.831986;-8.828379;23712.13;21696.23;-0.2035493;0.2121076;0;
24169.28;23126.51;-38.96128;25036.91;-14.78398;-2.255303;24528.32;22513.1;-0.2033448;0.08195979;0;
24252.09;23206.06;-7.32864;25209.62;-17.11365;0.5601854;24609.03;22594.02;-0.1381731;0.2118121;0;
14041.94;12995.92;290.857;15310.16;-8.723712;3.171835;14383.87;12374.16;-0.267969;0.4065013;0;
5614.433;4584.213;361.5603;6788.646;-8.045361;5.981931;5968.356;3957.701;-0.3976344;0.1462235;0;
6920.507;5905.94;159.1735;7819.366;-6.429687;2.157893;7306.402;5290.083;-0.2023328;-0.2437275;0;
6298.113;5287.126;159.6227;7243.451;-4.547216;1.486018;6690.523;4675.168;0.1227072;-0.04858056;0;
5778.043;4771.227;141.5806;6641.159;-10.43714;2.422163;6171.464;4157.135;-0.07231812;0.1463703;0;
15367.04;14362.33;-176.8079;15920.47;-11.7668;1.883988;15774.28;13757;-0.2671475;-0.04867882;0;
23149.77;22132.2;-265.3669;23790.89;-7.601795;-1.935871;23543.79;21533.05;-0.00700968;0.08130478;0;
21736.83;20705.39;-66.15338;22628.15;-6.187637;-2.670738;22098.51;20097.84;-0.007002637;0.1461904;0;
22595.27;21561.8;-60.93325;23435.71;-12.87922;-5.146362;22950.62;20952.27;0.05797174;-0.1138258;0;
22618.39;21582.14;4.095316;23564.18;-12.93363;-6.413867;22971.56;20976.29;0.05791349;-0.1137115;0;
12389.51;11353.65;334.1909;13653.41;-11.2457;-2.120575;12728.15;10738.1;0.1228226;-0.1785645;0;
4096.44;3078.272;408.9424;5272.556;-11.50282;-2.453359;4449.046;2457.463;-0.07220279;-0.3732871;0;
5415.253;4414.381;208.1166;6335.689;-0.2381269;3.64437;5800.675;3802.972;-0.2670323;0.01689198;0;
4745.646;3748.184;204.2218;5716.788;2.776222;4.913383;5137.771;3139.608;0.1880074;0.4716464;0;
4358.07;3364.952;168.6906;5243.685;6.122335;4.3056;4751.363;2753.833;-0.007083501;0.4062051;0;
14016.43;13025.43;-147.1171;14607.3;9.799879;5.707916;14423.22;12422.3;-0.3968804;0.01599294;0;
21796.33;20791.84;-239.985;22481.88;2.087849;-5.617692;22191.04;20196.28;-0.07164494;-0.1139578;0;
20433.95;19416.69;-48.43381;21381.2;0.879326;-8.626218;20798.3;18814.64;0.3831984;0.4058954;0;
21341.45;20322.84;-40.09243;22264.14;2.820825;-10.69396;21699.94;19717.02;0.05797669;0.4704549;0;
21480.61;20457.53;11.81241;22519.75;3.421203;-14.70207;21837.96;19853.47;-0.07201625;-0.1796912;0;
11277.62;10252.78;328.8443;12638.39;-5.357121;-7.922203;11620.58;9640.709;0.5127622;-0.04957597;0;
2980.605;1972.667;385.2041;4256.558;-7.561564;-7.579328;3335.379;1355.588;0.6421816;-0.1794608;0;
4451.213;3460.842;175.7659;5467.482;1.488364;-9.313268;4837.083;2852.223;0.05683031;-0.5690845;0;
3856.225;2869.785;189.1762;4914.201;3.161807;-8.83503;4247.08;2266.338;-0.3979982;-0.438578;0;
3460.765;2478.316;147.4914;4394.678;8.516289;-8.357271;3851.853;1876.037;-0.6574677;-0.2432353;0;
13104.22;12122.16;-171.7152;13686.68;11.92398;-7.411113;13509.81;11529.92;-0.3969376;0.08184576;0;
20759.42;19762.45;-231.2939;21414.41;12.71628;-9.547059;21152.67;19177.11;0.3181019;0.3416329;0;
19331.42;18320.31;-34.19169;20249.16;13.30574;-9.001664;19692.08;17727.59;0.3827497;0.08142024;0;
20199.96;19187.27;-44.60521;21102.59;20.52702;-10.8011;20552.75;18590.84;-0.202341;-0.4384003;0;
20204.43;19189.85;8.912734;21240.28;24.19009;-11.46007;20554.4;18595.27;-0.072203;-0.5678945;0;
10069.9;9056.496;326.0256;11427.58;7.956157;-5.420217;10405.91;8453.582;0.3176736;-0.3724218;0;
1935.333;939.9406;379.2961;3210.406;5.670987;-3.874224;2285.9;331.7595;-0.2673517;-0.04721091;0;
3375.57;2397.169;162.9766;4406.327;2.651179;-2.999553;3757.238;1797.502;-0.7218544;0.3426406;0;
2807.931;1832.668;161.7353;3901.307;-2.106907;-1.455992;3193.181;1237.882;-0.136423;0.08242693;0;
2613.081;1642.734;128.1833;3628.928;11.96041;-1.856366;2999.35;1048.952;0.05861607;-0.4373946;0;
12449.6;11481.67;-185.2567;13170.89;13.35588;-1.58663;12849.48;10898.79;-0.5911162;-0.1121184;0;
20313.88;19331.74;-261.4072;21136.89;13.27511;-1.049172;20700.18;18756.95;-0.3956203;0.2128309;0;
19166.45;18169.77;-65.69593;20251.97;14.93671;-0.981135;19520.27;17589.61;0.319418;0.01771506;0;
20323.13;19324.04;-67.83194;21372.48;10.56745;-3.592422;20667.79;18742.73;0.2541297;0.0826646;0;
20581.22;19579.18;-7.544049;21746.56;9.552453;-4.392547;20923.26;19000.85;-0.07096234;-0.04735314;0;
10611.61;9609.225;324.5154;12104.6;5.32232;-5.928741;10939.43;9022.168;-0.005923693;-0.3071749;0;
2625.202;1639.227;391.1713;4040.332;2.370211;-7.329364;2965.909;1046.544;-0.005917741;-0.5017683;0;
4319.524;3349.344;179.322;5474.299;-1.450564;-3.16918;4692.841;2765.034;-0.2008138;-0.1764274;0;
3925.567;2958.955;181.2033;5126.19;-4.730659;-1.625449;4305.349;2378.043;-0.07067735;0.4084559;0;
3680.744;2718.632;149.4433;4801.356;-6.400846;-5.910601;4061.956;2136.742;0.05932834;0.3430782;0;
13573.76;12610.27;-174.5753;14391.49;-8.470519;-6.172594;13966.77;12037.99;-0.2006006;0.1478314;0;
21572.62;20597.45;-263.2771;22486.95;-7.055488;-2.549375;21954.31;20031.97;-0.3303338;0.0177482;0;
20383.19;19401.44;-71.5619;21563.87;-5.909323;-2.680779;20738.97;18827.75;-0.2650345;-0.1122043;0;
21587.25;20604.83;-73.56707;22718.12;-9.721778;1.675745;21936.8;20028.37;-0.3947029;0.2127451;0;
21936.65;20948.82;-13.8044;23166.58;-10.31425;3.281529;22282.07;20377.56;0.1903998;0.147564;0;
11986.76;10997.04;318.5268;13534.32;-0.9267598;-2.08022;12317.25;10420.08;0.5800126;-0.04748628;0;
4108.417;3133.91;385.5948;5559.598;1.954559;-2.747959;4451.598;2551.747;-0.2001784;0.1474635;0;
5769.671;4809.636;166.1768;6948.436;-0.6603489;-4.553676;6143.959;4235.117;-0.4598466;0.4071847;0;
5301.887;4342.191;161.5277;6518.542;-0.3912656;-5.352896;5681.484;3771.623;-0.3944172;0.3418082;0;
5256.986;4299.879;128.2414;6375.873;3.828686;-7.022029;5638.138;3726.792;-0.6538903;0.08159536;0;
15150.6;14196.86;-191.3363;15961.64;5.432429;-7.684803;15545.77;13629.32;-0.1984618;0.01654603;0;
22885.05;21919.52;-273.462;23785.95;-3.213217;-5.734637;23267.86;21358.79;0.3864437;-0.04843794;0;
21671.46;20692.13;-80.59654;22818.52;-5.01865;-5.594909;22022.93;20127.03;0.1911533;-0.178324;0;
22821.07;21839.91;-77.43898;23912.22;-5.81789;-0.766638;23165.53;21272.29;-0.1988428;-0.1781448;0;
22965.43;21980.98;-18.93741;24148.25;-8.424013;0.6407738;23307.3;21415.58;-0.393545;0.01693626;0;
12932.01;11946.86;298.1254;14413.15;-1.650394;3.118376;13258.85;11373.38;-0.1982475;0.2118213;0;
4934.902;3966.331;359.6541;6305.92;0.2262983;4.990765;5275.35;3386.96;0.06182102;-0.04826094;0;
6475.073;5521.875;155.4108;7562.979;-5.601078;0.2970672;6848.193;4950.363;-0.003208434;0.1466896;0;
5912.097;4961.386;174.1202;7033.361;-5.59545;-0.1721118;6291.683;4393.791;0.06176213;0.6013136;0;
5652.752;4706.808;151.3316;6679.313;-2.106227;-2.583263;6034.456;4139.064;-0.003267269;-0.04896405;0;
15441.74;14498.37;-168.2224;16153.8;-1.635596;-3.786361;15837.24;13939.57;-0.06823133;-0.5036862;0;
23152.41;22194.99;-235.1603;23955.67;2.519233;-4.854222;23534.39;21640.69;0.06177191;-0.1133761;0;
21779.79;20809.25;-42.61438;22843.68;4.592806;-6.12202;22129.78;20246.57;0.1916445;0.2115746;0;
22858.41;21885.91;-66.79376;23866.14;1.44036;-1.494168;23199.93;21321.49;-0.1333847;0.2763293;0;
23003.17;22024.84;-8.037398;24110.31;2.041149;-0.1530083;23341.32;21464.98;-0.1982181;-0.1787197;0;
12896.88;11916.09;315.3081;14325.27;-0.1707289;-0.3538033;13222.13;11350.39;0.1268178;-0.3734422;0;
4883.753;3918.166;378.8342;6215.38;-1.778148;0.6512961;5224.263;3349.19;0.06172305;0.01673709;0;
6375.188;5425.469;189.5485;7431.958;2.911712;2.927939;6747.058;4865.03;0.1915957;-0.04824707;0;
5757.777;4812.761;186.4064;6851.622;2.707716;4.197673;6133.021;4254.696;0.06146851;-0.3080679;0;
5570.614;4631.014;136.9626;6567.126;2.370202;2.920779;5944.856;4070.449;-0.1984626;-0.1778237;0;
15405.38;14467.79;-175.2056;16094.77;2.702613;3.051811;15791.52;13915.56;-0.06832851;-0.1126777;0;
23127.92;22176.62;-249.6952;23913.88;-3.864186;3.383659;23500.74;21632.1;0.06167482;-0.04759715;0;
21835.91;20872.29;-62.61632;22875.73;-6.404922;3.782156;22179.03;20321.64;-0.1332892;-0.2424513;0;
22985.54;22022.36;-77.68642;23982.24;-2.647442;-0.7093783;23322.82;21469.04;-0.457992;-0.3071751;0;
23088.91;22123.67;-16.37352;24204.52;-1.908824;-2.986024;23422.63;21573.44;0.06220697;-0.3718338;0;
13009.95;12044.58;321.9729;14449.62;-7.935126;4.719831;13328.44;11486.69;0.5818832;-0.1115908;0;
5184.245;4234.715;385.5547;6533.698;-8.060874;6.054747;5516.436;3672.291;0.3214292;0.2783254;0;
6786.634;5851.77;167.0114;7873.362;-6.176764;1.627911;7150.85;5299.188;0.1262042;0.2130784;0;
6210.07;5277.395;158.4884;7343.776;-6.104186;2.295983;6580.697;4728.959;0.1910447;0.342799;0;
6075.832;5148.341;129.8278;7124.066;1.270315;-0.1175879;6448.367;4598.208;0.1258854;0.4723892;0;
15985.52;15062;-177.7887;16730.29;2.139694;-0.4523844;16371.46;14520.41;-0.2640451;0.1470779;0;
23809.02;22873.33;-257.1794;24643.28;11.58202;2.629163;24182.04;22337.29;-0.003910476;0.2118974;0;
22567.43;21618.81;-64.1273;23655.41;16.59422;3.29635;22908.22;21075.03;0.3858975;0.2766519;0;
23836.04;22885.57;-84.20899;24877.26;0.4342935;7.378875;24168.09;22340.21;-0.134229;0.2114065;0;
24112.56;23157.21;-43.30115;25256.78;-1.642248;9.246983;24439.93;22616.24;-0.1340941;0.1462268;0;
14004.09;13046.82;291.5897;15462.41;-3.315537;10.51037;14317.05;12499.08;-0.06899203;0.3409818;0;
6053.542;5112.223;376.1447;7415.782;-7.263344;11.90645;6381.454;4560.229;-0.2638247;0.4705739;0;
7628.289;6701.378;183.379;8725.044;-2.902766;11.76052;7986.419;6158.716;0.1262444;0.08029702;0;
7052.129;6127.93;176.9792;8193.728;-4.774883;12.41841;7416.896;5587.218;0.1261176;0.015249;0;
6986.853;6068.299;120.5171;8030.384;-3.229844;9.659753;7356.782;5523.103;-0.2638132;0.3400704;0;
16890.26;15974.06;-196.7883;17629.24;-4.230977;8.645303;17275.37;15437.1;-0.1336135;0.2747613;0;
24508.29;23579.06;-267.8516;25347.26;-0.8114496;9.842308;24881.02;23049.28;0.06142283;0.01461589;0;
23139;22197.3;-81.62908;24224.75;3.476274;9.63147;23480.03;21660.44;-0.003606227;-0.3102355;0;
24245.21;23301.99;-91.91685;25274.96;-20.43903;7.411355;24578.28;22762.17;0.1912994;-0.2449564;0;
24289.69;23342.82;-30.7302;25423.07;-26.64778;6.265321;24618.77;22806.48;0.3210419;-0.04980828;0;
14206.03;13258.02;296.0583;15641.24;-5.723307;9.808999;14519.37;12715.25;-0.1340521;0.01520911;0;
6327.956;5394.8;357.5891;7648.566;-2.435027;10.33501;6655.98;4848.58;-0.1339174;-0.1797082;0;
7810.974;6891.437;158.689;8850.117;-5.916181;10.45859;8171.371;6355.011;0.1910539;-0.1145603;0;
7124.404;6206.604;178.6757;8193.612;-3.632084;12.05567;7490.529;5673.589;0.06092722;0.1454242;0;
6948.924;6035.668;148.6517;7913.516;1.662851;6.216162;7316.274;5499.973;-0.2639707;0.2752128;0;
16762.47;15851.54;-169.494;17414.1;3.536214;4.401377;17142.67;15323.07;-0.3936402;0.2749362;0;
24356.52;23432.61;-239.9757;25099.29;9.360786;10.76021;24722.4;22908.79;-0.5231793;0.07975794;0;
22898.8;21961.54;-45.20735;23883.54;12.56559;10.41448;23229.86;21428.25;-0.4576863;0.2096125;0;
23894.97;22954.46;-60.35741;24814.32;6.257296;12.3464;24217.14;22418.4;-0.197357;0.1444345;0;
23944.98;22999.99;-4.012554;24960.14;7.389108;13.13779;24265.02;22467.9;0.1926453;-0.11558;0;
13732.64;12786.44;332.6348;15051.12;-0.7899902;6.024644;14038.02;12246.73;0.1274844;0.4042749;0;
5641.182;4710.175;399.6261;6852.206;-3.602236;4.009103;5960.496;4166.451;-0.002578355;0.07903197;0;
7100.246;6183.699;196.061;8041.032;3.702402;3.268262;7451.629;5649.86;0.2572936;-0.5057535;0;
6345.144;5430.954;206.3744;7326.87;2.224813;2.126268;6702.982;4900.963;0.4519371;0.07946073;0;
6076.182;5168.408;158.1911;6961.625;13.54306;-1.693773;6437.846;4635.888;0.06167894;0.2742829;0;
15922.31;15019.26;-163.5718;16503.39;16.27514;-3.165635;16298.39;14493.96;0.06161696;-0.05082939;0;
23473.26;22558.96;-225.4388;24146.93;12.44137;-0.8181123;23835.09;22038.16;0.4513591;0.2090911;0;
22018.55;21093.52;-37.65029;22936.11;13.96911;-1.286171;22347.94;20563.21;0.3209709;0.1439136;0;
23059.95;22133.95;-68.05029;23929.33;3.237805;6.752952;23381.64;21600.71;-0.06915567;0.2087364;0;
22937.3;22007.64;-20.00602;23919.93;0.8236545;10.49709;23256.26;21478.52;-0.004118843;0.5333633;0;
12661.28;11732.8;315.3924;13955.74;-3.330359;6.065789;12967.67;11195.07;0.06085264;0.272958;0;
4674.911;3764.326;377.1849;5877.146;-6.742288;7.868112;4997.05;3221.478;-0.00417585;-0.247055;0;
6047.553;5152.75;170.0348;7003.14;-2.113813;7.056532;6402.008;4620.504;-0.1341063;-0.1818394;0;
5262.024;4370.869;184.9189;6273.748;-2.78225;6.848493;5622.995;3842.438;-0.2639063;-0.051722;0;
5117.932;4233.388;139.8963;6037.372;6.531295;11.39633;5481.507;3702.927;0.126163;-0.246572;0;
15016.4;14134.16;-197.8403;15635.29;11.14643;11.85376;15392.92;13613.44;0.2559709;-0.2463243;0;
22613.46;21718.17;-275.9302;23333.89;7.384188;14.78897;22976.76;21202.57;-0.1340904;0.01379258;0;
21196.59;20290.71;-62.5882;22166.77;10.18981;16.64964;21529.04;19764.25;-0.004020964;0.2086808;0;
22292.48;21385.82;-57.10616;23213.08;10.44799;11.07345;22617.63;20855.49;0.1908851;0.1435037;0;
22273.02;21363.46;2.296391;23310.88;11.17443;10.45947;22596.03;20836.35;0.125726;-0.1814772;0;
12053.42;11144.62;328.1147;13403.77;14.04261;10.38198;12363.18;10609.79;0.1255996;-0.5061315;0;
4137.502;3245.695;375.6984;5384.362;13.8284;8.964907;4462.628;2707.38;0.1254734;-0.4406556;0;
5624.626;4747.989;169.6899;6614.986;16.62755;13.44363;5983.908;4220.179;0.3202494;0.1444932;0;
4928.509;4052.034;189.5874;5962.665;16.27605;14.7028;5292.615;3528.066;-0.004909123;0.2093154;0;
4795.434;3920.902;146.9807;5725.258;14.71848;11.40599;5158.143;3394.898;-0.4596756;-0.1157317;0;
14702.1;13828.67;-186.0153;15323.68;14.63731;12.26518;15077.6;13311.16;-0.134377;-0.3105174;0;
22370.28;21482.39;-266.0693;23085.9;3.771616;10.77935;22730.94;20971.64;0.06066006;-0.6350421;0;
20975.49;20074.09;-75.08528;21941.21;-0.4527089;9.897745;21302.37;19555.15;0.06059911;-0.2446;0;
22062.17;21158.65;-85.84814;22977.1;2.227063;16.65295;22381;20635.38;0.06053822;0.2104172;0;
22038.54;21130.7;-21.91897;23061.96;0.4171404;17.30593;22353.61;20610.84;0.06047739;-0.04966358;0;
11824.36;10916.5;301.0345;13160.65;0.08095254;17.8244;12125.06;10390.54;0.125384;-0.3744504;0;
3940.184;3048.544;343.6323;5177.467;-0.3876433;18.07442;4255.637;2519.453;-0.2645461;-0.4390415;0;
5394.867;4517.709;140.5296;6370.819;0.5507513;14.8412;5743.299;3999.27;-0.1343456;-0.04879628;0;
4683.8;3809.742;171.1698;5704.093;0.4828489;14.22345;5038.317;3296.166;0.2555935;0.2760895;0;
4641.988;3773.18;141.8874;5564.054;4.568201;6.171446;4998.022;3257.496;0.320304;0.1458774;0;
14563.33;13696.12;-184.1382;15178.1;6.975484;3.017047;14933.32;13188.54;0.2550148;0.08076344;0;
22149.35;21267.39;-254.9488;22860.76;-1.538967;0.6697347;22504.28;20765.63;0.3197259;0.405519;0;
20736.98;19841.26;-58.22885;21696.33;-3.680875;-3.751751;21057.1;19328.7;0.579274;0.3401442;0;
21879.59;20982.36;-76.64543;22779.72;2.35202;7.370881;22191.36;20464.66;0.1239206;0.0149657;0;
21892.12;20991.01;-16.87967;22897.29;2.6171;9.841843;22199.96;20477.24;-0.3309754;-0.309886;0;
11570.27;10667.94;326.6209;12886.15;0.2699457;1.124417;11862.93;10146.91;0.2540633;-0.5044767;0;
3586.586;2699.973;395.7578;4800.137;0.7391651;1.792994;3895.006;2174.434;0.3187754;-0.3090678;0;
5053.337;4181.951;182.7014;6015.544;-2.075593;-1.423866;5395.899;3666.873;-0.2012837;-0.1788225;0;
4240.197;3371.592;173.8815;5258.814;-2.474673;-3.565828;4589.786;2862.216;-0.1361141;-0.1136755;0;
4152.884;3289.462;127.8705;5069.654;-0.1276616;5.614233;4505.932;2778.63;0.05892469;0.01637339;0;
14175.08;13315.12;-177.7295;14788.7;-0.06116049;6.546353;14542.98;12811.51;-0.006101855;-0.3734471;0;
21742.4;20870.31;-230.8834;22458.61;5.030092;7.544397;22095.54;20370.96;0.123839;-0.6329412;0;
20331.63;19447.45;-31.1736;21288.68;7.101142;10.14915;20649.89;18937.98;0.2536492;-0.1125665;0;
21510.69;20625.62;-40.98108;22411.68;6.490795;2.570004;21820.42;20112.29;-0.3313117;0.147416;0;
21435.1;20546.42;16.40627;22445.98;8.360283;3.237251;21741.9;20035.67;-0.5258809;0.08230049;0;
11155.84;10267.03;332.3091;12474.58;3.194319;-1.7896;11448.46;9747.514;0.1892883;0.01725045;0;
3329.78;2457.35;376.1405;4548.648;1.114028;-5.136827;3637.381;1934.266;0.2540655;-0.04773422;0;
4801.755;3944.569;168.1794;5769.243;9.754073;13.28815;5142.562;3433.318;0.05890814;-0.372523;0;
4018.665;3164.777;185.6109;5034.875;11.21814;17.76254;4366.5;2658.694;0.3187183;-0.3071813;0;
4035.804;3186.678;147.2093;4947.639;5.647163;12.31919;4386.226;2680.01;0.3833654;0.1478987;0;
14012.86;13165.58;-171.7159;14621.05;5.57414;14.3163;14375.89;12667.45;0.3180129;0.08278278;0;
21532.15;20671.82;-246.2246;22237.49;1.14791;13.83304;21880.16;20176.91;0.05782395;-0.04723508;0;
20129.42;19255.97;-68.19153;21075.5;-2.202147;13.75215;20444.55;18750.97;-0.2670709;-0.112155;0;
21222.98;20347.32;-73.40161;22115.14;6.909745;13.67135;21529.38;19839.95;-0.2018352;0.08285976;0;
21136.53;20256.94;-5.408869;22135.27;7.706109;12.31796;21439.22;19753.01;-0.3965344;-0.04715818;0;
10859.73;9979.053;323.4313;12159.69;-0.2048879;13.17636;11149.41;9466.95;-0.006331891;-0.5018822;0;
2931.362;2065.998;392.3527;4119.786;-2.281763;12.89519;3235.613;1550.756;-0.2012275;-0.3064759;0;
4461.396;3610.614;181.6423;5386.726;-1.274116;7.992598;4797.106;3107.134;-0.7207641;0.1486035;0;
3708.195;2860.33;195.2498;4681.446;-1.541256;7.247755;4050.846;2361.573;-0.3952031;-0.04644787;0;
3573.473;2730.801;158.853;4439.112;-9.041796;5.09714;3918.247;2229.983;-0.5247408;-0.4362052;0;
13536.28;12695.45;-183.0567;14090.2;-10.84137;3.551411;13894.2;12202.7;-0.3942788;-0.3058323;0;
21047.11;20192.23;-251.2603;21701.59;-8.820746;9.844116;21390.87;19704.25;0.3207581;-0.1755903;0;
19518.13;18650.49;-43.36216;20414.32;-9.214025;10.77199;19828.24;18152.13;0.3854032;-0.3053485;0;
20579.01;19709.96;-56.43699;21417.36;-2.573334;13.37337;20881.38;19207.79;0.06017922;0.01979499;0;
20491.02;19617.47;-20.38275;21440.13;0.242291;14.90054;20789.46;19118.49;0.1900534;-0.1101596;0;
10178.2;9303.747;276.957;11435.42;-0.3601888;14.21574;10462.16;8797.148;0.7745685;-0.04508155;0;
2252.51;1394.213;345.6597;3407.488;0.644551;15.54112;2552.991;884.7815;0.5788882;0.2148331;0;
3718.884;2875.13;169.0572;4621.203;4.462296;9.430177;4052.233;2376.58;0.1235352;-0.1751868;0;
2895.715;2054.714;186.3629;3848.227;5.127398;8.148026;3235.882;1561.631;0.1883784;-0.04507609;0;
2857.823;2022.353;143.4159;3700.276;4.586383;8.943633;3201.615;1528.516;0.1232218;-0.0450308;0;
12844.09;12010.99;-177.1921;13382.69;5.854572;8.130852;13200.78;11524.67;0.1880653;-0.3048549;0;
20247.61;19401.07;-246.1512;20897.9;-7.615246;10.06519;20588.82;18918.56;0.1878763;0.08525545;0;
18763.13;17904.48;-54.18771;19654.26;-12.36302;10.25602;19071.01;17410.89;-0.1371492;0.1501371;0;
19912.31;19052.49;-62.22295;20741.24;-5.58544;13.72871;20212.39;18555.13;0.2527927;-0.04491575;0;
19767.99;18903.73;0.5424333;20710.43;-7.723281;14.65267;20064.55;18409.76;0.512408;0.3449335;0;
9409.136;8544.898;320.8028;10670.63;-4.231921;16.04459;9691.939;8043.248;0.05712178;-0.1101846;0;
1520.86;673.1087;369.4558;2689.444;-3.424361;17.10007;1818.935;168.3386;-0.3327397;-0.3049759;0;
3023.076;2189.139;158.175;3939.393;-7.908899;14.67163;3352.929;1695.464;-0.46234;0.2150693;0;
2241.836;1410.329;165.9808;3213.079;-7.967325;15.25973;2577.542;921.4613;-0.3969081;-0.04501616;0;
2219.313;1393.576;123.3822;3093.971;-11.50929;8.345281;2557.054;901.5137;-0.331542;-0.1749056;0;
12255.44;11432.97;-204.4364;12829.84;-13.17267;5.858649;12606.18;10946.5;0.05859523;0.08513951;0;
19775.5;18939.8;-281.1142;20459.89;-12.4225;9.938599;20111.77;18458.15;0.3833731;-0.04488073;0;
18254.45;17406.19;-96.47131;19186.46;-14.15133;8.588954;18558.27;16916.12;-0.2017182;-0.1747703;0;
19320.87;18471.15;-120.3311;20194.01;-11.05663;14.40772;19617.17;17976.64;-0.4613849;0.08527466;0;
19195.48;18341.24;-55.16474;20181.06;-10.7771;16.26876;19488.48;17849.42;0.3186868;0.4100257;0;
8835.701;7981.479;293.7154;10132.04;-14.91945;11.96551;9115.045;7483.06;0.5782359;0.01980964;0;
990.6681;152.8284;372.7866;2179.228;-15.3066;12.75728;1285.348;-348.4326;0.1878509;-0.2400796;0;
2465.806;1641.427;196.1568;3398.8;-17.70212;9.998282;2792.267;1151.039;-0.1371746;-0.1099037;0;
1560.032;737.5432;208.2036;2539.596;-18.28755;9.921253;1892.256;251.8651;-0.07206941;-0.239728;0;
1575.206;758.2913;125.489;2441.217;-14.85292;7.566882;1910.532;270.5087;-0.1369643;-0.04458506;0;
11602.33;10788.02;-218.9953;12159.69;-11.75654;5.214998;11950.97;10308.25;-0.3317287;0.02042708;0;
18972.09;18143.91;-275.0438;19622.56;-12.34793;16.39566;19305.57;17668.72;0.05840864;0.08537389;0;
17431.48;16590.17;-71.88505;18316.77;-7.580105;18.52252;17732.27;16104.43;0.253252;0.02032077;0;
18481.3;17638.65;-99.1116;19315.45;-8.979009;14.61902;18774.57;17149.56;-0.1368065;-0.3045364;0;
18284.95;17438.59;-44.67994;19233.2;-9.773293;15.54209;18575.39;16952.36;-0.07170174;-0.4991324;0;
7929.144;7082.042;303.7992;9178.352;22.7895;10.97176;8205.088;6587.932;-0.00666235;-0.3037288;0;
57.50443;-774.2538;360.1061;1190.296;32.88066;9.621076;346.914;-1270.179;-0.1365903;0.08638041;0;
1611.166;793.1741;147.882;2488.947;24.07273;11.68776;1933.268;309.5852;0.1234163;0.346163;0;
792.7073;-22.18218;167.208;1726.672;30.27784;12.54679;1121.607;-501.8806;0.05832492;0.4107825;0;
649.4199;-160.0906;123.4838;1472.345;11.49317;6.907741;979.7385;-644.1171;-0.3965051;0.08553303;0;
10687.19;9879.212;-184.7979;11199.82;5.318701;5.226348;11030.05;9402.668;-0.2012046;0.2153818;0;
18200.2;17379.04;-231.2451;18819.51;18.84366;15.33528;18527.56;16907.1;0.0588669;0.2801327;0;
16626.16;15793.71;-51.8059;17492.45;16.01169;17.19527;16921.78;15310.44;-0.266029;-0.1099528;0;
17736.39;16903.4;-88.62593;18549.71;19.34451;20.2592;18026.3;16416.24;-0.135827;-0.3047444;0;
17583.95;16746.08;-33.0023;18517.42;19.79456;23.45391;17869.73;16261.72;0.1241789;-0.4343728;0;
7189.186;6350.252;291.7114;8434.899;7.851951;18.9426;7460.839;5858.101;0.1890214;-0.8237404;0;
-550.2766;-1372.844;337.9886;581.7735;3.288734;19.66038;-262.9975;-1867.031;0.1238642;-0.692978;0;
961.6416;152.8006;127.2704;1836.933;6.233166;17.96605;1280.272;-330.301;-0.006194969;-0.4973797;0;
-27.98393;-835.2314;150.0841;901.0565;4.350893;17.14421;295.9489;-1313.506;-0.1361234;-0.3019779;0;
-15.36839;-816.37;123.0406;802.4502;-3.289289;19.27044;311.4561;-1296.788;-0.3308887;0.2180642;0;
10053.15;9255.356;-192.9243;10563.49;-5.094645;18.91616;10393.39;8780.513;-0.3955235;0.2178451;0;
17392.57;16580.68;-251.1542;18006.94;-10.38081;21.57635;17717.2;16109.56;-0.1352568;0.08769155;0;
15964.96;15141.05;-61.05977;16818.21;-12.71491;22.29148;16257.62;14661.19;-0.2000882;0.1525708;0;
17171.65;16347.38;-85.95462;17972.88;-5.266414;20.99652;17458.61;15864.44;-0.1349198;0.08745012;0;
16853.79;16026.11;-15.66916;17776.38;-3.51981;20.17163;17137.03;15544.75;-0.004849541;0.2822643;0;
6403.292;5576.653;324.004;7632.173;0.7706343;21.35694;6671.875;5086.408;0.319992;0.08707864;0;
-1385.23;-2195.796;378.6195;-265.3112;3.850343;20.46482;-1101.112;-2687.954;0.5795399;-0.3028129;0;
130.9628;-667.0757;157.6781;998.9138;5.989928;15.68859;446.6541;-1147.089;-0.005748522;-0.2375413;0;
-689.975;-1485.681;146.5564;229.0465;7.926292;12.85954;-368.885;-1962.776;-0.5254815;-0.3672373;0;
-678.1623;-1468.384;98.69877;136.4878;11.40193;9.631563;-353.8655;-1948.81;-0.3300515;-0.1069989;0;
9393.363;8604.467;-213.7122;9907.813;14.8731;6.875585;9730.671;8132.645;-0.1348178;0.2829126;0;
16890.06;16088.24;-264.8154;17508.25;2.333197;3.586635;17213.22;15621.49;-0.004747637;0.1526937;0;
15375.87;14563.58;-63.05683;16237.32;0.05270097;2.042423;15668.41;14085.99;0.1251918;0.2175076;0;
16500.35;15687.19;-85.62272;17312.93;4.674348;-1.442619;16784.79;15207.08;-0.1997707;0.4121911;0;
16364.77;15547.3;-25.11393;17297.5;2.861966;-2.713845;16645.01;15071.86;-0.394472;0.2818422;0;
5960.106;5141.78;309.4307;7207.117;10.09276;2.647394;6227.174;4659.004;0.06069578;-0.0432777;0;
-1821.818;-2625.61;359.5788;-681.944;10.41741;4.453273;-1540.213;-3110.775;0.2555368;0.02173313;0;
-219.1979;-1010.22;153.9144;664.9707;14.49278;6.726096;93.32649;-1484.746;-0.134524;0.151646;0;
-1091.258;-1880.985;165.8786;-147.8517;17.35861;8.527877;-774.1125;-2352.536;-0.1993562;-0.1083758;0;
-983.3401;-1768.62;107.6943;-144.8921;4.27937;12.47118;-664.2645;-2242.882;0.1906482;-0.3031689;0;
9247.912;8464.858;-215.564;9784.481;1.997894;13.93227;9581.784;7999.068;0.1904566;0.08693978;0;
16700.09;15904.08;-276.2387;17350.94;0.1872257;13.91827;17020.13;15444.38;-0.1345714;0.02188508;0;
15267.64;14459.69;-99.03443;16159.72;-2.893445;14.97602;15556.32;13990.86;0.06046579;-0.2380063;0;
16451.79;15642.09;-120.9395;17290.37;0.7258084;6.655205;16736.09;15171.08;0.4502091;-0.1078324;0;
16205.32;15390.65;-51.16547;17164.4;0.4576354;4.438203;16486.98;14924.14;0.5796914;0.2171126;0;
5826.148;5011.643;287.6844;7093.14;5.481018;1.15158;6093.35;4537.139;0.5791089;0.3468291;0;
-1857.503;-2654.979;349.7546;-698.418;10.09721;-2.600499;-1575.296;-3133.504;-0.006179044;0.02164394;0;
-169.7027;-953.5091;147.9888;734.2828;0.0393809;4.167268;142.268;-1421.589;-0.07114018;-0.3032145;0;
-1036.877;-1818.241;164.7691;-77.73473;-1.367178;4.029115;-720.3789;-2283.758;0.3187354;-0.04304048;0;
-1055.326;-1831;109.2719;-202.4064;16.18299;3.020322;-736.8027;-2300.672;-0.07138896;-0.1079646;0;
9112.562;8339.291;-219.8756;9656.997;20.0515;3.419185;9443.134;7876.65;-0.3961539;-0.4976601;0;
16526.39;15741.31;-269.0361;17180.73;21.43884;1.406262;16843.14;15282.42;0.1889502;-0.4971601;0;
14983.55;14187.61;-74.76951;15882.48;26.70859;1.404849;15268.56;13717.84;0.5135971;-0.1718238;0;
16155.21;15357.85;-101.8682;16992.33;11.27543;-1.476707;16432.22;14883.21;-0.07162509;0.1531855;0;
15945.74;15143.49;-44.95067;16896.64;7.044545;-2.145053;16220.24;14672.48;-0.1365205;-0.1068378;0;
5471.845;4668.626;284.6632;6731.733;22.04164;-3.147641;5733.959;4191.811;0.05851873;-0.3016324;0;
-2329.61;-3116.685;353.3581;-1185.836;23.15759;-4.216145;-2051.673;-3597.613;0.05845993;-0.3662967;0;
-697.5883;-1471.848;169.6577;182.6685;17.03973;-0.6618736;-388.5402;-1942.641;0.1883359;-0.04109193;0;
-1535.435;-2308.76;181.5905;-605.8688;16.15196;-0.4602597;-1222.137;-2775.363;-0.07172273;0.4137208;0;
-1481.98;-2249.812;112.6926;-662.7311;15.59986;3.693022;-1166.374;-2720.07;-0.3964874;0.2833704;0;
8618.558;7852.403;-214.7717;9133.542;14.24404;6.703422;8947.027;7391.02;-0.201187;-0.04175108;0;
15985.41;15205.25;-267.4199;16607.45;14.02866;-0.8051583;16299.56;14750.2;-0.2009848;-0.3015785;0;
14585.92;13794.61;-84.33688;15444.05;13.4787;-1.206247;14870.54;13328.9;-0.2657502;-0.2363081;0;
15769.22;14977.09;-104.6013;16573.09;8.843455;1.742092;16047.66;14507.44;-0.07058114;-0.1711033;0;
15378.07;14582.42;-28.14393;16306.9;6.356323;1.137495;15652.1;14116.37;0.05942446;-0.4957681;0;
4887.347;4092.747;309.3397;6124.253;10.56949;6.695814;5147.146;3619.606;-0.07056993;-0.2354006;0;
-2787.521;-3565.736;365.3131;-1669.892;10.89464;8.296676;-2512.647;-4043.743;-0.07049902;-0.1052294;0;
-1104.783;-1869.879;157.5659;-249.0529;4.587056;5.542161;-798.7327;-2339.628;0.2544085;-0.170091;0;
-1947.749;-2710.952;161.7648;-1039.093;2.438993;6.139317;-1636.883;-3176.012;0.05925087;0.1549166;0;
-1942.106;-2699.669;108.0042;-1141.153;9.000627;4.190765;-1629.148;-3166.667;-0.5255147;0.2846957;0;
8119.945;7363.861;-201.1209;8619.119;11.26876;3.717674;8446.27;6904.672;-0.5249867;0.1544749;0;
15464.53;14694.65;-248.4418;16078.61;1.411798;2.977126;15777;14241.39;-0.3945245;-0.1055497;0;
13911.51;13131.16;-73.73298;14771.23;-0.1972109;1.701459;14194.12;12668.27;-0.3291607;-0.1054436;0;
15025.69;14245.71;-107.4544;15829.32;4.75948;4.044152;15303.61;13780.16;0.06097405;0.1545317;0;
14790.64;14007.14;-45.51814;15711.59;3.4819;3.236293;15066.19;13545.77;0.1908475;0.2193438;0;
4372.565;3589.448;276.725;5599.5;10.17621;5.510461;4634.595;3119.891;0.1256884;0.08918867;0;
-3305.065;-4071.248;321.9554;-2196.523;11.30506;6.37558;-3027.306;-4545.236;0.1905294;-0.2357377;0;
-1569.271;-2321.441;108.9731;-717.9954;8.614381;0.4749198;-1260.183;-2785.614;0.3202727;-0.1055661;0;
-2369.135;-3121.174;127.1357;-1463.274;9.878523;-0.1284038;-2057.734;-3580.695;0.3849182;0.1544093;0;
-2275.801;-3025.896;109.3449;-1487.822;-0.9160213;-2.606643;-1965.992;-3486.674;-0.07023998;-0.3654845;0;
7821.256;7070.196;-201.7336;8299.66;-2.923857;-3.541724;8141.466;6618.346;-0.2001041;-0.30015;0;
15030.02;14263.5;-271.8549;15622.01;-7.542619;-1.193824;15333.32;13816.42;0.1249337;0.154923;0;
13506.64;12728.09;-77.39815;14335.95;-13.1621;-0.9246925;13777.66;12270.24;-0.2649959;0.08980001;0;
14751.38;13974.26;-88.56473;15523.04;6.744452;5.305527;15016.72;13512.69;-0.4596317;-0.04022491;0;
14337.01;13557.39;-7.36026;15232.77;10.62342;8.314306;14598.74;13099.16;0.1255363;0.1547175;0;
3790.863;3011.409;342.7524;4987.82;2.708512;6.028532;4039.524;2545.824;0.3852795;0.02462739;0;
-3803.131;-4564.279;392.7265;-2727.972;5.251386;6.089458;-3538.041;-5034.675;-0.1348464;0.1545373;0;
-2172.284;-2917.706;171.0993;-1354.108;-3.260357;13.04944;-1876.632;-3380.383;-0.3945802;0.4142514;0;
-3099.134;-3841.902;156.6845;-2228.369;-5.870025;14.77789;-2797.407;-4302.146;-0.1992818;0.2839005;0;
-2962.649;-3700.579;94.35522;-2200.3;3.446623;9.002627;-2656.291;-4163.266;-0.3939835;0.3485826;0;
7142.656;6404.749;-214.6937;7606.046;5.118099;8.926599;7462.512;5951.554;-0.5235223;0.0233956;0;
14350.91;13598.44;-275.6972;14927.88;1.361912;1.616611;14655.36;13151.48;0.06170977;-0.366432;0;
12765.97;12001.61;-94.76095;13581.23;2.096502;-1.466106;13038.79;11545.07;0.3215171;-0.1711617;0;
13872.49;13106.52;-110.7202;14629.9;3.501891;2.621204;14139.09;12648.03;-0.06860998;-0.2359571;0;
13502.26;12732.22;-51.45115;14380.25;3.229952;1.747792;13764.75;12277.44;0.1913283;-0.3656547;0;
2973.446;2203.179;280.6992;4156.902;10.52772;3.822507;3221.03;1739.459;0.6459075;0.08948412;0;
-4726.579;-5480.423;350.5538;-3660.035;11.92367;3.751683;-4464.408;-5947.583;0.1255197;0.2193289;0;
-3007.91;-3748.285;162.6396;-2199.496;11.30847;7.699784;-2716.267;-4206.197;-0.3293778;-0.1057282;0;
-3819.197;-4557.953;192.914;-2960.746;12.70461;8.964723;-3523.224;-5013.906;-0.3290468;0.02431271;0;
-3739.46;-4472.352;130.9543;-2990.161;1.773499;5.673552;-3439.912;-4930.251;-0.1987815;0.02428828;0;
6321.023;5589.743;-215.0659;6770.47;-1.979327;6.136731;6634.857;5141.142;-0.1336144;-0.3005728;0;
13558.44;12812.71;-264.9027;14118.1;0.4345356;-2.376023;13858.03;12369.96;-0.2634149;-0.4302055;0;
12046.97;11288.72;-78.48014;12848.35;-2.178845;-5.45479;12314.53;10837.17;-0.1981829;-0.1699039;0;
13166.24;12406.41;-109.5731;13914.21;0.6363831;-1.698326;13426.43;11952.59;-0.1330164;-0.03979845;0;
12678.06;11914.62;-29.09716;13544.75;1.97589;-2.366448;12934.9;11463.07;0.191954;-0.2996278;0;
2238.061;1475.137;307.0444;3406.765;-3.518451;-3.0339;2481.993;1015.521;0.5815651;-0.1044247;0;
-5224.094;-5970.666;356.0548;-4173.318;-2.376816;-3.2318;-4965.696;-6432.818;0.1262094;-0.1692872;0;
-3517.201;-4250.122;156.2192;-2718.917;-3.780948;-1.620963;-3229.42;-4703.658;-0.3286888;-0.5589211;0;
-4354.619;-5086.21;170.7892;-3503.664;-4.982597;-2.490112;-4061.912;-5536.542;-0.4582932;-0.03862076;0;
-4165.43;-4892.257;128.1233;-3425.587;9.959237;5.148323;-3869.862;-5344.167;-0.6527348;0.1563201;0;
5949.33;5224.67;-193.2033;6391.016;13.03069;8.291225;6258.375;4780.273;-0.3272422;-0.1037064;0;
13186.96;12448.79;-262.5992;13744.3;16.09808;-4.979422;13482.45;12010.4;-0.06704397;0.2862019;0;
11639.92;10889.77;-77.58448;12442.01;20.8383;-6.514965;11905.16;10443.2;0.06295808;0.3508817;0;
12805.41;12054.15;-94.90403;13551.57;8.157711;-9.723538;13063.83;11604.96;0.1278622;0.09065972;0;
12483.01;11727.94;-22.20454;13350.27;7.814721;-13.66564;12736.64;11282.65;-0.3270377;-0.2342681;0;
2033.842;1279.467;310.057;3205.104;1.376507;-4.140575;2273.47;825.6233;-0.001872395;-0.5588694;0;
-5505.07;-6242.413;354.9883;-4466.73;-3.98351;-3.466585;-5250.471;-6701.423;0.5828356;0.02639823;0;
-3713.467;-4436.358;147.517;-2940.57;12.36384;-4.132931;-3428.421;-4886.536;0.2574132;0.2862411;0;
-4558.872;-5278.506;164.7038;-3730.092;13.82528;-2.789181;-4267.646;-5725.389;0.06225254;-0.03888326;0;
-4423.888;-5138.114;120.9821;-3709.633;13.54297;-6.537301;-4129.395;-5586.266;0.451994;0.0910905;0;
5617.981;4904.098;-189.2336;6031.387;16.20868;-6.664698;5925.828;4463.798;0.3216052;-0.1688704;0;
12668.82;11940.04;-242.9226;13200.22;10.03045;-9.739155;12961.77;11504.62;-0.003554667;-0.2986354;0;
11132.83;10391.91;-65.47073;11902.51;10.62359;-12.27466;11394.03;9949.394;0.2563183;0.1564361;0;
12270.34;11528.23;-93.51581;12986.37;1.234815;-7.171745;12527.04;11083.51;0.2560607;0.2212462;0;
11642.79;10897.58;-40.69835;12481.67;-5.062089;-7.231522;11897.48;10454.93;-0.004065936;-0.03884546;0;
1147.05;403.7155;276.1989;2280.776;11.88858;-10.77429;1388.393;-46.11184;-0.06902919;-0.3636431;0;
-6322.599;-7048.164;326.7708;-5313.7;12.34613;-11.1653;-6065.131;-7501.568;-0.2638619;-0.2333431;0;
-4784.047;-5494.827;130.2442;-4028.066;9.788125;-13.9673;-4495.698;-5940.467;-0.1986294;0.1566955;0;
-5713.083;-6420.307;156.3502;-4910.636;14.26627;-14.48913;-5419.058;-6863.375;-0.06849512;-0.1033314;0;
-5407.993;-6109.853;101.3144;-4725.386;-9.995645;-17.2878;-5110.546;-6555.13;-0.5231977;-0.2981296;0;
4621.309;3919.405;-213.6916;5014.375;-14.20516;-19.4808;4931.356;3482.383;-0.522672;-0.102928;0;
11654.81;10937.87;-258.3137;12169.05;-5.550697;-10.82067;11949;10507.63;-0.002408057;-0.1028246;0;
10160.13;9429.637;-89.07661;10908.64;-8.894023;-8.934278;10422.19;8992.674;-0.1323403;-0.4275579;0;
11407.98;10675.09;-107.6028;12100.88;16.76901;-11.13568;11663.74;10236.32;-0.262142;-0.2322263;0;
10972.51;10235.99;-21.89704;11796.31;24.1869;-9.048077;11224.55;9799.843;0.1928928;0.2877458;0;
320.3633;-415.0106;304.3985;1464.019;13.98119;-14.73241;558.0035;-859.2446;0.06276426;0.2224893;0;
-7343.356;-8061;355.4886;-6317.291;15.17357;-15.99022;-7089.401;-8509.785;-0.3920702;0.3522004;0;
-5622.058;-6324.707;156.1221;-4853.426;7.991026;-10.54872;-5335.937;-6766.076;-0.2617415;0.4168139;0;
-6589.107;-7288.52;169.6146;-5753.126;1.351565;-10.60511;-6297.714;-7727.041;-0.1315439;0.09155835;0;
-6510.773;-7204.766;122.2023;-5786.107;5.36967;-7.982177;-6216.642;-7645.126;-0.196379;-0.2333703;0;
3689.395;2995.787;-200.0554;4111.953;2.684958;-7.103378;3997.348;2564.678;-0.3261164;-0.2981032;0;
10895.16;10186;-256.9976;11443.2;-20.56094;-9.373599;11188.53;9761.201;-0.2608214;-0.0379343;0;
9343.579;8620.177;-55.99649;10134.13;-27.23808;-9.163232;9604.451;8186.429;-0.1306246;0.4818425;0;
10592.71;9867.665;-66.84099;11328.63;-36.38677;-14.11064;10846.86;9433.51;-0.06552602;0.3514237;0;
10036.03;9307.558;-5.086086;10900.83;-44.12072;-16.4408;10287.05;8878.118;0.1294418;0.02623389;0;
-618.5141;-1346.381;310.9008;551.6322;-25.99075;-12.20448;-381.7436;-1784.385;0.1942791;-0.03875982;0;
-8064.274;-8773.67;350.4122;-7016.228;-23.21894;-11.72334;-7811.875;-9215.294;0.1291166;-0.2336229;0;
-6374.767;-7068.457;154.6583;-5578.163;-18.10539;-15.52952;-6089.825;-7501.703;-0.0009478562;0.02648122;0;
-7260.132;-7950.938;173.1029;-6409.012;-11.85791;-15.5809;-6969.354;-8382.875;-0.1308816;0.4162587;0;
-6924.033;-7610.335;109.2266;-6188.18;-13.05145;-14.69447;-6631.049;-8044.43;-0.06578273;0.09100369;0;
3120.472;2434.048;-209.4105;3565.013;-9.421009;-14.54574;3426.374;2008.573;0.1941527;-0.03902243;0;
10135.18;9433.583;-255.8329;10702;-8.875679;-10.51227;10426.29;9013.813;0.06402296;-0.03898322;0;
8671.356;7955.624;-71.762;9472.92;-7.0581;-9.764893;8930.307;7528.623;-0.001008711;-0.1039114;0;
9931.006;9212.619;-95.03754;10673.17;-11.94113;-4.932431;10182.51;8783.643;0.1938943;0.2210297;0;
9474.938;8752.745;-27.35102;10340.57;-14.40738;-1.980287;9722.506;8326.104;0.1936995;0.02590561;0;
-1037.334;-1758.896;297.4195;132.9347;-6.354948;-10.41796;-802.9459;-2193.697;0.2584722;-0.03908776;0;
-8531.149;-9234.714;332.9151;-7487.087;-5.276835;-11.61313;-8280.661;-9673.45;0.1932452;0.02591885;0;
-6771.614;-7459.822;126.4811;-5991.813;-10.69752;-8.118407;-6490.112;-7889.528;0.193051;-0.03907453;0;
-7651.333;-8336.163;154.7304;-6822.387;-11.08793;-7.842379;-7365.459;-8763.346;0.387759;0.2858014;0;
-7425.004;-8105.024;101.1642;-6717.159;-12.14852;-9.509011;-7138.013;-8535.618;0.1924674;0.2855143;0;
2780.112;2099.62;-219.1202;3182.649;-14.14604;-9.56644;3080.995;1676.891;-0.1975301;0.3501947;0;
9896.084;9200.346;-251.7585;10413.91;-6.294949;-6.006793;10184.01;8783.509;-0.3272663;0.2199082;0;
8331.109;7621.671;-57.71234;9083.576;-4.212519;-4.66116;8586.86;7197.413;-0.1970027;-0.6248882;0;
9556.399;8844.582;-84.42215;10253.58;-9.968086;-3.249834;9805.21;8418.438;-0.1318374;-0.754195;0;
8964.059;8248.365;2.244161;9787.501;-8.618899;-2.10792;9208.715;7824.493;-0.1966723;-0.3636332;0;
-1675.636;-2389.767;344.523;-547.3307;-11.62435;0.5065323;-1446;-2821.834;-0.1315074;-0.1683658;0;
-9071.703;-9767.031;364.2448;-8066.767;-11.14415;1.577628;-8824.15;-10202.94;0.1284941;0.1566401;0;
-7264.929;-7944.941;135.2281;-6523.526;-9.190574;0.4374552;-6984.547;-8372.263;0.2582997;0.1564827;0;
-8100.611;-8777.691;157.1125;-7312.212;-10.25209;0.5709815;-7816.42;-9201.461;0.4529422;-0.03857654;0;
-7745.428;-8418.36;109.7752;-7068.375;5.565696;-2.510807;-7458.305;-8843.391;0.5824218;0.1563643;0;
2394.949;1721.849;-209.3935;2783.857;9.64594;-3.512967;2695.652;1304.993;0.1270652;0.3511092;0;
9410.578;8722.568;-262.6406;9917.223;9.568899;-3.710386;9695.767;8309.754;-0.3278339;0.02591966;0;
7866.644;7164.364;-93.08679;8609.879;15.05164;-3.907607;8119.468;6743.343;-0.1326025;-0.2989431;0;
9068.693;8363.809;-117.2155;9768.454;-5.660112;-5.779141;9314.236;7942.899;-0.002534557;-0.2336754;0;
8543.56;7834.729;-32.45273;9374.487;-11.14776;-7.04601;8785.951;7417.271;0.19237;-0.03853855;0;
-1967.777;-2675.49;298.1481;-836.3979;2.929616;0.8649336;-1739.404;-3101.491;0.2571441;0.2863369;0;
-9368.829;-10057.21;341.2173;-8360.447;2.257087;2.940413;-9124.974;-10487.75;0.1919183;0.2860492;0;
-7576.655;-8248.794;123.7336;-6818.723;3.929759;1.731766;-7299.78;-8671.655;0.2566928;0.3507291;0;
-8435.638;-9104.728;121.1262;-7619.294;5.198608;3.806497;-8152.357;-9524.54;0.06153289;0.220442;0;
-8136.87;-8801.758;80.11877;-7435.243;3.384723;0.7885621;-7850.594;-9223.46;-0.06846362;-0.03964888;0;
2013.489;1348.613;-217.5309;2424.323;4.720492;1.52446;2312.471;935.1749;-0.3282642;-0.1045764;0;
8987.99;8308.166;-261.8212;9526.004;0.09404906;0.5852892;9270.117;7899.266;-0.3929017;-0.1694386;0;
7370.174;6676.071;-73.44956;8144.184;-1.312565;-0.2190941;7619.284;6257.743;-0.002702856;-0.2342357;0;
8601.927;7905.179;-95.19292;9316.876;2.238727;6.479175;8844.82;7485.772;0.2571692;-0.2989677;0;
8084.383;7383.526;-22.63369;8920.521;1.164751;7.27646;8323.004;6968.069;0.3218782;-0.428602;0;
-2426.96;-3127.239;287.4832;-1292.969;3.910247;12.82861;-2203.26;-3550.804;0.5164568;-0.363204;0;
-9801.376;-10482.68;311.151;-8789.26;4.374832;16.76759;-9559.598;-10910.69;0.5159378;0.1568997;0;
-8147.073;-8812.48;125.8845;-7386.426;1.021534;6.033718;-7872.397;-9232.41;-0.134254;0.2217094;0;
-9201.603;-9865.123;155.8054;-8391.246;1.823815;4.95605;-8923.58;-10281.04;-0.5888905;-0.2982521;0;
-8953.04;-9611.552;101.9102;-8263.905;-6.684484;6.759487;-8672.267;-10028.64;-0.003592706;0.02688427;0;
1228.531;571.1801;-214.6425;1619.185;-9.223363;4.475398;1522.609;161.3169;0.06137824;0.2867266;0;
8259.668;7586.111;-277.5201;8764.341;-2.113173;12.24068;8537.396;7180.533;-0.1985528;0.02656915;0;
6717.702;6028.705;-94.56745;7451.065;-1.910955;13.63502;6962.573;5615.538;0.06151608;-0.1033922;0;
8014.421;7323.181;-107.3253;8688.296;2.578944;8.463755;8252.488;6908.462;-0.1334478;0.02664634;0;
7440.653;6746.421;-33.47332;8243.348;4.719806;8.522233;7674.576;6332.775;-0.1333137;0.1565543;0;
-3275.597;-3969.849;291.8499;-2172.11;4.24655;3.691021;-3056.589;-4392.201;0.191657;-0.1034724;0;
-10810.94;-11487.74;330.5683;-9844.367;5.51508;1.074978;-10574.64;-11913.29;0.06152973;-0.2333031;0;
-9198.209;-9857.476;132.9603;-8489.12;3.432458;5.360805;-8928.746;-10276.01;-0.003499434;0.1567353;0;
-10258.19;-10914;169.4333;-9490.427;2.960494;5.15447;-9983.631;-11329.43;-0.003495917;0.3514799;0;
-10008.69;-10659.94;138.3411;-9360.436;1.885793;1.599195;-9730.581;-11074.89;-0.003492405;0.4160941;0;
192.6925;-457.6017;-178.1077;539.5297;1.348034;0.3920176;484.1921;-864.8528;0.3863152;0.1558066;0;
7175.177;6508.981;-241.631;7644.104;-1.265289;1.329263;7450.11;6106.419;0.3209596;-0.1042193;0;
5470.539;4790.458;-55.23182;6180.873;-2.0683;0.7921856;5712.025;4378.805;-0.06916691;-0.03914727;0;
6655.631;5973.61;-73.04234;7310.904;-0.3912829;-0.548269;6891.534;5558.653;-0.1340647;-0.1690426;0;
6061.458;5376.061;-2.238873;6849.193;-0.05609703;-1.485479;6294.094;4965.645;0.1909067;-0.03893808;0;
-4597.841;-5282.361;328.1286;-3505.519;1.015686;-1.216055;-4379.9;-5699.112;0.3856169;0.1560031;0;
-11991.1;-12658.53;371.7611;-11030.81;0.4114533;-1.281816;-11754.82;-13078.8;0.06039269;0.02591163;0;
-10251.2;-10901.81;160.2125;-9544.558;8.448992;-5.969211;-9982.863;-11313.69;-0.004635337;-0.03908175;0;
-11139.85;-11787.81;161.8475;-10377.84;10.51661;-7.771752;-10866.63;-12197.06;0.320206;0.2208269;0;
-10761.06;-11404.94;95.51499;-10109.71;3.808235;-4.079943;-10483.7;-11815.49;-0.2648218;0.09067032;0;
-660.4449;-1302.081;-211.333;-292.4231;3.134823;-3.53998;-370.5077;-1704.041;-0.4594577;-0.2342575;0;
6193.93;5537.009;-228.1122;6681.209;-4.102972;-6.081714;6467.459;5139.701;-0.004224664;-0.1040874;0;
4537.379;3866.313;-46.00562;5250.649;-8.384781;-6.142585;4776.713;3459.191;0.1257143;-0.2988849;0;
5809.085;5135.383;-97.82394;6468.883;-5.630665;-4.528884;6041.15;4726.139;0.4504246;-0.4934866;0;
5209.515;4532.179;-28.79155;6008.611;-7.298971;-4.055453;5438.724;4126.283;0.5799068;-0.168154;0;
-5432.029;-6108.81;301.259;-4333.449;-10.50682;-3.247583;-5215.17;-6523.012;0.4493894;-0.2329524;0;
-12800.94;-13461.5;346.9332;-11832.57;-11.09947;-3.043371;-12565.2;-13878.63;0.3190031;-0.2327183;0;
-11131.49;-11775.41;154.4624;-10408.35;-14.23615;0.6436875;-10865.86;-12183.47;0.1237806;0.09235223;0;
-12103.12;-12744.24;180.747;-11327.22;-16.09786;2.786373;-11833.34;-13149.14;-0.2011805;0.02729209;0;
-11698.13;-12333.89;129.7628;-11044.96;-8.914387;-3.51264;-11423.17;-12741.16;-0.3958804;-0.10267;0;
-1470.229;-2103.505;-196.3756;-1108.208;-8.235844;-4.17894;-1183.518;-2503.997;-0.5903846;0.1573025;0;
5410.634;4760.69;-248.5113;5900.977;-7.758078;-0.6916891;5680.315;4365.068;-0.5897914;0.2221118;0;
3685.25;3020.966;-70.78832;4408.576;-6.411112;-0.5570282;3923.394;2616.465;-0.3942968;-0.2328828;0;
4952.376;4286.043;-104.5127;5610.571;-11.56223;1.51988;5184.191;3879.606;-0.3289332;-0.4275508;0;
4362.257;3692.345;-18.62269;5153.785;-11.2822;2.389131;4589.529;3288.659;0.06120134;-0.1022845;0;
-6316.948;-6986.312;314.5098;-5219.557;-18.70658;4.19527;-6102.43;-7397.963;0.1910745;-0.1671491;0;
-13667.84;-14320.16;333.3873;-12704.25;-21.76826;5.798645;-13434.48;-14732.87;-0.004019486;-0.4918178;0;
-11931;-12566.62;124.8132;-11219.99;-14.379;1.907808;-11666.35;-12970.13;0.1908866;-0.361389;0;
-12947.45;-13581.63;159.5453;-12182.35;-14.69934;0.8342863;-12676.63;-13982.24;0.06076009;-0.03618911;0;
-12623.91;-13252.92;118.4993;-11981.14;-9.995523;4.450404;-12348.41;-13654.19;0.1256664;0.09378194;0;
-2443.946;-3069.938;-193.6505;-2091.851;-8.244168;4.111018;-2156.699;-3463.932;0.4503768;0.1586551;0;
4437.302;3795.479;-251.3955;4918.01;-7.49895;3.972921;4708.3;3405.066;0.1900549;0.3533977;0;
2785.234;2130;-86.74115;3500.247;-4.209861;4.236861;3024.351;1730.984;-0.3298748;0.4180099;0;
4037.804;3380.262;-111.4696;4695.221;-16.26207;0.8834572;4271.027;2979.46;-0.3945107;0.09275318;0;
3390.664;2729.909;-16.60839;4181.447;-19.05877;1.552399;3620.123;2330.042;0.1256245;0.02769264;0;
-7273.509;-7933.6;316.5846;-6185.265;-10.53315;-4.276493;-7058.336;-8339.5;0.4503349;0.2875342;0;
-14596.75;-15241.33;342.6282;-13643.64;-10.58894;-5.879725;-14363.74;-15646.82;-0.004888943;0.09234324;0;
-12856.12;-13485.79;143.1497;-12148.55;-8.904339;3.838464;-12591.78;-13884.13;-0.1348187;0.09225045;0;
-13893.93;-14523.03;169.6955;-13124.96;-8.091109;5.844095;-13623.97;-14917.59;0.3200881;0.2220924;0;
-13564.63;-14188.7;102.7461;-12911.29;-8.217677;11.86644;-13290.52;-14583.76;0.4497012;-0.03800008;0;
-3354.776;-3975.464;-223.5682;-2984.396;-7.673556;16.47622;-3069.339;-4364.894;0.05944529;-0.1678966;0;
3526.575;2890.426;-262.5582;4028.58;-12.35392;11.23512;3796.202;2504.073;-0.3304185;-0.3626299;0;
1845.281;1195.809;-79.277;2576.916;-14.8871;11.29081;2082.684;799.4124;-0.07021712;-0.4272329;0;
3131.03;2479.587;-112.4619;3796.493;-10.38416;16.97289;3360.386;2081.121;-0.005179222;-0.2319016;0;
2578.097;1923.217;-35.52811;3377.574;-9.837867;17.35774;2802.694;1527.151;-0.200076;-0.1017339;0;
-8062.271;-8716.274;296.4189;-6957.688;-18.67022;16.46952;-7851.362;-9120.595;-0.004972981;0.02830304;0;
-15358.28;-15996.57;336.5382;-14392.27;-19.72221;17.39073;-15129.98;-16403.48;-0.2648374;0.1582093;0;
-13561.35;-14184.87;143.0784;-12843.69;-21.71212;7.861923;-13301.46;-14581.91;-0.3945059;0.287985;0;
-14623.11;-15244.89;185.0228;-13842.42;-24.03483;5.040862;-14357.32;-15635.81;0.06066187;0.2227283;0;
-14207.4;-14823.92;145.8878;-13555.02;-12.69117;8.183873;-13938.72;-15216.68;0.1255683;0.09256981;0;
-3852.881;-4466.765;-179.4704;-3496.791;-10.20018;5.89823;-3573.216;-4854.311;-0.1344273;0.1574441;0;
2921.056;2291.578;-233.216;3411.345;-10.05523;15.20281;3183.699;1907.983;-0.06932487;-0.03761609;0;
1241.651;598.9065;-49.77692;1965.018;-7.031015;18.40259;1470.984;206.0143;-0.004287866;-0.1025456;0;
2687.083;2042.423;-76.21359;3346.411;-8.966333;9.877512;2909.095;1645.302;-0.1342182;0.09245943;0;
2042.143;1393.695;-5.609963;2836.49;-6.412705;10.06854;2260.309;997.3179;-0.06911603;-0.1675029;0;
-8590.847;-9238.705;309.8309;-7500.931;-13.10407;8.182898;-8384.269;-9639.369;-0.1989813;-0.03739985;0;
-15743.05;-16375.88;336.6934;-14797.85;-15.3017;5.562463;-15518.68;-16776.39;-0.6535527;0.02760507;0;
-14029.93;-14648.78;132.4576;-13334.17;-4.70278;15.4701;-13775.09;-15041.13;-0.652896;-0.03739001;0;
-15156.99;-15774.18;169.6026;-14400.2;-5.166569;17.66487;-14896.99;-16161.88;-0.3274033;0.09258224;0;
-14738.26;-15350.14;120.1757;-14107.5;4.282118;7.934843;-14476.52;-15740.47;-0.1971396;0.1574566;0;
-4444.028;-5052.886;-217.2755;-4109.326;8.899515;6.855143;-4171.51;-5438.794;-0.1319742;0.6770371;0;
2404.309;1781.415;-244.1529;2869.485;-5.510391;5.307769;2662.186;1399.642;0.1929951;0.5464221;0;
784.3004;149.7876;-38.87004;1479.548;-5.638577;2.824068;1011.558;-240.9404;0.2577685;-0.1038004;0;
2130.429;1495.398;-72.09551;2761.667;-12.19699;8.648623;2351.586;1100.003;-0.06732719;0.286108;0;
1433.169;794.4971;15.71408;2200.141;-16.20323;9.24278;1649.669;398.6557;0.1276425;0.3507878;0;
-9301.688;-9940.687;339.4262;-8235.747;-6.47503;3.941962;-9098.556;-10342.31;0.2574489;0.02559866;0;
-16601.62;-17224.98;363.1199;-15673.51;-7.540251;2.062479;-16380.53;-17625.8;0.1922229;0.415377;0;
-14882.87;-15491.95;167.8218;-14204.15;2.313939;4.672741;-14631.39;-15883.66;0.3219644;0.2850249;0;
-15953.28;-16561.1;189.4079;-15220.19;6.664894;3.864251;-15698.04;-16949.04;0.06177155;-0.1700328;0;
-15521.43;-16123.81;126.5147;-14917.94;-2.451482;-0.2254686;-15264.02;-16515.59;-0.003257859;0.1549747;0;
-5201.761;-5801.899;-208.6628;-4892.61;-0.6403571;-1.899815;-4933.918;-6191.237;0.1266801;0.4146884;0;
1611.044;996.2973;-263.0663;2049.725;-9.748416;-6.251675;1860.689;608.8503;-0.1333166;0.3493043;0;
-104.6194;-730.6175;-79.90951;563.599;-13.55701;-8.790684;112.4163;-1128.139;-0.06821526;0.4139207;0;
1180.527;553.5027;-100.7093;1789.666;-2.156538;-11.19318;1390.161;151.2898;-0.003179374;0.08866807;0;
380.4926;-249.8686;-11.1375;1126.825;-1.752229;-14.33006;584.3248;-653.1142;-0.003176179;-0.2362577;0;
-10380.76;-11010.83;313.7416;-9340.905;-2.487403;-7.081693;-10189.94;-11421.67;0.191729;0.08881637;0;
-17604.18;-18220.03;347.0189;-16707.31;-2.819696;-4.39532;-17395.4;-18630.5;0.0616017;0.2186618;0;
-15949;-16551.3;147.8639;-15297.13;-1.209273;-14.37112;-15709.36;-16952.18;-0.003427536;-0.171362;0;
-17117.21;-17717.83;161.0992;-16404.68;-0.7395429;-14.28969;-16874.57;-18115.63;0.3214126;-0.3660918;0;
-16685.19;-17280.52;100.374;-16102.4;-7.705025;-11.66306;-16444.15;-17684.21;-0.06871439;-0.1058546;0;
-6338.145;-6930.331;-216.2396;-6047.629;-9.036453;-11.58436;-6087.576;-7332.106;-0.5883841;0.2840559;0;
449.2527;-156.8001;-258.8445;878.0167;-15.12294;-1.123627;685.3892;-553.9238;-0.2629562;0.3487378;0;
-1339.456;-1956.488;-67.1963;-675.3976;-17.98813;2.360493;-1134.167;-2362.989;0.1271121;0.08851798;0;
4.183871;-612.2904;-87.68095;607.5115;-17.97006;4.63554;202.8329;-1023.693;0.1919517;0.2183637;0;
-681.8817;-1303.671;-15.45723;56.7401;-21.50198;8.71672;-489.804;-1714.629;-0.00314317;0.348079;0;
-11483.83;-12107.8;308.0363;-10455.22;-9.959796;2.545653;-11308.36;-12528.47;-0.1330747;0.02289253;0;
-18740.23;-19348.45;338.7737;-17857.38;-8.274849;2.208181;-18547.65;-19770.48;-0.003006298;0.08783687;0;
-16993.08;-17587.18;141.3605;-16354.96;-8.869746;4.282433;-16770.75;-17998.45;-0.132938;0.2176833;0;
-18104.85;-18697.78;170.2039;-17406.18;-4.239134;2.402608;-17880.13;-19106.72;0.516869;0.2174646;0;
-17653.42;-18241.62;90.19799;-17080.8;-25.06522;8.227587;-17427.92;-18655.1;0.386415;0.2822134;0;
-7312.042;-7897.482;-250.9712;-7027.931;-29.99751;9.291046;-7077.599;-8307.564;-0.4585487;0.02206046;0;
-546.9659;-1145.655;-268.1165;-133.4875;-19.78596;1.846727;-330.6254;-1555.607;0.3215201;-0.04292905;0;
-2253.746;-2864.202;-54.31383;-1620.231;-23.44977;1.175042;-2070.543;-3285.892;0.3861644;-0.1728206;0;
-957.1317;-1567.224;-87.52378;-384.8169;-3.733962;-2.242146;-779.9231;-1993.55;-0.263897;-0.04271226;0;
-1827.357;-2440.647;-13.14506;-1115.094;4.508812;-4.24932;-1654.949;-2867.045;0.1261722;0.2821674;0;
-12584.52;-13198.27;308.8625;-11581.43;-18.60422;0.7784867;-12426.01;-13631.1;0.3209474;-0.04295287;0;
-19756.15;-20354.7;333.118;-18892.85;-18.31808;1.246585;-19580.19;-20786;0.06075558;-0.1728444;0;
-18118.63;-18705.51;148.8289;-17494.65;-19.23671;3.25482;-17913.92;-19126.28;-0.1342075;0.08719865;0;
-19271.66;-19856.87;172.3549;-18588.15;-22.8347;4.792157;-19062.46;-20274.88;0.06082939;0.2820131;0;
-18700.84;-19279.92;95.29849;-18150.44;-3.186853;6.863691;-18487.9;-19701.46;0.1257356;0.2167624;0;
-8282.937;-8860.523;-215.6879;-8022.953;0.03153015;9.603095;-8059.35;-9277.643;0.06064193;-0.04332482;0;
-1498.176;-2089.395;-243.8475;-1097.665;1.706438;4.971745;-1290.432;-2504.47;0.3854177;0.02168605;0;
-3198.94;-3799.966;-65.00475;-2564.262;6.527494;4.96675;-3020.452;-4226.056;-0.1996756;0.346501;0;
-1875.577;-2478.029;-85.47599;-1299.914;-7.678958;8.712681;-1703.796;-2907.095;-0.6542464;0.2811855;0;
-2677.226;-3285.069;12.31079;-1960.806;-10.35056;8.837893;-2510.553;-3710.582;-0.003915595;-0.1738685;0;
-13491.94;-14099.82;349.6133;-12478.08;-7.058606;14.32149;-13338.23;-14532.32;0.3209251;-0.2386611;0;
-20715.84;-21308.67;382.261;-19843.94;-9.395061;16.9863;-20545.15;-21741.83;0.2556352;-0.2384213;0;
-18923.31;-19503.6;163.2524;-18298.44;-5.032341;12.01261;-18721.83;-19925.7;0.3203457;-0.108247;0;
-20019.14;-20597.63;181.7665;-19335.73;-2.883831;12.13451;-19814.71;-21018.57;0.2550565;0.1517311;0;
-19499.27;-20072.11;136.2785;-18945.78;-14.06672;12.25628;-19292.45;-20498.04;0.05989818;-0.1082907;0;
-8962.077;-9532.35;-197.3002;-8701.182;-16.93297;10.6365;-8743.135;-9953.478;-0.4599007;0.02175276;0;
-2114.791;-2698.577;-244.4063;-1718.366;-5.931243;16.3861;-1914.184;-3118.407;-0.2645366;-0.04323644;0;
-3870.282;-4465.663;-39.07632;-3243.466;-6.326449;16.9055;-3700.705;-4896.785;-0.004401426;0.02177435;0;
-2530.565;-3127.409;-62.52525;-1963.442;0.5114349;12.53474;-2367.155;-3561.533;-0.1343317;0.2816218;0;
-3342.863;-3943.667;17.16942;-2636.13;3.994522;11.9193;-3185.489;-4375.949;0.385542;0.1514042;0;
-14124.5;-14724.94;340.5677;-13129.5;-13.35819;6.347862;-13979.88;-15164.56;0.7099913;0.2162194;0;
-21233.58;-21819.48;340.3505;-20385.09;-18.16754;3.46134;-21071.09;-22257.6;0.3194739;0.2809695;0;
-19469.44;-20043.26;137.3916;-18863.21;-14.06345;5.199418;-19276.98;-20470.21;0.3191529;0.1507525;0;
-20606.99;-21178.24;184.3705;-19942.69;-16.12543;3.318671;-20410.82;-21603.52;0.2538649;-0.04430104;0;
-19987.8;-20553.44;111.9715;-19456.65;-24.07982;4.320081;-19788.49;-20981.6;-0.1361943;-0.1741912;0;
-9488.219;-10052.07;-219.2402;-9245.534;-27.00337;4.31574;-9275.915;-10474.44;-0.2659921;-0.3689182;0;
-2746.865;-3322.505;-247.9272;-2361.653;-28.24903;0.1585838;-2550.251;-3742.421;-0.2007575;-0.3035802;0;
-4445.094;-5030.963;-51.01136;-3825.949;-31.5022;-0.7123537;-4280.474;-5462.357;-0.0706211;0.1514963;0;
-3055.73;-3643.415;-76.05687;-2494.303;-21.62393;1.163762;-2896.367;-4078.249;0.1243519;0.4112134;0;
-3820.117;-4412.147;-3.641807;-3116.171;-19.72717;2.23432;-3662.664;-4842.64;0.2541616;0.2158982;0;
-14549.51;-15142.12;335.6288;-13551.06;-24.06063;-0.04522299;-14406.49;-15578.38;0.3838409;-0.1741228;0;
-21673.29;-22251.15;375.5057;-20814.94;-22.69728;0.8254786;-21515.07;-22688.13;0.3184879;-0.4338172;0;
-19797.47;-20362.84;165.8118;-19182.07;-30.44401;2.633188;-19608.32;-20789.77;0.1882332;-0.3034466;0;
-20817.59;-21381.31;191.9444;-20145.74;-32.55687;2.965457;-20623.69;-21804.34;0.1230767;-0.2381744;0;
-20337.06;-20895.29;127.3152;-19793.32;-29.71112;10.39746;-20139.13;-21318.67;-0.1369163;0.08690166;0;
-9966.06;-10522.08;-193.7451;-9707.397;-30.68564;12.06146;-9756.208;-10939.64;-0.2667134;0.3466837;0;
-3197.818;-3765.988;-221.7863;-2797.237;-28.37764;14.52771;-3006.075;-4182.696;-0.1365108;-0.108436;0;
-4922.861;-5501.049;-50.78989;-4295.297;-28.28275;16.79041;-4761.764;-5928.239;0.3183978;-0.3032291;0;
-3560.471;-4139.453;-90.68753;-3003.503;-25.37394;6.860313;-3403.784;-4569.212;0.3830452;0.08687963;0;
-4319.354;-4903.283;-3.077895;-3623.328;-23.60713;4.442156;-4167.947;-5331.61;-0.2020457;0.3466617;0;
-15007.31;-15592.2;319.5287;-14021.26;-28.13776;5.576281;-14869.8;-16028.41;-0.07190804;0.2163787;0;
-22009.25;-22579.12;337.3391;-21169.35;-28.24321;4.767004;-21852.33;-23014.53;0.2530009;0.08622658;0;
-20208.45;-20766.83;138.3344;-19606.2;-28.7507;-0.7302641;-20021.2;-21191.68;-0.007122667;0.08613995;0;
-21350.41;-21907.09;178.1441;-20695.1;-29.45874;-3.073933;-21162.4;-22330.43;-0.3319522;0.2809554;0;
-20679.97;-21229.9;108.703;-20161.18;-27.01825;4.565088;-20488.2;-21654.93;-0.3316187;0.02080374;0;
-10205.01;-10752.48;-222.5679;-9969.851;-26.52161;5.23033;-9999.784;-11171.89;-0.2663181;-0.1091518;0;
-3596.021;-4156.177;-236.3997;-3215.926;-24.61992;11.99011;-3410.012;-4574.783;-0.2010832;-0.04407483;0;
-5372.857;-5943.476;-41.71302;-4761.197;-22.25066;16.86769;-5218.113;-6371.718;0.05898824;-0.1089979;0;
-3979.875;-4550.669;-75.91952;-3434.89;-25.71093;7.607342;-3828.753;-4981.761;-0.006038375;0.2809157;0;
-4796.307;-5371.307;13.08082;-4105.943;-25.01551;8.202544;-4649.242;-5800.341;-0.07099965;0.0857314;0;
-15571.8;-16147.82;360.2994;-14588.7;-18.62736;9.73491;-15438.22;-16582;0.2539084;-0.04428943;0;
-22610.1;-23170.91;400.6825;-21770.55;-16.19774;8.586418;-22459.63;-23605.95;-0.006216095;0.2156245;0;
-20705.2;-21253.37;179.063;-20101.47;-12.76522;17.48628;-20524.29;-21679.83;-0.07117719;-0.1094289;0;
-21766.49;-22312.58;185.3642;-21146.38;-9.939352;19.0763;-21580.71;-22734.97;0.4486331;-0.304221;0;
-21208.89;-21750.08;129.7839;-20720.96;-8.254426;17.31557;-21018.76;-22174.2;0.2532803;-0.1090133;0;
-10705.74;-11245.23;-184.6573;-10460.93;-6.43747;17.90102;-10502.41;-11664.66;0.1230911;0.215933;0;
-3883.716;-4435.632;-228.7776;-3501.034;-6.09621;13.12737;-3696.524;-4851.042;0.1879347;0.08578131;0;
-5622.875;-6185.606;-54.02608;-5002.791;-5.889013;10.97072;-5465.606;-6609.063;-0.007156136;-0.5639783;0;
-4255.815;-4819.387;-84.22221;-3712.691;-5.01244;11.22763;-4104.14;-5246.759;0.1877531;-0.4984443;0;
-5062.756;-5631.446;-0.6170664;-4361.133;-4.806333;10.07776;-4915.98;-6056.796;0.1875644;-0.1731067;0;
-15871.28;-16441.27;329.6863;-14890.66;-8.016684;5.713745;-15738.79;-16873.43;-0.2024281;-0.3028675;0;
-22883.61;-23438.2;362.5414;-22057.03;-8.2097;4.636399;-22735.78;-23870.76;-0.07229001;-0.2375958;0;
-21060.43;-21602.21;162.6368;-20449.81;-12.35464;3.560013;-20881.19;-22022.94;0.3175867;0.08747964;0;
-22217.13;-22756.84;177.5908;-21871.78;-14.35098;2.752641;-22031.98;-23174.92;0.5771369;-0.237445;0;
-21474.7;-22009.13;97.18708;-21327.13;-7.772475;7.840456;-21286.65;-22430.25;-0.008149051;-0.4970757;0;
-10950.18;-11483.03;-222.578;-10725.61;-7.296151;8.703356;-10750.93;-11898.07;-0.2030429;-0.1067722;0;
-4282.087;-4827.739;-247.5136;-3892.321;-4.341082;14.72295;-4099.141;-5240.958;0.5767692;-0.04169761;0;
-5884.883;-6442.012;-67.19916;-5295.25;-2.595408;18.19115;-5731.699;-6864.343;0.446255;-0.2365577;0;
-4479.393;-5038.116;-89.54224;-3944.59;-6.210123;12.47944;-4332.328;-5462.146;-0.2038668;0.02354932;0;
-5451.088;-6015.061;4.828463;-4757.59;-6.940817;12.80182;-5309.575;-6436.666;-0.008759937;0.5432644;0;
-16275.48;-16839.7;329.0356;-15308.86;-5.995838;11.65025;-16146.79;-17267.59;0.05621621;0.6076859;0;
-23302.54;-23850.26;349.0542;-22497.7;-6.057162;10.09805;-23155.97;-24278.32;-0.268677;0.1523039;0;
-21423.54;-21958.73;146.6175;-20812.36;-14.69126;13.169;-21246.84;-22376.37;-0.2034397;-0.0427512;0;
-22489.45;-23022.12;187.0123;-22443;-18.62862;13.22275;-22309.32;-23436.98;-0.2682026;-0.1076756;0;
-21872.81;-22398.95;123.9185;-22060.98;-12.78275;8.453798;-21688.96;-22817.56;-0.3978678;0.02236729;0;
-11344.6;-11869.18;-211.7248;-11108.37;-13.30577;6.100902;-11147.15;-12283.18;-0.202566;0.2822142;0;
-4585.778;-5123.573;-238.4048;-4188.818;-8.670699;11.05139;-4404.445;-5535.35;-0.07242776;0.1519959;0;
-6342.628;-6892.189;-48.12017;-5746.777;-1.226271;11.17425;-6192.65;-7312.361;-0.267257;-0.1080262;0;
-4950.827;-5502.084;-77.24466;-4428.647;-24.40089;4.665919;-4807.558;-5924.707;-0.3319558;0.08698441;0;
-5756.319;-6313.208;15.03661;-5050.726;-27.72527;2.58476;-5617.162;-6733.126;-0.0717529;0.2168317;0;
-16577.41;-17135.22;341.4355;-15645.54;-8.875822;4.390702;-16451.83;-17559.38;0.05825388;0.08667913;0;
-23616.7;-24157.32;365.0492;-23150.01;-14.15819;4.520256;-23475.11;-24581.87;-0.201674;0.0216247;0;
-21772.48;-22299.14;164.533;-21427.88;28.65679;-0.9097815;-21598.28;-22715.19;-0.2664387;0.08657031;0;
-22893.44;-23418.13;186.6533;-23352.75;40.68443;-1.578697;-22719.41;-23831.39;-0.3311383;-0.1084187;0;
-22169.61;-22689.24;126.1055;-22909.25;2.531852;-2.380906;-21989.8;-23104.67;-0.4607403;-0.04334242;0;
-11696.5;-12214.83;-182.4287;-11445.27;3.466337;-4.722855;-11500.46;-12624.07;-0.07047329;-0.04329887;0;
-5051.125;-5583.073;-205.2026;-4642.234;-41.07921;8.611189;-4875.309;-5989.123;0.6442383;-0.3680921;0;
-6615.604;-7159.637;-20.57348;-6028.48;-60.86488;11.88458;-6464.421;-7574.461;0.7735256;0.02208184;0;
-5209.066;-5755.021;-65.45211;-4727.933;-29.58992;6.246192;-5072.279;-6171.77;0.123075;0.3468964;0;
-6281.103;-6833.412;7.88932;-5520.75;-32.5743;8.048455;-6138.831;-7246.369;-0.00698338;0.1516458;0;
-17173.31;-17725.75;348.6788;-16378.82;-29.72853;-0.2652714;-17050.81;-18143.51;0.252893;0.1514934;0;
-24129.55;-24663.56;378.1104;-24514.38;-26.01496;-2.542424;-23989.09;-25082.1;0.05773687;-0.1734955;0;
-22274.1;-22794.76;162.7916;-22481.92;-23.24216;0.07234245;-22090.24;-23204.86;0.1876135;-0.3032559;0;
-23430.39;-23948.52;177.886;-24625.6;-19.13297;-1.669164;-23420.26;-24355.26;0.5122617;-0.1730165;0;
-22694.49;-23207.97;107.5863;-24326.11;-14.35832;2.686281;-22704.42;-23616.03;0.316845;-0.432712;0;
-12168.56;-12682.2;-194.0578;-11932.38;-10.86127;3.08548;-11974.44;-13086.67;-0.2681794;-0.3673099;0;
-5564.35;-6090.916;-202.7646;-5131.992;-16.61015;4.221089;-5382.229;-6494.234;-0.462812;-0.1720388;0;
-7267.275;-7806.087;-10.70413;-6696.687;-17.12933;5.824316;-7119.195;-8216.34;0.1873264;-0.1068986;0;
-5894.815;-6433.867;-38.92918;-5469.071;-23.00661;0.3259855;-5763.376;-6845.832;0.3820402;0.1530782;0;
-6881.081;-7427.274;33.97956;-6020.046;-25.66281;-0.678964;-6730.409;-7836.982;-0.00814769;-0.1719123;0;
-17742.42;-18287.83;349.3181;-17306.6;-27.71313;0.2593572;-17629.96;-18701.71;-0.1380742;-0.4316089;0;
-24722.61;-25248.78;362.6946;-26710.51;-29.5613;-0.8125083;-24606.23;-25662.11;-0.2029028;0.02359613;0;
-22854.16;-23368.48;166.2569;-23983.93;-26.91962;-0.5437601;-22681.26;-23773.17;-0.07276423;-0.1063623;0;
-23963.72;-24454.13;199.4793;-25833.55;-27.29374;-1.681924;-24377.95;-24856.08;0.3820803;-0.6909614;0;
-23192.47;-23679.76;110.4173;-25739.61;-17.95654;-0.8094555;-23644.71;-24082.98;0.4466637;-0.6252998;0;
-12738.37;-13246.67;-209.6266;-12483.04;-14.38853;-0.8086421;-12518.87;-13644.46;-0.008556499;-0.1699001;0;
-6178.138;-6696.177;-212.8205;-5663.103;-16.04803;-3.219215;-5985.798;-7091.626;-0.2034499;0.0251726;0;
-7784.245;-8320.129;-19.28199;-7228.264;-14.42432;-2.7471;-7634.764;-8724.021;0.05662387;0.09011465;0;
-6466.395;-6992.494;-61.49139;-6017.98;-13.13703;-8.236818;-6350.359;-7398.916;-0.138335;0.2849261;0;
-7559.063;-8105.468;14.5166;-6588.628;-11.24879;-9.836071;-7375.491;-8507.733;-0.4630328;-0.04019688;0;
-18334.72;-18869.17;339.245;-18273.02;-20.07875;-3.396009;-18297.27;-19275.02;-0.007796113;-0.6248626;0;
-25151.28;-25667.32;344.6669;-28367.67;-22.4031;-2.588802;-25647.58;-26075.35;0.3170484;-0.3643653;0;
-23244.1;-23762.71;136.144;-25097.2;-17.22302;1.499636;-23477.2;-24163.75;-0.008106851;0.1557395;0;
-24596.68;-24844.56;172.1452;-27196.51;-17.67423;3.976498;-25193.71;-25241.25;-0.07306605;0.09061569;0;
-23821.1;-24040.09;113.1425;-27057.83;-14.84343;2.163963;-24540.45;-24438.45;0.3817787;-0.2343121;0;
-13055.44;-13560.79;-210.1057;-12722.12;-14.02521;2.965584;-12832.63;-13955.21;0.1864931;-0.03917461;0;
-6468.285;-6987.474;-252.5138;-5921.342;-11.13073;4.034331;-6257.865;-7380.047;-0.138531;0.3506688;0;
-8161.993;-8695.466;-58.21695;-7607.37;-8.775022;4.834073;-8014.91;-9096.921;0.05651025;0.2203818;0;
-6782.668;-7289.649;-81.63103;-6343.436;-13.85642;0.4753247;-6686.395;-7692.232;0.05645347;0.2851277;0;
-7683.928;-8243.841;-7.820438;-6639.394;-14.17826;-0.7977066;-7443.074;-8642.271;-0.0085706;0.4147759;0;
-18643.72;-19144.93;317.8675;-18916.77;-15.30212;1.748324;-18803.58;-19549.99;0.3812421;0.2194571;0;
-25640.09;-26034.68;329.4015;-29844.19;-18.09978;1.478636;-26946.9;-26441.28;0.5107937;-0.1056002;0;
-23680.85;-24123.48;119.7538;-26393.25;-9.106614;3.218706;-24358.33;-24519.74;0.3803457;-0.3003961;0;
-25819.28;-25397.56;158.5827;-29601.39;-7.087731;4.220216;-26573.57;-25790.13;0.3799636;0.02474247;0;
-25156.34;-24635.22;83.13306;-29261.22;-18.26639;3.546146;-26142.9;-25029.83;0.4445491;0.3495543;0;
-13471.82;-13990.24;-245.3011;-13088.66;-19.65456;4.346378;-13236.33;-14377.82;-0.01066896;0.08933371;0;
-6839.106;-7391.948;-241.9155;-6266.504;-21.2424;5.413616;-6603.854;-7777.37;-0.1405929;0.08924396;0;
-8500.49;-8996.335;-40.44547;-7944.486;-23.76665;6.613869;-8365.674;-9392.458;0.1194177;0.2840563;0;
-6905.215;-7427.392;-86.52227;-6437.179;-17.6472;5.267565;-6792.523;-7824.148;-0.0756043;0.2188036;0;
-7911.845;-8462.562;8.454469;-6853.483;-17.22733;4.592565;-7663.21;-8854.296;0.05440635;-0.1712204;0;
-18885.63;-19362.23;345.8389;-19229.61;-18.61751;10.01345;-19102.16;-19759.41;0.1842864;-0.3659503;0;
-26028.55;-26148.71;345.6944;-30515.8;-18.7989;10.80706;-27584.63;-26546.2;-0.07576817;-0.3655826;0;
-23992.89;-24217.32;122.381;-26788.88;-16.90498;9.992525;-24778.8;-24605.54;-0.1406594;-0.1053459;0;
-25839.78;-25329.63;139.921;-29602.5;-15.14668;11.05409;-26514.17;-25714.74;-0.4003874;0.284564;0;
-25047.81;-24430.18;75.60957;-29220.78;-24.777;3.876053;-26006.68;-24817.34;-0.5299198;0.1543434;0;
-13369.03;-13898.03;-223.5817;-12986.48;-27.09566;1.795687;-13134.99;-14281.89;-0.3344853;0.08922093;0;
-6800.126;-7350.831;-241.02;-6218.015;-18.56196;2.19578;-6557.821;-7732.45;-0.2042145;0.08913128;0;
-8489.206;-8976.998;-55.29295;-7925.906;-15.79762;-0.887519;-8348.485;-9365.043;-0.139042;0.02407438;0;
-7052.16;-7567.682;-72.43188;-6558.937;-19.39809;7.285047;-6936.489;-7957.523;0.1209671;0.08901753;0;
-7975.919;-8531.309;9.146808;-6889.74;-17.23515;9.019282;-7703.225;-8918.166;0.2507802;-0.300876;0;
-18886.06;-19322.9;320.9028;-19314.19;-14.67321;-0.769044;-19195.05;-19713.48;0.1205936;0.02426307;0;
-26246.42;-26127.21;344.334;-30949.74;-14.79219;-1.906981;-27962.64;-26517.93;-0.009462296;0.2191407;0;
-23917.22;-24013.57;141.6366;-26734.03;2.77147;-4.115441;-24714.82;-24395.51;-0.07442013;-0.1708835;0;
-25533.56;-25089.54;170.4641;-29109.13;7.792527;-6.589674;-26219.23;-25467.08;0.1205567;-0.1057445;0;
-24946.41;-24333.08;113.2902;-29011.76;-0.5206987;-0.6216327;-25945.38;-24711.46;0.1854029;-0.3005403;0;
-13223.38;-13740.46;-199.3228;-12820.43;-0.6538973;0.7185285;-12966.26;-14114.42;0.0552819;-0.1053362;0;
-6637.74;-7190.263;-218.9407;-6033.003;-6.94988;-3.702945;-6390.128;-7562.464;-0.009740988;0.4794757;0;
-8378.427;-8864.256;-31.54912;-7800.831;-10.2918;-3.565258;-8233.402;-9244.392;0.4450402;0.1541572;0;
-6822.208;-7335.519;-64.84441;-6326.324;-18.05099;-1.418222;-6697.304;-7717.116;0.5745277;-0.1708344;0;
-7763.47;-8321.586;23.1453;-6667.136;-23.19042;-0.9479166;-7494.405;-8699.333;-0.01075567;-0.04072809;0;
-18761.7;-19192.97;340.5094;-19172.73;-22.96702;1.799214;-19015.83;-19576.74;0.1191898;-0.1706218;0;
-26126.81;-25959.87;333.6705;-30779.3;-25.55591;2.601202;-27773.5;-26345.04;0.3789394;-0.1054831;0;
-23884.28;-23939.41;125.9707;-26736.21;-22.2477;3.670315;-24683.13;-24312.87;0.05372196;0.02455761;0;
-25635.15;-25078.49;180.1137;-29398.57;-20.95353;4.537405;-26312.9;-25447.01;0.1186353;0.219435;0;
-24923.97;-24220.18;119.307;-29089.39;-23.20965;2.389392;-25879.42;-24589.74;-0.01141857;0.4790838;0;
-13120.87;-13653.58;-207.305;-12715.03;-23.78856;2.922854;-12861.91;-14018.28;-0.2712765;0.4786025;0;
-6683.833;-7225.526;-219.2;-6066.637;-12.91367;-3.309373;-6428.639;-7588.986;0.2487348;0.2832195;0;
-8447.774;-8955.954;-29.01277;-7868.148;-9.685513;-6.320219;-8289.413;-9325.484;0.5733216;-0.04190176;0;
-7108.095;-7584.266;-75.02297;-6605.701;-18.31694;1.322003;-6987.265;-7954.735;0.3778435;0.02310768;0;
-8080.148;-8689.679;0.6706485;-6941.938;-18.96812;1.052743;-7778.733;-9057.622;0.3124965;0.1530192;0;
-19144.39;-19456.61;326.553;-19717.32;-22.16425;3.731002;-19536.79;-19829.77;0.3771499;0.02293071;0;
-26990.43;-26191.4;345.6995;-31867.06;-24.08436;6.339466;-28852.27;-26565.31;0.0519342;-0.2369617;0;
-24510.86;-24210.86;145.8118;-27696.06;-24.52867;-4.6518;-25342.41;-24574.2;0.1168494;-0.691495;0;
-26144.61;-25289.57;180.7883;-30556.08;-24.57137;-6.723536;-26956.1;-25648.66;0.2466666;-0.6908001;0;
-25552.22;-24467.39;105.3944;-30034.28;-28.23038;-4.372438;-26673.08;-24829.43;-0.2083526;-0.5601714;0;
-13490.8;-14030.49;-216.5809;-13045.34;-29.74323;-7.449199;-13233.4;-14388.88;-0.2081432;-0.03986977;0;
-7103.368;-7652.171;-219.5024;-6476.575;-19.39822;1.466772;-6829.488;-8008.517;0.3118046;0.7397784;0;
-8841.838;-9373.395;-11.77673;-8261.62;-18.10593;2.87194;-8686.782;-9737.315;0.3764586;0.2842637;0;
-7585.955;-7996.289;-43.07728;-7067.165;-10.71937;-6.173459;-7455.98;-8362.155;0.05124368;0.1540434;0;
-8488.953;-9224.664;17.38875;-7331.942;-6.086899;-7.104956;-8163.441;-9588.039;-0.07874249;0.5436926;0;
-20187.09;-20082.6;318.6261;-20920.77;-17.0655;-13.05918;-20691;-20449.8;0.1162387;0.1533423;0;
-28975.31;-26731.85;328.1447;-34073.91;-16.71356;-15.85928;-30890.56;-27098.52;-0.07878017;0.1531882;0;
-25850.25;-24807.24;133.3503;-29757.03;-27.48138;-14.50368;-26898.98;-25166.21;-0.2086357;0.08806691;0;
-27763.73;-25969.14;175.976;-33519.47;-35.35702;-15.96273;-29279.8;-26321.79;0.2463453;-0.3018256;0;
-27267.69;-25050.79;102.1331;-32532.83;-14.089;-12.66459;-28752.16;-25403.17;0.3110651;-0.1066203;0;
-14011.41;-14592.35;-215.8253;-13645.06;-12.06511;-11.7141;-13685.44;-14941.75;-0.01408412;-0.04154585;0;
-7639.604;-8241.328;-225.7753;-6964.606;-26.45395;-10.69765;-7373.09;-8588.688;-0.07903731;-0.2364061;0;
-9466.411;-9974.203;-44.01464;-8866.258;-27.90124;-8.81144;-9301.583;-10330.68;-0.3388273;-0.1712012;0;
-8195.908;-8595.213;-78.42184;-7636.462;-34.70473;-8.400689;-8048.128;-8950.267;-0.4034542;0.0238728;0;
-8882.465;-9708.762;17.81174;-7713.372;-38.82305;-6.248855;-8555.392;-10064.83;-0.0132447;0.02384881;0;
-21073.53;-20563.81;344.3484;-22074.16;-32.21996;-9.390653;-21584.37;-20920.09;0.246638;-0.2360445;0;
-30986.88;-27270.71;350.2181;-36478.95;-30.57999;-10.31898;-32910.39;-27626.06;0.05148813;-0.2358073;0;
-27085.38;-25209.79;145.1097;-31480.65;-39.52425;-2.069891;-28261.51;-25564.09;-0.3383677;-0.04066837;0;
-28884.87;-26373.76;181.4924;-35236.29;-40.62361;-0.7281528;-30639.82;-26662.68;-0.1431256;-0.04062751;0;
-28544.72;-25506.58;107.2379;-34291.89;-31.9426;0.6790984;-30114.91;-25792.66;0.0519202;0.3492174;0;
-14311.1;-14940.97;-219.0184;-14132.93;-31.64208;4.094546;-13974.5;-15284.17;-0.5978054;0.5437685;0;
-8012.94;-8653.268;-234.4623;-7263.633;-20.49185;-5.019064;-7736.818;-8992.526;-0.7271394;0.08845072;0;
-9891.55;-10382.54;-46.7897;-9266.496;-16.18436;-4.813072;-9714.905;-10734.58;-0.011768;0.1533292;0;
-8524.434;-8922.839;-68.1538;-7923.542;-21.52673;-2.664843;-8360.772;-9259.311;0.1831459;0.4130445;0;
-9205.241;-10101.15;33.55109;-8015.281;-17.95513;-3.265012;-8868.394;-10459.9;0.1829618;0.1527601;0;
-21763.42;-20946.98;334.2412;-22897.4;-35.48588;9.866679;-22279.72;-21280.6;0.2477453;-0.04229543;0;
-32211.28;-27516.47;332.9059;-38007.99;-40.87523;13.27277;-34123.36;-27865.79;-0.01237298;0.02271442;0;
-28034.11;-25536.19;148.5545;-32907.78;-28.24186;16.27355;-29369.75;-25878.24;-0.2072626;0.2175936;0;
-30747.42;-27258.67;183.3252;-37421.74;-30.08949;19.53936;-32724.74;-27107.14;0.05281505;0.217375;0;
-30461.32;-26405.46;97.028;-36539.66;-18.87347;13.89328;-32055.48;-26249.87;-0.01220536;0.08722188;0;
-14622.11;-15243.1;-238.1823;-14684.8;-14.03174;13.00854;-14267.99;-15596.91;-0.2720625;0.2170689;0;
-8111.046;-8814.79;-253.4664;-7265.484;-25.60459;9.646447;-7825.79;-9158.451;-0.01191972;0.1518835;0;
-10113;-10579.76;-56.48249;-9461.795;-25.17769;6.957437;-9914.904;-10904.02;-0.1418424;0.08676351;0;
-8702.132;-9118.172;-93.76634;-8053.803;-26.49157;3.333489;-8526.54;-9455.664;-0.2066672;0.216611;0;
-9286.105;-10234.41;3.419693;-8089.751;-27.87147;0.6508226;-8934.732;-10580.62;0.3132792;0.2163934;0;
-22131.48;-21078.16;348.0399;-23367.25;-23.6239;-1.359197;-22665.04;-21399.6;0.1180623;0.2811433;0;
-33283.21;-27833.54;359.731;-39286.07;-23.80124;-3.434302;-35241.77;-28095.65;-0.206893;0.2158934;0;
-28955.53;-25841.31;140.2922;-34444.34;-21.23172;0.855934;-30411.51;-26128.91;-0.07675043;-0.04419287;0;
-31445.33;-27527.06;160.0162;-38577.27;-20.20601;1.591886;-33537.99;-27206.18;0.2481634;0.02081888;0;
-30771.12;-26619.66;92.07701;-37014.64;-26.01286;3.934689;-32403.84;-26282.56;0.05301201;0.0857653;0;
-14674.79;-15396.32;-226.3399;-14865.33;-29.53669;6.475965;-14342.53;-15758.04;-0.271878;0.08567913;0;
-8348.873;-9040.725;-250.0067;-7445.625;-19.25924;1.110945;-8043.388;-9374.828;-0.2066374;0.08559304;0;
-10263.44;-10751.99;-65.25447;-9622.499;-17.02908;-0.4306562;-10059.82;-11089.76;-0.4013318;-0.2393297;0;
-8926.763;-9337.427;-88.75518;-8230.932;-33.75746;6.870672;-8736.277;-9642.401;-0.1410592;-0.3040565;0;
-9540.526;-10561.58;22.94977;-8370.087;-35.86699;7.533598;-9178.147;-10944.49;-0.01098278;0.3459224;0;
-23026.06;-21623.95;340.7201;-24587.55;-38.44292;3.775106;-23752.71;-21872.54;-0.2058738;0.4105422;0;
-34510.86;-28523.12;324.3077;-41071.52;-40.48138;3.905278;-36712.83;-28350.64;-0.01076488;-0.3694785;0;
-30114.16;-26434.37;130.4072;-36432.89;-33.40713;-3.734578;-31678.26;-26413.05;0.3140827;-0.4340745;0;
-34070.57;-28765.46;188.5594;-41698.8;-32.70398;-6.276116;-36268.48;-27787.43;0.3787344;-0.2387364;0;
-32996.64;-27882.91;117.4993;-39562.83;-20.21253;-4.662219;-34777.48;-26833.23;-0.1413849;-0.4983658;0;
-14963;-15717.34;-217.997;-15454.46;-15.03466;-6.599978;-14698.09;-16101.57;-0.6609815;-0.302963;0;
-8560.018;-9282.337;-242.2032;-7587.562;-14.81848;0.439617;-8231.549;-9649.029;-0.3354807;0.02217807;0;
-10452.27;-10945.78;-61.95657;-9802.367;-10.51668;2.984527;-10245.71;-11260.55;0.2495625;-0.04281156;0;
-8805.219;-9247.082;-106.7312;-8092.044;-17.27127;-2.778882;-8604.349;-9546.279;0.2493117;0.2820682;0;
-9199.403;-10242.74;-5.908913;-8062.159;-17.32126;-2.843073;-8839.861;-10659.65;-0.07577551;0.2817847;0;
-23196.35;-21674.41;337.1746;-24916.18;-17.43758;1.714501;-24027.23;-21787.13;-0.07569937;-0.2382371;0;
-35638.14;-29445.7;342.6454;-42450.73;-17.95592;2.985454;-37997.43;-28569.39;-0.01065597;0.02187162;0;
-31011.29;-27044.74;145.4469;-37854.96;-18.2063;1.97771;-32658.68;-26609.28;-0.0756126;0.3466864;0;
-34945.97;-29130.79;194.2137;-42927.39;-19.6609;2.980467;-37232.03;-27921.84;-0.01056928;0.2164033;0;
-33720.59;-28378.01;108.2335;-40651.13;-11.53682;1.302899;-35755.06;-26958.99;-0.01055866;0.1512185;0;
-14900.86;-15704.65;-219.1638;-15729.71;-11.05574;0.9666751;-14787.67;-16094.13;0.05441929;0.2160339;0;
-8494.862;-9220.788;-212.2595;-7441.906;-4.615243;3.444072;-8122.705;-9625.294;-0.1405374;0.2158169;0;
-10473.59;-10992.25;-21.7981;-9783.325;-0.05527819;2.904748;-10259.68;-11261.83;-0.2703309;0.02069797;0;
-8725.771;-9190.39;-66.87852;-8026.498;-15.26047;7.389564;-8523.211;-9534.061;0.05477745;-0.1092575;0;
-9319.903;-10375.48;28.93742;-8091.975;-16.24951;8.78878;-8933.202;-10747.49;0.4445265;0.2806563;0;
-23113.79;-21603.79;355.8065;-24792.66;-19.38102;2.34971;-23890.47;-21769.85;0.5740145;0.215407;0;
-35195.36;-28971.98;359.2596;-41852.77;-23.31366;0.9407074;-37450.28;-28307.12;0.1186663;-0.1096462;0;
-30617.32;-26640.15;148.52;-37268.3;-11.16644;1.34166;-32226.63;-26333.21;-0.1413223;0.2153007;0;
-33970.59;-28406;173.327;-41792.46;-10.95415;0.6034994;-36184.52;-27516.83;-0.2061476;0.02018235;0;
-32365.74;-27378.27;92.24034;-38751.36;-3.843201;-1.406473;-34137.72;-26308.7;-0.3358752;-0.17474;0;
-14258.25;-15164.62;-237.4054;-14642.94;0.9160832;-1.606009;-13987.58;-15548.38;-0.2705703;0.3451744;0;
-8163.351;-8861.652;-254.2989;-7136.006;-13.4858;-4.149685;-7814.728;-9249.975;0.2494403;0.4097949;0;
-10084.41;-10646.44;-52.89449;-9348.049;-14.94612;-5.753106;-9856.174;-10918.62;0.3141569;0.2144811;0;
-8462.23;-8941.75;-62.74262;-7726.778;-14.59631;1.2857;-8252.649;-9292.459;-0.5307341;0.08433089;0;
-9077.07;-10125.82;21.23137;-7797.225;-16.65775;1.418374;-8682.074;-10476.15;-0.7251029;-0.2405906;0;
-22415.91;-21129.55;322.3399;-23964.49;-14.56491;6.239597;-23172.53;-21353.55;-0.07470088;-0.3702835;0;
-34063.62;-28146.64;341.0221;-40453.29;-15.622;9.113594;-36269.48;-27851.46;0.1202762;-0.1750094;0;
-29263.74;-25872.99;157.6621;-35331.96;-13.0607;-3.890008;-30755.24;-25787.52;-0.009779334;0.1500032;0;
-32293.29;-27584.4;180.9918;-39802.19;-13.24865;-6.163458;-34420.03;-26954.54;0.05519783;0.01991774;0;
-31363.17;-26621.13;78.48641;-37723.66;-11.35933;-7.764794;-33050.77;-25899.69;-0.1397597;0.1498324;0;
-13881.74;-14708.56;-250.0836;-14199.12;-10.20982;-11.10608;-13545.08;-15087.72;-0.1396192;0.08471452;0;
-7565.525;-8331.654;-255.0484;-6532.905;-16.89736;-5.535457;-7229.079;-8698.44;-0.00954425;-0.17524;0;
-9593.822;-10144.46;-67.23018;-8803.024;-17.88574;-4.927049;-9351.479;-10426.51;-0.2044367;0.3446749;0;
-7852.584;-8363.938;-105.4403;-7110.698;-20.68081;-7.333423;-7638.205;-8717.86;-0.2042313;0.4742632;0;
-8503.644;-9560.429;-5.759368;-7148.124;-22.46869;-6.79019;-8107.181;-9888.445;0.185778;0.4088193;0;
-21801.21;-20577.64;336.8555;-23077.95;-19.63209;-4.773941;-22380.25;-20882.2;0.2505587;0.6033106;0;
-32871.95;-27172.11;344.0757;-38910.18;-19.4113;-3.831444;-34882.93;-27342.39;0.1203722;0.08296561;0;
-28468.13;-25127.35;133.9448;-34066.56;-18.05262;-1.818106;-29920.81;-25343.79;0.1852186;-0.1769871;0;
-31768.35;-27163.39;166.5437;-38917.16;-17.43127;-0.5436034;-33847.87;-26628.15;0.1200652;-0.3067439;0;
-30462.44;-26009.49;88.21255;-36466.12;-13.1942;-1.145904;-32071.26;-25430.29;-0.0749575;-0.1765011;0;
-13311.08;-14228.16;-214.3334;-13341.4;-11.37228;-0.6088887;-12951.85;-14594.28;-0.2048169;0.01857831;0;
-7261.35;-8002.203;-203.5453;-6240.54;-11.96406;-1.613021;-6921.627;-8354.841;0.2501603;-0.111375;0;
-9183.443;-9770.8;-25.35207;-8392.325;-10.4118;-1.812349;-8938.108;-10064.71;0.1849416;0.01867155;0;
-7475.163;-7996.744;-76.0511;-6704.221;-15.82635;-1.609579;-7254.86;-8334.521;-0.2700156;0.08362013;0;
-8174.578;-9236.691;10.82544;-6827.701;-16.88217;-1.674945;-7768.418;-9570.459;0.2499944;-0.04639857;0;
-21441.54;-20326.36;321.7676;-22807.9;-17.46842;-0.6015347;-22061.8;-20623.36;0.3796779;0.08358274;0;
-32512.09;-26951.33;322.4594;-38566.88;-20.33028;0.4036917;-34532.05;-27105.85;-0.2054096;-0.04643593;0;
-27999.78;-24865.16;136.5724;-33440.4;-9.92835;-1.940995;-29384.13;-25061.94;-0.1402359;-0.1113566;0;
-31095.65;-26831.94;183.068;-38287.48;-7.372779;-2.608874;-33147.23;-26348.65;0.2497091;-0.04627738;0;
-30049.25;-25750.53;105.2668;-36224.19;-17.34571;4.493817;-31641.94;-25257.5;0.2494581;0.01873646;0;
-13253.21;-14143.5;-222.5961;-13332.58;-18.4;6.699616;-12872.79;-14514.78;-0.1405966;0.278587;0;
-7181.912;-7953.71;-238.2238;-6157.919;-17.44351;3.142911;-6837.77;-8293.236;0.05444673;0.2133397;0;
-9144.877;-9745.767;-55.98216;-8364.854;-17.96185;3.407685;-8899.75;-10051.8;0.1843267;0.01822334;0;
-7567.789;-8097.063;-100.2161;-6774.681;-16.26983;4.342021;-7337.307;-8420.073;-0.1406952;-0.04676231;0;
-8231.004;-9329.819;0.3809126;-6896.887;-14.5112;4.270676;-7824.327;-9678.976;-0.01061916;-0.1116827;0;
-21628.92;-20422.41;340.116;-23142.54;-18.9846;0.9842208;-22369.23;-20685.54;0.05435885;-0.04660311;0;
-32853.16;-27154.28;345.74;-39184.22;-19.83618;-2.365793;-35015.73;-27130.87;-0.3354998;-0.04655628;0;
-28191.25;-24988.29;143.3692;-34020.68;-10.10433;4.66967;-29648.89;-25062.01;-0.205228;-0.0465095;0;
-31348.17;-26889.29;180.6906;-38770.4;-9.089799;4.597995;-33470.93;-26312.88;-0.1400545;0.01850458;0;
-30288.03;-25806.13;107.7175;-36493.76;-3.722031;-5.989745;-31913.61;-25210.86;-0.4647504;-0.04648136;0;
-13243.74;-14134.61;-204.5619;-13341.44;-0.9716246;-8.796948;-12858.45;-14512.19;-0.5292508;-0.3712714;0;
-7205.261;-8005.142;-223.8309;-6149.316;-11.75527;-13.74472;-6860.479;-8351.073;0.1209544;-0.5658003;0;
-9204.778;-9811.249;-61.12521;-8376.937;-14.35542;-17.01295;-8943.675;-10105.55;0.7055389;-0.04549308;0;
-7521.339;-8069.324;-96.53033;-6719.442;-16.7519;-16.46006;-7285.127;-8401.244;0.1201239;0.1494547;0;
-8154.522;-9274.746;17.44692;-6785.685;-19.81652;-16.5105;-7738.45;-9611.658;-0.3347681;-0.2404996;0;
-21581.37;-20286.03;344.9835;-22955.5;-23.54766;-17.36463;-22202.53;-20560.62;-0.07456241;0.1495461;0;
-32786.09;-26943.09;347.1824;-38963.19;-25.80117;-16.54345;-34837.48;-26963.95;-0.1394548;0.4742326;0;
-28115.7;-24801.94;148.2928;-33834.85;-24.43608;-7.21638;-29560.05;-24913.21;-0.4641514;0.01898468;0;
-31131.15;-26655.88;175.7861;-38430.18;-23.27245;-2.654411;-33212.57;-26119.22;-0.268783;-0.1759364;0;
-29861.45;-25520.76;97.64867;-35936.47;-24.05237;0.1614172;-31456.57;-24929.51;-0.008643565;-0.1757596;0;
-12794.74;-13781.15;-216.4791;-12813.48;-23.09117;4.113248;-12414.25;-14141.44;0.1212998;-0.1106157;0;
-6806.277;-7584.753;-226.5689;-5719.994;-11.61377;6.855293;-6450.157;-7939.571;0.05621058;-0.1754719;0;
-8845.05;-9477.302;-40.32536;-7977.358;-7.047744;8.857893;-8576.025;-9758.956;-0.07378058;-0.1752956;0;
-7073.814;-7653.941;-86.44914;-6257.219;-5.835214;8.58106;-6835.404;-8000.623;-0.07370645;0.01978259;0;
-7664.984;-8754.787;2.171348;-6226.179;-3.216406;7.634677;-7237.596;-9076.32;0.05630229;0.2146648;0;
-20800.77;-19774.54;328.1772;-22082.98;-2.543589;6.488296;-21385.21;-20069.9;0.1861804;0.08451436;0;
-31788.44;-26341.52;316.7436;-37615.49;-1.937821;4.204479;-33746.84;-26505.46;-0.07387604;0.1493968;0;
-27130.44;-24167.17;118.5561;-32176;-5.352126;-0.4884289;-28432.38;-24377.88;-0.2037365;0.2791814;0;
-29463.74;-25765.54;173.175;-36322.27;-6.217404;-2.966307;-31425.81;-25544.18;-0.008629749;-0.1109032;0;
-28366.45;-24524.72;89.21503;-34006.47;-15.38818;-10.73316;-29864.72;-24277.15;-0.3334578;-0.1757591;0;
-12167.84;-13123.76;-240.4277;-11858.24;-20.66401;-14.00448;-11730.66;-13472.52;-0.4630574;0.2142215;0;
-6156.04;-6963.51;-244.7463;-5114.477;-12.47157;-13.32058;-5810.042;-7297.567;-0.3326575;0.4738756;0;
-8060.628;-8682.349;-55.92332;-7144.065;-12.9949;-14.64679;-7780.835;-8971.733;-0.4622579;0.6683015;0;
-6266.129;-6904.561;-101.1725;-5443.363;-17.40248;-8.737761;-6025.333;-7249.673;-0.1369567;0.08292393;0;
-7217.008;-8225.768;-10.86617;-5716.613;-17.78713;-6.987425;-6789.626;-8530.054;0.05808296;-0.3069634;0;
-19654.41;-19072.94;309.4056;-20747.17;-19.10843;-2.425687;-20126.77;-19403.59;-0.1368774;0.0181817;0;
-29482.93;-25366.27;312.0308;-35008.21;-19.49137;1.059741;-31298.78;-25689.46;-0.2666746;-0.1767386;0;
-25439.32;-23345.54;135.1341;-29788.03;-16.92619;-0.2138773;-26624.12;-23660.62;0.05843008;-0.176561;0;
-27768.81;-24744.25;176.5556;-34128.46;-15.10052;2.130618;-29609.38;-24897.1;0.4481754;-0.1114163;0;
-26730.03;-23490.66;87.64154;-32168.71;-19.90812;-0.7516667;-28149.79;-23631.46;0.1228884;-0.3711737;0;
-11573.3;-12524.3;-208.5477;-11087.13;-20.95984;-0.4159968;-11108.44;-12843.48;-0.2020718;0.2788727;0;
-5604.418;-6406.937;-194.7512;-4595.996;-10.02142;1.459821;-5263.948;-6721.883;-0.006966733;0.6683965;0;
-7561.066;-8207.31;-18.17544;-6630.868;-6.461374;2.195167;-7274.521;-8517.067;-0.2668291;0.3428882;0;
-5841.36;-6482.394;-72.02073;-5004.957;-11.47775;5.073227;-5598.44;-6806.833;-0.3964957;0.5374457;0;
-6693.326;-7708.886;9.292053;-5188.224;-10.39449;6.474649;-6263.041;-8021.724;0.05867412;0.1471017;0;
-19270.57;-18701.11;321.2509;-20096;-8.106868;10.487;-19710.41;-19021.52;0.5783539;-0.4377522;0;
-29010.93;-25091.83;313.3538;-34214.03;-7.295415;12.15103;-30811.31;-25410.25;0.4478381;0.08242634;0;
-24783.86;-22952.79;114.2326;-28852.44;-7.087014;16.15768;-25810.41;-23264.49;-0.07235064;0.2122782;0;
-26799.74;-24238.29;159.0952;-32934.79;-7.816827;19.02171;-28434.66;-24465.06;0.05765674;-0.3726412;0;
-25969.71;-23043.29;78.49142;-31291.28;-2.717782;12.84029;-27392.99;-23262.14;0.1225661;-0.6971034;0;
-11161.64;-12094.44;-239.3652;-10607.44;-1.37588;12.55945;-10720.61;-12401.45;-0.07245903;-0.1766643;0;
-5129.331;-5946.793;-235.3766;-4093.583;-9.010308;13.81951;-4762.157;-6253.169;-0.1373536;0.08338261;0;
-7133.354;-7771.991;-50.92017;-6193.193;-11.14471;13.67166;-6851.272;-8078.622;-0.2671502;-0.5014072;0;
-5294.779;-5986.325;-87.21011;-4432.087;-11.4683;11.71542;-5038.437;-6303.486;0.1229222;-0.6958054;0;
-6332.56;-7264.508;16.26305;-4794.667;-14.06875;9.359364;-5891.614;-7569.919;0.2527334;-0.2403349;0;
-18365.22;-18245.09;330.292;-19197.54;-13.45237;16.58387;-18816.45;-18557.97;-0.007389896;0.2796453;0;
-27211.81;-24510.93;332.7712;-32291.79;-14.37589;15.56246;-28992.23;-24824.85;0.05758487;0.5392337;0;
-23866.36;-22541.78;143.5942;-27717.92;-14.83093;15.68079;-24847.43;-22846.46;-0.007440332;0.2788225;0;
-26171.85;-23867.84;168.8747;-32117;-12.27043;15.39711;-27759.19;-24150;-0.2023349;0.1486077;0;
-24930.11;-22466.78;71.2852;-29906.12;-26.5927;1.583516;-26284.49;-22747.6;-0.3320663;0.4083277;0;
-10629.25;-11566.68;-251.3899;-9872.768;-31.45512;-2.771844;-10156.52;-11865.86;-0.006895887;0.2130154;0;
-4694.88;-5491.431;-247.4048;-3711.627;-8.315013;-11.20872;-4335.469;-5790.047;0.3829151;-0.1770027;0;
-6546.354;-7214.575;-66.87182;-5563.762;-4.622962;-17.56066;-6251.881;-7519.045;0.2525957;-0.1118575;0;
-4713.539;-5401.046;-113.3125;-3857.76;-5.622695;-13.25623;-4455.718;-5710.833;0.1873745;-0.04677777;0;
-5774.938;-6701.619;-0.1148609;-4229.492;-1.598557;-14.9844;-5331.314;-7008.876;0.2521536;-0.1116981;0;
-17801.46;-17765.46;333.5301;-18410.97;-7.826242;-15.77314;-18223.68;-18077.75;0.05699818;-0.1115859;0;
-26574.34;-24145.82;328.7128;-31464.65;-6.009717;-16.15919;-28329.32;-24457.57;-0.07299378;0.3432977;0;
-23134.87;-22101.7;133.0588;-26723.53;-12.36669;-11.45427;-24046;-22405.33;0.3168836;0.1480507;0;
-25215.3;-23402.01;169.5942;-30871.04;-13.49334;-9.36629;-26688.64;-23701.54;0.2515979;-0.5667388;0;
-24293.42;-22171.93;74.39341;-29267.36;-7.651657;-12.1701;-25592.59;-22473.21;-0.2683937;-0.3712674;0;
-10469.26;-11352.17;-245.1301;-9743.552;-8.179832;-11.15319;-9990.439;-11649.82;-0.07322196;-0.1759923;0;
-4457.208;-5258.276;-238.8712;-3442.08;6.765214;-13.48632;-4092.751;-5555.956;0.0567863;-0.1108481;0;
-6378.433;-7069.361;-50.92869;-5409.365;11.51384;-13.67372;-6084.338;-7377.486;-0.07320545;0.08416529;0;
-4770.844;-5428.547;-85.46951;-3880.649;9.358816;-13.79395;-4509.591;-5736.332;-0.07313189;0.1490481;0;
-5820.396;-6793.81;16.33087;-4274.846;11.35914;-14.18192;-5375.888;-7102.41;0.05687628;0.08393095;0;
-17909.23;-17792.53;341.729;-18615.34;8.467342;-10.68468;-18346.98;-18103.91;0.1867538;-0.04608806;0;
-26672.29;-24142;346.1333;-31679.86;8.458835;-9.535238;-28442.52;-24451.89;0.3165008;-0.1759764;0;
-23422.43;-22229.3;151.1958;-27237.16;-2.199585;-9.123759;-24360.5;-22531.36;-0.008653887;0.2140045;0;
-26117.93;-23634.56;178.9517;-32034.67;-7.153868;-8.511806;-27652.6;-23904.75;-0.3334819;0.4736588;0;
-24901.22;-22294.71;79.39996;-29984.48;-2.659678;-4.953219;-26256.11;-22565.35;0.05665724;-0.1115232;0;
-10434.76;-11371.89;-240.0037;-9722.189;-4.197247;-3.27373;-9969.951;-11668.59;0.2515023;-0.1763785;0;
-4533.592;-5339.195;-226.8471;-3485.051;-5.73327;-5.413834;-4159.818;-5635.096;-0.008619747;0.3435374;0;
-6525.752;-7221.881;-34.57511;-5526.709;-5.727509;-4.202701;-6231.532;-7525.074;0.05635625;0.1482902;0;
-4863.887;-5510.138;-84.06236;-3945.744;-2.573923;-8.083427;-4595.012;-5816.056;-0.07363506;-0.4365648;0;
-5814.019;-6838.243;13.86356;-4241.832;0.04063188;-8.678151;-5364.084;-7143.542;0.121341;-0.1762568;0;
-18299.26;-17943.69;344.7458;-19022.54;-3.039892;-4.784482;-18733.8;-18251.32;0.7059251;0.08378965;0;
-27515.93;-24280.38;337.9807;-32585.04;-4.108564;-4.44476;-29262.6;-24589.18;0.5103137;-0.6959026;0;
-23717.7;-22239.05;142.2394;-27650.2;8.82266;-0.01948151;-24752.48;-22537.74;0.1849643;-0.7601707;0;
-26259.32;-23653.86;191.0094;-32254.57;11.69418;1.253092;-27937.09;-23896.45;0.2497458;0.08516853;0;
-25204.83;-22370.8;105.5009;-30370.25;4.247693;2.524508;-26553.65;-22621.04;-0.01037453;0.3449523;0;
-10476.18;-11421.82;-233.0599;-9836.963;3.707562;3.124818;-9986.063;-11717.92;-0.3352008;0.409573;0;
-4503.037;-5324.292;-251.7694;-3413.818;-1.521076;-0.02639751;-4129.952;-5613.453;-0.01002729;0.0843248;0;
-6409.021;-7107.48;-67.90556;-5406.431;-3.595653;-1.633961;-6106.181;-7409.345;0.1848848;-0.500466;0;
-4808.617;-5450.043;-107.583;-3868.347;-10.49189;-5.048388;-4533.021;-5746.731;0.05476435;-0.1101591;0;
-5889.161;-6955.026;-5.026367;-4304.911;-15.10305;-7.320674;-5435.729;-7259.944;0.05470932;0.2797557;0;
-18595.35;-18082.11;327.421;-19443.96;-9.327098;-12.73881;-19049.31;-18381.34;0.2495564;0.2145072;0;
-28001.95;-24342.3;338.7423;-33225.72;-11.5949;-15.13734;-29760.43;-24647.13;0.314273;-0.04557769;0;
-24236.6;-22403.49;154.8536;-28490.26;-6.827829;-18.00233;-25399.6;-22704.34;-0.01087953;-0.4353359;0;
-27247.97;-24045.72;180.1227;-33575.84;-5.882964;-20.59652;-29105.53;-24106.36;-0.07583594;-0.1750292;0;
-25889.19;-22638.13;73.47964;-31136.33;-12.10634;-11.26544;-27262.98;-22686.25;-0.2706618;0.1499834;0;
-10481.79;-11492.29;-247.4642;-9851.008;-12.16153;-8.50788;-9979.771;-11790.18;-0.4003245;-0.2399713;0;
-4687.631;-5505.387;-238.6573;-3575.587;-18.91446;-11.04462;-4318.131;-5805.682;-0.2699876;-0.3696649;0;
-6630.458;-7338.775;-41.40715;-5591.87;-19.89983;-9.492916;-6314.193;-7626.618;-0.2047489;0.0205106;0;
-4993.412;-5632.192;-74.89556;-4040.153;-25.3722;-6.670156;-4716.305;-5934.926;0.05532617;0.215392;0;
-5918.427;-7016.709;12.2453;-4315.329;-29.23147;-5.323856;-5452.787;-7315.921;0.2501726;0.08524091;0;
-18732.77;-18083.33;317.2984;-19648.1;-13.59568;-5.117558;-19213.44;-18379.58;-0.1398828;-0.1747141;0;
-28685.12;-24386.74;310.967;-34020.65;-11.37219;-4.710518;-30513.91;-24689.58;-0.2047096;-0.1095712;0;
-24481.49;-22283.08;116.1273;-28664.27;-8.546752;-6.581246;-25625.77;-22574.96;0.3802022;-0.3043631;0;
-27038.63;-23892.84;168.0626;-33260.59;-4.519677;-7.17748;-28819.54;-23917.03;0.3798201;-0.4989593;0;
-25905.06;-22633.83;94.55556;-31277.76;-13.75854;-7.840097;-27268.57;-22660.86;-0.1403002;-0.1736213;0;
-10387.91;-11396.97;-240.3243;-9851.244;-14.34792;-7.765236;-9890.186;-11700.31;-0.2700939;-0.04351214;0;
-4490.417;-5334.891;-245.7675;-3339.473;-15.53896;-10.7716;-4108.603;-5629.303;-0.2698226;0.02149893;0;
-6515.385;-7212.881;-51.25877;-5467.671;-16.66144;-11.83245;-6198.64;-7500.234;-0.2695515;0.02147732;0;
-4824.716;-5491.511;-100.3232;-3855.922;-18.11857;-6.395062;-4538.118;-5793.521;0.05555611;-0.1734463;0;
-5795.659;-6892.223;-16.10843;-4180.882;-19.50688;-6.053783;-5329.018;-7186.684;0.2504023;-0.3032067;0;
-18588.89;-17952.2;311.5868;-19462.98;-14.73186;-0.7561094;-19030.79;-18247.65;-0.074686;0.2818041;0;
-28202.74;-24179.81;318.5045;-33509.84;-14.24854;2.191777;-29942.36;-24477.21;-0.1395783;0.4114556;0;
-24130.2;-22132.23;120.9242;-28444.67;-8.875591;-4.039655;-25302.48;-22428.17;-0.07447071;0.08620544;0;
-27048.65;-23793.27;167.1075;-33374.98;-5.852563;-3.834647;-28922.05;-23822.82;-0.2043306;0.2160535;0;
-25710.71;-22418.51;90.58739;-30998.38;-9.86517;-5.639333;-27069.28;-22429.65;-0.2690926;0.1508691;0;
-10134.95;-11190.51;-218.6607;-9524.287;-9.118323;-7.375162;-9621.31;-11486.82;-0.4637242;-0.3690213;0;
-4350.439;-5186.308;-217.9725;-3208.309;-11.25261;-4.018665;-3973.633;-5483.926;0.3163498;-0.4336178;0;
-6221.078;-6931.764;-64.98653;-5165.069;-12.64783;-5.086354;-5894.001;-7212.169;0.6408687;-0.1083454;0;
-4453.556;-5136.12;-118.2538;-3483.363;-10.82646;-2.201039;-4169.474;-5439.154;-0.2043507;0.4764695;0;
-5553.808;-6642.137;-1.56857;-3910.537;-12.08838;-1.1271;-5080.917;-6929.781;0.05572397;0.4759908;0;
-18326.05;-17738.43;319.5685;-19120.37;-11.07185;-7.355258;-18777.58;-18033.48;0.445472;0.3455778;0;
-27828.17;-23940.48;310.6111;-32995.67;-11.19445;-7.816748;-29589.54;-24235.64;0.3800571;0.1503286;0;
-23692.44;-21854.4;119.6604;-27762.58;-15.26904;-10.62212;-24785.5;-22143.31;0.3796752;-0.1096919;0;
-26356.86;-23374.26;150.384;-32544.5;-16.25905;-11.75009;-28137.99;-23508.52;-0.01051036;0.1502877;0;
-25180.58;-22070.59;55.07766;-30481.82;-18.38519;-8.38926;-26542.96;-22194.1;-0.2703692;-0.0447653;0;
-9941.131;-10991.56;-264.7076;-9312.648;-20.04166;-7.644019;-9428.55;-11280.3;-0.07519547;-0.4345244;0;
-4111.739;-4954.951;-262.5676;-2929.916;-19.15086;-2.545757;-3723.985;-5243.185;0.2497168;0.2155857;0;
-6086.769;-6802.025;-60.4833;-5003.054;-20.67186;1.073757;-5757.282;-7082.583;0.1195312;0.2803364;0;
-4341.824;-5046.585;-95.95155;-3343.514;-15.02501;-0.1998754;-4049.837;-5343.336;0.1843784;-0.3696187;0;
-5376.267;-6438.75;-0.7623073;-3701.239;-12.3306;1.54176;-4897.574;-6724.614;0.5090299;-0.2393126;0;
-17914.26;-17475.28;329.2601;-18643.02;-22.23119;7.635535;-18345.45;-17768.83;0.6384531;0.1507319;0;
-27186.17;-23646.48;318.2939;-32175.53;-23.14686;9.972266;-28917.7;-23937.98;0.4429095;0.02064572;0;
-23200.33;-21592.41;138.4394;-27093.41;-19.17149;8.421638;-24208.66;-21873.61;0.1176278;-0.04434236;0;
-25574.47;-22978.29;200.191;-31505.29;-18.61636;7.341449;-27227.64;-23205.39;0.1824769;0.1506042;0;
-24290.67;-21459.16;85.17259;-29073.67;-13.77488;10.6831;-25578.59;-21688.79;-0.2724778;-0.1094165;0;
-9465.264;-10486.94;-248.3548;-8569.454;-10.54586;10.06964;-8933.48;-10768.86;-0.4021387;-0.2392412;0;
-3712.968;-4574.294;-235.1274;-2588.033;-12.47765;1.351861;-3328.208;-4851.638;0.4428408;0.1508032;0;
-5595.71;-6304.857;-61.04099;-4459.428;-11.79552;-2.132488;-5257.408;-6587.669;0.2474938;-0.2391524;0;
-3797.255;-4540.906;-106.3475;-2793.408;-3.076136;-9.096387;-3503.722;-4831.085;-0.4024283;-0.8236181;0;
-5030.255;-6041.68;10.85677;-3338.45;-0.6621472;-14.57973;-4548.191;-6324.946;0.05274747;-0.3680192;0;
-17275.36;-17072.33;338.9309;-17844.57;-4.478899;-14.83301;-17689.84;-17362.74;0.3775312;0.3469914;0;
-26036.43;-23165.45;329.2982;-30825.34;-6.081989;-18.56909;-27781.3;-23453.87;-0.07761956;0.2816754;0;
-22136.81;-20954.67;136.6421;-25565.85;-0.3824504;-18.68439;-22986.25;-21235.04;-0.2724436;0.08649033;0;
-24237.67;-22320.78;178.7961;-29739.3;2.297251;-20.20617;-25611.93;-22597.54;0.1176342;0.1513708;0;
-23251.66;-21017.78;87.81828;-27995.69;-20.47877;-19.18112;-24463.18;-21295.36;0.2474507;-0.04368336;0;
-9068.115;-10046.19;-232.7963;-8180.661;-27.42441;-16.68354;-8547.415;-10321.24;-0.07763465;0.08629522;0;
-3162.499;-4024.154;-231.2974;-2018.815;-13.26431;-28.52251;-2762.496;-4297.974;-0.0125893;0.4110452;0;
-5130.252;-5845.724;-59.76051;-3999.79;-14.05429;-30.36931;-4794.479;-6128.264;0.05239069;0.2806975;0;
-3346.678;-4109.657;-113.8295;-2331.764;-9.619541;-20.55953;-3046.069;-4394.319;-0.337466;0.08551344;0;
-4637.524;-5603.119;-11.93816;-2922.357;-5.055524;-19.80206;-4153.09;-5884.996;-0.4020942;0.02046018;0;
-16670.14;-16675.48;303.9775;-17170.07;-14.09277;-8.060455;-17081.28;-16961.81;0.1830158;-0.1094951;0;
-24874.54;-22720.01;277.3104;-29580.85;-13.07326;-1.823066;-26613.09;-23007.04;0.3127666;-0.109385;0;
-21306.17;-20536.19;74.21178;-24621.67;-5.960176;-10.2609;-22125.8;-20814.94;0.1825177;0.2155616;0;
-23286.71;-21890.27;135.4345;-28539.04;-3.677012;-8.910932;-24596.95;-22164.99;0.4422036;0.0854103;0;
-22145.86;-20431.65;57.80615;-26519.01;1.819039;-7.56238;-23313.65;-20707.58;0.05195527;0.02035713;0;
-8579.507;-9525.374;-262.3098;-7514.009;4.028014;-8.157628;-8043.875;-9796.813;-0.142999;0.1502714;0;
-2795.617;-3647.44;-236.153;-1692.631;7.171799;-4.532414;-2402.327;-3918.418;0.2469488;-0.1747163;0;
-4664.071;-5382.932;-48.74417;-3513.062;7.834178;-4.326911;-4322.884;-5662.071;-0.1431034;-0.3044755;0;
-2806.347;-3595.731;-101.9028;-1773.108;8.027377;-5.126359;-2502.672;-3875.621;-0.4677963;-0.3691369;0;
-4239.134;-5135.749;12.62643;-2518.591;8.086659;-4.04948;-3760.149;-5414.17;0.05241245;-0.3037986;0;
-15774.76;-16122.94;327.3305;-16155.34;-2.437664;-9.336941;-16127.07;-16407.14;0.7020332;0.02134335;0;
-23402.62;-22163.27;301.6394;-27874.37;-5.717744;-10.13135;-25114.23;-22446.83;0.5713931;0.0213219;0;
-20436.14;-20059.1;109.9481;-23201.57;-10.3337;-6.839072;-21047.81;-20334.2;0.1160476;0.1512352;0;
-22182.38;-21338.8;159.4221;-26633.82;-13.27008;-6.966166;-23003.36;-21611.6;0.1808983;0.2810179;0;
-20968.83;-19884.41;88.46938;-24857.59;-15.66862;0.4758174;-21921.34;-20157.95;0.05078187;0.08583349;0;
-8072.932;-8964.486;-224.3842;-6934.361;-19.06815;3.623415;-7571.529;-9233.329;0.1156982;-0.2390895;0;
-2119.012;-2961.507;-233.201;-1035.402;-5.7871;0.6056643;-1711.957;-3231.455;0.2455166;-0.0439472;0;
-4076.772;-4802.417;-47.46622;-2907.217;-3.771553;1.609678;-3738.78;-5081.713;0.0503679;0.2809337;0;
-2293.789;-3097.852;-79.40245;-1273.085;1.12138;2.74677;-1987.011;-3378.086;0.05031728;-0.04418533;0;
-3697.355;-4539.731;35.8382;-1989.21;7.349544;2.944959;-3218.675;-4816.936;0.05026672;0.02082641;0;
-15009.39;-15587.21;346.8958;-15311.06;-12.9533;1.401392;-15308.11;-15868.49;-0.07971846;-0.2390639;0;
-21960.78;-21600.44;296.0882;-26396.97;-16.7577;-0.274467;-23621.53;-21882.02;-0.1446057;-0.498693;0;
-19268.1;-19350.23;91.83075;-21668.7;-7.095324;3.074833;-19835.98;-19622.92;-0.07949306;0.02154679;0;
-21188.92;-20705.52;135.6383;-24874.78;-8.49569;3.540624;-21794.15;-20974.51;-0.01444585;0.08649248;0;
-19917.62;-19280.26;32.99103;-23441.86;-4.869832;-4.634668;-20716.42;-19549.91;0.1155033;-0.04352911;0;
-7544.64;-8396.817;-276.3398;-6392.367;-3.324697;-6.639438;-7042.532;-8660.462;-0.01454739;-0.2383874;0;
-1662.262;-2494.468;-269.9714;-567.8375;-9.81809;-7.637511;-1254.486;-2758.004;0.05043457;-0.2381479;0;
-3457.157;-4184.049;-92.24248;-2284.81;-11.41582;-10.37608;-3115.055;-4457.627;-0.01458345;0.2818302;0;
-1616.045;-2432.816;-116.7;-570.7963;-7.519579;-2.126932;-1298.665;-2707.744;-0.2094708;0.4114817;0;
-3227.61;-4029.193;-18.81933;-1531.474;-8.11426;0.2865906;-2773.634;-4301.471;-0.339195;0.2811335;0;
-14377.56;-15083.21;282.1889;-14446.21;-10.6517;-7.014715;-14478.85;-15359.38;-0.4038216;0.085949;0;
-20791.72;-21069.12;288.4021;-24837.04;-12.38231;-6.672752;-22143.71;-21344.33;-0.4683831;-0.1090394;0;
-18425.95;-18854.96;127.037;-20374.06;-13.04043;-6.465098;-18920.82;-19121.81;-0.4679125;-0.2388645;0;
-20349.82;-20244.94;181.71;-23339;-13.36212;-7.061449;-20775.68;-20509.55;-0.402475;-0.3035918;0;
-18949.36;-18807.58;86.77812;-22120.82;-23.19433;0.3136474;-19556.17;-19074.62;-0.2721359;-0.2383194;0;
-7019.697;-7846.306;-226.8077;-5894.457;-26.92207;2.657613;-6534.977;-8108.629;-0.2068951;0.2816588;0;
-1172.391;-1975.821;-214.2735;-49.219;-18.3212;1.248301;-763.8546;-2236.523;0.3130515;0.4762778;0;
-3035.854;-3779.772;-45.09628;-1853.575;-16.42776;3.323518;-2697.177;-4049.269;0.312737;-0.1089069;0;
-1179.907;-1985.843;-99.97648;-108.3389;-20.09495;0.9087924;-858.5151;-2256.6;-0.4671854;-0.0438301;0;
-2773.404;-3555.307;4.243514;-1077.977;-18.13237;0.8408964;-2331.099;-3823.731;-0.2718139;-0.1087534;0;
-13923.48;-14693.37;327.7017;-13841.2;-15.23377;4.390147;-13954.71;-14967.97;0.4430999;-0.4334808;0;
-20030.65;-20708.76;324.0928;-23703.46;-13.14235;4.452719;-21124.38;-20982.53;0.4426547;-0.1082086;0;
-17842.73;-18519.73;128.2404;-19501.73;-2.546577;5.787781;-18203.73;-18783.82;0.1823406;0.02183485;0;
-19828.61;-19891.66;158.8305;-22488.75;3.216758;4.509412;-20246.65;-20153.26;-0.4675161;-0.2380565;0;
-18333.57;-18407.41;64.18714;-21258.45;0.6015573;8.054854;-18923.86;-18670.22;-0.791883;-0.4327193;0;
-6691.132;-7493.512;-256.4818;-5551.425;3.346643;8.850555;-6210.002;-7751.92;-0.2713486;0.217389;0;
-859.3679;-1644.325;-250.9299;260.2188;5.018219;-4.219704;-447.9215;-1902.349;-0.07617391;0.6069745;0;
-2636.064;-3390.107;-62.17876;-1457.055;4.409965;-8.100413;-2301.446;-3656.211;0.1188047;0.02165859;0;
-842.0814;-1629.771;-93.10071;239.1357;12.57721;-9.096957;-504.1605;-1897.513;0.05371794;-0.3681672;0;
-2510.131;-3291.61;22.55975;-852.3061;13.50257;-11.76707;-2100.164;-3556.99;0.248566;-0.497732;0;
-13630.53;-14395.47;328.0866;-13408.11;5.048914;-12.42508;-13525.34;-14665.69;0.7030876;-0.3672972;0;
-19698.81;-20377.04;281.3116;-23045.44;2.230802;-12.88147;-20439.83;-20647.27;-0.1421943;-0.0420914;0;
-17547.14;-18230.57;88.17271;-19012.13;-1.052994;-11.39491;-17785.65;-18491.75;-0.5968228;0.1528529;0;
-19390.1;-19607.72;167.0444;-21733.97;-3.129016;-10.24481;-19738.97;-19866.78;-0.01151704;-0.04220269;0;
-17918.68;-18142.43;95.47496;-20577.77;-13.03886;-4.675052;-18367.12;-18403.58;-0.0764728;-0.1071276;0;
-6467.012;-7249.623;-219.8531;-5362.807;-16.97787;-2.058081;-5992.622;-7505.241;-0.2063306;0.3477514;0;
-603.0829;-1377.177;-215.3531;504.2599;-13.20977;1.092062;-200.9613;-1632.96;0.05374604;0.1525;0;
-2431.261;-3186.227;-46.1748;-1243.103;-14.87046;3.234419;-2081.58;-3451.935;0.05369204;-0.3024247;0;
-715.6946;-1489.221;-103.2716;335.0252;-4.675086;1.154698;-397.9426;-1755.911;-0.0762966;-0.04225142;0;
-2331.366;-3115.813;-8.559096;-645.4282;-1.120416;0.1489159;-1897.039;-3380.392;-0.1411873;0.2826278;0;
-13568.97;-14317.1;313.928;-13393.75;-2.391112;-2.128654;-13514.51;-14586.11;-0.01111073;0.2823438;0;
-19639.85;-20335.82;308.662;-23140.45;1.026567;-5.408617;-20571.63;-20603.45;-0.0760669;0.3470274;0;
