Fp1;Fp2;O1;O2;POLY3;POLY4;A1;A2;Video;Audio;event;
25533.63;17654.77;-2047.768;26831.9;-7.222487;11.79037;24991.55;12784.15;-0.2090649;-0.3569306;0;13:07:11 Глаза открыты;
21720.52;14290.34;-409.5327;23182.7;-0.1816557;7.491612;21183.32;10146.9;-0.4037569;-0.1616699;0;
23178.17;15770.7;2005.696;24540.62;8.324993;6.680411;22644.28;11463.74;-0.4033512;0.03339456;0;
23397.08;16225;3338.791;24631.53;0.8818888;3.793433;22864.59;11712.58;0.1167929;-0.161541;0;
-2612.24;-2079.81;3079.94;-2575.512;-0.05700241;0.2396476;-2673.248;-1879.727;0.7013816;0.163458;0;
-30618.32;-22561.49;2076.067;-31698.81;-1.664536;1.311134;-30091.64;-16531.21;0.3108728;0.2932284;0;
-24137.72;-16255.91;340.7581;-25519.02;-6.016143;0.8409358;-23573.05;-11253.29;-0.2091783;-0.1618376;0;
-27264.94;-19403.18;-1955.68;-28462.39;0.01812141;0.1032785;-26652.68;-13485.18;-0.07903346;-0.09670763;0;
-25747.34;-18636.23;-3283.078;-27267.77;4.036591;0.2371406;-25126.47;-13823.08;-0.0139867;-0.09661046;0;
8995.829;7844.776;-2981.179;8357.316;0.6836325;-0.432927;8976.806;5422.019;-0.1439073;-0.1614807;0;
25604.66;17686.91;-2090.474;26887.37;-0.2550595;-1.571202;25062.2;12826.85;-0.3386647;0.03358356;0;
21829.7;14424.5;-422.1171;23295.52;3.56359;1.779523;21290.96;10258.9;-0.3383245;-0.03141753;0;
23216.79;15793.71;2023.172;24572.42;4.831831;3.921067;22683.93;11504.61;-0.4029519;-0.3562227;0;
23558.05;16392.06;3365.495;24832.53;8.377925;4.720922;23019.22;11851.2;-0.2076449;-0.09599537;0;
-2306.024;-1771.93;3088.094;-2177.578;10.64668;8.333136;-2381.383;-1682.221;-0.142469;0.2289378;0;
-30466.68;-22408.09;2064.036;-31522.97;13.04688;3.234181;-29945.23;-16475.56;-0.5970972;0.2936751;0;
-23901.36;-16008.37;324.554;-25308.35;18.45976;-1.18982;-23338.12;-11131.25;-0.3366279;0.4882821;0;
-27181.47;-19335.44;-1985.798;-28390.13;9.800044;3.29911;-26575.78;-13507.49;0.1834491;0.09798738;0;
-26196.79;-18996.48;-3327.409;-27715.44;3.092391;2.425017;-25570.88;-14144.03;-0.07660458;-0.3568825;0;
8652.183;7669.839;-3022.686;8032.422;7.577263;5.436812;8643.226;5259.595;-0.07652761;-0.2915565;0;
25555.68;17669.34;-2127.909;26845.11;6.028431;10.05305;25013.35;12787.57;0.3133533;-0.2262962;0;
21767.33;14342.23;-457.4849;23221.91;7.697313;1.804292;21228.16;10190.32;0.3780058;-0.1611015;0;
23206.78;15789.82;1991.057;24571.11;11.3069;-1.211753;22673.11;11485.34;0.05278929;-0.3558417;0;
23461.7;16306.81;3335.754;24682.12;3.859825;-2.952092;22927.44;11779.31;-0.07719844;-0.3554841;0;
-2627.18;-2056.103;3054.136;-2629.969;1.042907;-5.762287;-2689.785;-1870.331;0.4426179;-0.03029022;0;
-30690.46;-22626.48;2027.738;-31794.15;0.1038543;-5.15365;-30171.25;-16609.31;0.2472711;-0.1601945;0;
-24145.29;-16266.49;291.5408;-25530.43;-4.986465;-8.028738;-23590.77;-11280.2;-0.5325854;0.03486852;0;
-27624.14;-19791.02;-2015.749;-28837.13;5.668466;-1.121551;-27021.02;-13876.38;-0.467083;0.09980084;0;
-26383.56;-19177.59;-3347.303;-27909.14;15.50938;2.630498;-25771;-14365.46;-0.2717116;-0.6149402;0;
8707.076;7757.649;-3025.818;8086.449;6.38412;4.436394;8685.118;5313.555;-0.2714386;-0.744257;0;
25589.01;17708.47;-2116.327;26884.03;0.8853492;10.3933;25044.48;12836.04;0.05367084;-0.2887378;0;
21823.39;14392.31;-437.2624;23289.78;11.8028;2.478988;21280.02;10230.17;0.2485189;-0.158513;0;
23250.33;15836.1;2018.255;24611.85;16.54636;-2.279169;22714.73;11527.84;-0.01160014;0.166483;0;
23492.23;16335.3;3361.239;24748.79;15.45801;-0.6023053;22953.61;11811.64;-0.1415232;0.4911525;0;
-2637.349;-2049.052;3072.942;-2565.296;17.92072;-2.477222;-2713.318;-1919.35;-0.07641362;0.2307896;0;
-30961.24;-22887.28;2045.026;-32051.75;11.74078;-4.015218;-30448.98;-16896.05;-0.2712389;-0.2891811;0;
-24543.26;-16674.34;304.626;-25948.9;8.245378;-5.618774;-23993.46;-11626.73;-0.1410316;-0.2239232;0;
-27720.18;-19872.43;-1998.273;-28941.43;5.625124;-7.555634;-27135.02;-13971.59;0.05401209;-0.09376348;0;
-26240.7;-19103.61;-3310.713;-27803.88;3.87816;-9.624391;-25658.89;-14314.95;-0.3358462;-0.2236039;0;
8845.03;7752.989;-2969.853;8183.907;-1.015857;-8.676959;8799.194;5337.746;-0.2055741;-0.2233793;0;
25645.97;17735.49;-2041.334;26926.85;-6.507193;-7.060772;25097.48;12853.85;0.1194692;0.1016819;0;
21820.37;14410.05;-343.823;23274.81;-0.2040148;-10.26874;21274.1;10238.24;0.0543818;0.4913838;0;
23293.6;15864.86;2107.572;24653.04;1.001639;-12.26791;22749.48;11549.64;0.1192945;0.295988;0;
23425.17;16291.84;3435.567;24660.4;6.492989;-9.442296;22880;11749.82;-0.01076005;-0.2240481;0;
-2629.107;-1987.756;3147.258;-2618.949;9.299504;-9.03091;-2730.111;-1898.309;0.5089895;0.1010137;0;
-30655.88;-22555.31;2110.958;-31784.36;17.05969;-6.54359;-30189.78;-16568.6;0.4435107;0.4907162;0;
-24595.35;-16715.87;348.5971;-26021.1;30.37179;-3.656749;-24079.96;-11535.45;-0.336543;0.1653865;0;
-27838.12;-19995.84;-1957.469;-29102.28;14.33369;-5.461614;-27282.12;-14017.65;0.1185665;0.100253;0;
-25808.47;-18667.93;-3259.972;-27405;9.027027;-4.65233;-25263.35;-14002.63;0.1834147;0.2300869;0;
9052.905;7999.258;-2936.232;8388.18;6.204917;-6.590161;8982.395;5473.473;-0.7912797;0.2948231;0;
25548.54;17654.14;-2035.421;26826.18;-6.259899;-8.25799;24987.74;12764.12;-0.6605499;0.1645921;0;
21851.77;14436.67;-342.5065;23292.41;9.956017;-7.312054;21292.65;10252.02;0.05475456;-0.16041;0;
23227.03;15798.63;2109.293;24577.49;15.90688;-8.845192;22669.49;11473.85;0.1846342;0.03465323;0;
23405.57;16287.24;3437.817;24609.47;15.35504;-5.621245;22848.19;11717.44;0.3793507;0.03461841;0;
-2500.124;-1822.114;3146.164;-2562.69;22.90905;-3.40516;-2634.239;-1837.558;0.4439369;0.09955098;0;
-30608.61;-22498.23;2096.216;-31822.5;12.43718;-3.937602;-30220.6;-16667.85;-0.07624791;-0.03048375;0;
-24128.69;-16255.82;346.2698;-25639.65;10.3476;-1.656348;-23711.99;-11356.36;-0.4659753;-0.2903225;0;
-27128.72;-19255.48;-1949.705;-28463.25;4.175261;-4.534828;-26656.72;-13489.84;-0.2056378;-0.2250634;0;
-25973.23;-18800.57;-3290.978;-27604.49;-6.94737;-6.33881;-25492.38;-13959.01;-0.3353658;-0.4197393;0;
8604.86;7548.038;-2987.665;7909.13;4.311768;-3.720107;8497.318;5245.435;-0.3999962;-0.2244155;0;
25587.89;17683.96;-2072.809;26840.99;5.580233;-3.783352;25013.27;12774.63;-0.07475756;0.165614;0;
21918.46;14498.85;-379.2015;23351.51;9.058227;-2.373031;21344.95;10283.29;-0.1396498;0.230415;0;
23429.38;16014.26;2077.882;24748.88;17.2208;-3.911132;22859.94;11682.51;-0.2694441;0.4900528;0;
23761.58;16590.58;3413.185;24995.22;5.749291;1.518294;23175.63;12000.25;-0.2691734;0.1647237;0;
-2489.039;-1936.492;3117.464;-2477.38;2.528334;8.080852;-2689.61;-1920.882;-0.268903;-0.4201479;0;
-30520.9;-22447.03;2078.852;-31771.88;-1.091529;-1.304635;-30197.27;-16710.58;-0.3985674;-0.1598564;0;
-24091.57;-16199.17;332.3279;-25665.36;-7.051303;-2.709965;-23723.2;-11491.48;-0.4631343;0.03520627;0;
-27790.12;-19923.39;-1969.662;-29162.58;-5.169184;-8.534513;-27369.33;-14254.31;-0.1378322;0.1001383;0;
-26052.77;-18936.03;-3273.557;-27761.89;-9.450898;-15.82696;-25624.42;-14342.67;-0.007759045;0.4898417;0;
9260.37;8125.767;-2938.435;8529.188;-1.871964;-9.849693;9118.891;5557.172;0.05721609;0.3594148;0;
25718.77;17807.29;-2036.59;26980.96;4.560278;-12.5861;25136.61;12901.58;-0.007808739;-0.1606851;0;
21970.36;14562.3;-350.2031;23395.44;-1.20508;-0.5837494;21391.75;10344.07;-0.007800893;-0.225491;0;
23535.21;16109.42;2109.725;24856.87;-0.5342838;10.80369;22959.99;11771.01;-0.007793055;-0.2902317;0;
23740.85;16593.78;3455.646;24964.94;-4.351164;3.558801;23157.42;11974.94;0.1871168;-0.4198748;0;
-2066.06;-1455.457;3173.939;-2083.798;-8.298907;4.158072;-2271.189;-1608.319;0.6417001;0.03531849;0;
-29907.05;-21808.2;2132.74;-31162.95;-6.750327;3.551048;-29595.69;-16162.54;0.2512513;0.1652177;0;
-23424.17;-15531.29;395.2507;-25004.98;-8.216436;2.87765;-23067.82;-10868.38;-0.1388052;-0.549589;0;
-26713.12;-18826.16;-1883.907;-28101.16;-7.605944;0.8653926;-26312.6;-13220.63;0.2511384;-0.6140042;0;
-25358.04;-18271.66;-3197.931;-27053.04;-6.459226;-2.484624;-24954.11;-13666.57;0.3808207;-0.4184852;0;
9227.537;8028.571;-2891.667;8515.96;-8.864609;-0.6066049;9074.248;5478.986;-0.009366006;-0.3530974;0;
25668.34;17744.93;-1997.678;26932.95;-8.654632;-0.8069442;25083.17;12827.02;-0.009356595;0.03706147;0;
21852.67;14448.26;-311.5172;23281.9;-10.25353;-0.0693211;21270.98;10237.16;0.05562015;0.361861;0;
23312.61;15886.97;2147.747;24640.13;-12.85519;1.270407;22734.19;11532.67;0.05556426;0.29653;0;
23517.2;16364.32;3505.281;24751.81;-6.612983;1.202148;22927.08;11774.14;-0.07442626;-0.09357201;0;
-2387.284;-1797.707;3250.947;-2394.596;-3.056365;1.133957;-2598.761;-1788.142;-0.2692535;-0.2234127;0;
-29935.44;-21841.76;2244.06;-31210.13;-1.244633;4.414859;-29640.93;-16176.69;-0.07408092;0.03668118;0;
-23385.27;-15500.1;521.1389;-24987.19;3.645762;7.357672;-23056.02;-10965.42;-0.009039143;-0.1582577;0;
-26874.41;-18990.34;-1762.862;-28271.03;-0.2426676;4.737945;-26482.99;-13434.92;0.1209046;-0.417968;0;
-25165.71;-18073.38;-3075.383;-26879.67;-4.595705;2.455764;-24766.98;-13569.99;0.2507178;-0.222646;0;
9500.123;8267.139;-2770.773;8776.088;3.178446;5.668478;9335.93;5629.971;-0.009403469;-0.157455;0;
25619.14;17675.69;-1894.865;26883.8;6.256711;8.743875;25034.34;12776.19;0.1205407;-0.0273621;0;
21763.4;14373;-235.5753;23191.45;4.910277;3.041662;21181.53;10151.27;0.3153216;0.4274368;0;
23271.52;15832.67;2197.626;24594.33;8.723737;1.364154;22693.12;11480.02;0.05513537;0.2970726;0;
23496.24;16385.75;3556.484;24736.24;-1.466435;-1.785415;22907.43;11781.36;-0.009887377;0.1018721;0;
-2473.059;-1772.281;3322.994;-2463.425;-7.895323;-8.749601;-2693.479;-1845.834;0.1850246;0.4915738;0;
-29938.67;-21806.46;2309.663;-31202.05;-6.949384;0.7705225;-29634.68;-16169.81;-0.0750307;-0.02865889;0;
-23112.87;-15216.16;575.8377;-24706.45;-12.63583;4.855585;-22762.89;-10722.12;0.05497938;-0.4184341;0;
-26789.77;-18876.12;-1714.777;-28160.67;-3.379732;4.24786;-26398.54;-13357.44;0.6396302;0.03675769;0;
-25403.53;-18358.17;-3044.822;-27077.98;2.584535;9.267189;-24997.69;-13721.66;0.1192488;-0.2881159;0;
9481.222;8194.626;-2726.296;8775.655;-0.4321717;0.3493918;9331.045;5674.108;-0.4655771;-0.4177611;0;
25821.38;17885.31;-1846.217;27080.1;1.175853;-5.210421;25235.89;12966.36;-0.1402726;-0.09250466;0;
21917.48;14527.49;-221.5837;23338.16;0.1702934;-2.793922;21333.59;10296.86;-0.01019697;0.1674577;0;
23403.14;15968.79;2200.734;24721.16;0.437566;-4.130651;22826.41;11625.6;-0.07515407;0.1023221;0;
23630.26;16506.81;3557.683;24865.35;-1.437908;-3.791586;23036.29;11875.48;-0.3999152;-0.2226175;0;
-2268.226;-1613.805;3305.577;-2266.98;-2.106048;-2.716171;-2511.837;-1712.505;-0.07467671;-0.1574264;0;
-29671.97;-21557.27;2290.42;-30958.04;-6.39084;-3.919013;-29408.01;-15999.17;0.5750718;-0.3521703;0;
-23081.53;-15193.54;562.9238;-24706.72;-13.14957;-3.982058;-22768.94;-10760.82;0.3795919;-0.4817511;0;
-26634.74;-18712.39;-1718.995;-28050.8;-5.634271;-0.6960148;-26269.95;-13236.82;0.1843084;-0.1564303;0;
-24561.29;-17559.22;-3033.387;-26292.03;-1.341702;1.113224;-24191.91;-13256.47;-0.07574613;0.03862888;0;
10078.54;8675.649;-2744.14;9362.732;-6.029403;5.331908;9898.634;5847.046;-0.3355394;0.2334921;0;
25741.91;17773.11;-1881.565;27021.58;-6.023345;8.675575;25154.06;12881.38;0.2495039;0.03835545;0;
21984.24;14606.16;-206.4525;23410.13;-7.356463;11.01126;21400.61;10396.03;0.3791878;-0.3514871;0;
23548.53;16114.9;2230.78;24872.01;-7.68484;13.88034;22968.64;11745.63;-0.2058993;-0.2211993;0;
23618.59;16453.77;3550.874;24851.91;-9.41843;13.66544;23024.46;11869.74;-0.4005944;-0.02607499;0;
-2242.065;-1707.131;3272.1;-2250.562;-13.89694;14.79042;-2469.265;-1759.025;-0.2702572;0.1688533;0;
-29752.45;-21676.88;2241.829;-31040.27;-5.711308;12.09637;-29465.42;-16062.79;0.05485107;0.1037162;0;
-23251.62;-15357.06;496.0776;-24871.79;-0.4133075;9.672827;-22932.92;-10856.27;-0.07513873;-0.2212247;0;
-26937.55;-19062.38;-1804.015;-28329.92;-3.09221;8.926294;-26561.64;-13493.33;-0.1400306;-0.1560351;0;
-25390.95;-18269.13;-3113.746;-27092.81;0.8630126;5.903215;-24995.25;-13663.57;0.2499142;0.1039911;0;
9426.747;8236.52;-2793.386;8709.306;-6.506221;8.174582;9263.968;5681.241;0.1197284;0.168854;0;
25829.9;17894.32;-1914.083;27103.62;-13.73335;10.64474;25245.51;12991.5;0.1196081;0.2336516;0;
22014.01;14617.64;-255.7106;23450.86;-3.069633;5.208545;21434.22;10393.3;0.1194879;-0.09141987;0;
23438.35;16003.98;2172.732;24769.37;2.358459;1.050492;22863.23;11661.13;-0.4653382;0.103574;0;
23605.84;16491.79;3505.19;24851.15;0.3473334;5.738119;23020.58;11884.3;-0.2699686;0.298372;0;
-2467.534;-1762.041;3235.333;-2458.231;1.082943;7.272961;-2685.285;-1837.37;0.2500414;-0.2866339;0;
-29993.5;-21860.81;2205.661;-31246.66;2.087209;7.265653;-29697.7;-16261.02;0.1848228;-0.02647654;0;
-23181.97;-15304.66;468.3795;-24748.39;-1.33114;8.999786;-22841.58;-10792.53;0.1196697;0.1034848;0;
-26549.35;-18616.83;-1812.664;-27913.7;8.114669;6.646463;-26152.69;-13073.13;0.4443862;-0.09152126;0;
-24600.23;-17639.74;-3115.265;-26285.29;17.75206;6.505819;-24193.2;-13213.51;0.508907;0.1684401;0;
10078.14;8618.559;-2801.244;9391.423;3.399628;3.95393;9924.883;5909.347;-0.01134308;-0.2215332;0;
25877.88;17909.8;-1918.278;27159.58;-0.8906953;0.466967;25297.57;13024.66;0.118603;-0.286278;0;
22109.64;14732.35;-233.6648;23539.83;-7.453884;2.810778;21534.39;10514.37;0.1834512;0.1038137;0;
23691.9;16254.01;2218.056;25022.86;-18.02896;2.004281;23121.38;11921.47;-0.2715046;0.2336441;0;
23805.6;16641.05;3548.345;25053.27;-9.236939;3.609735;23222.79;12025.9;0.1185723;0.1034747;0;
-1929.974;-1385.806;3265.514;-1900.669;-7.284299;6.62034;-2132.143;-1541.79;0.5082572;-0.2864334;0;
-29280.13;-21200.22;2225.629;-30514;-5.200875;1.188193;-28966.74;-15674.78;0.1829098;0.1686258;0;
-22804.29;-14917.28;485.7974;-24369.79;-0.1054343;-1.090421;-22457.79;-10543;0.2476934;0.2983911;0;
-26579.49;-18679.66;-1797.231;-27931.28;-1.511848;-2.094069;-26166.42;-13188.22;-0.1423596;-0.2866148;0;
-24879.51;-17860.37;-3113.528;-26530.09;-1.644051;-5.775904;-24451.46;-13314.88;-0.9218246;-0.0914248;0;
9912.872;8524.228;-2803.07;9252.187;4.318472;-0.8804687;9766.073;5863.054;-0.466127;0.03860174;0;
25929.81;17957.23;-1904.235;27221.9;9.337975;3.13927;25355.4;13064.7;-0.01088723;0.03856296;0;
22059.9;14682.63;-213.9514;23499.9;5.175406;-0.7487725;21492.17;10480.96;-0.335713;-0.02644313;0;
23633.7;16189.62;2239.093;24968.85;3.428894;-0.7480201;23069.08;11844.34;-0.1404736;0.03855078;0;
23763.47;16633.48;3559.116;25031.83;3.760241;-0.4123538;23190.91;12050.8;0.5093409;-0.2863247;0;
-2117.284;-1476.625;3258.158;-2055.173;4.092231;-1.617632;-2312.494;-1602.061;0.3788944;-0.675841;0;
-29543.81;-21428.33;2219.749;-30753.79;0.3370754;3.139659;-29202.76;-15802.97;-0.336127;-0.02548851;0;
-23281.77;-15396.57;458.496;-24810.56;-2.208859;4.476163;-22882.94;-10717.93;-0.1408873;0.6242105;0;
-26960.9;-19062.38;-1835.187;-28288.98;-1.335983;9.495263;-26519;-13404.72;0.05415633;0.2337793;0;
-24887.47;-17885.43;-3119.353;-26551.71;-4.61717;16.65277;-24440.38;-13359.62;-0.3357021;-0.221227;0;
9872.845;8489.42;-2797.504;9187.562;4.564497;9.736921;9751.687;5866.395;-0.2703975;-0.09107006;0;
25868.99;17908.13;-1884.275;27154.2;11.32506;7.784633;25304.86;13031.25;0.1196783;0.1688908;0;
22158.14;14778.8;-163.5898;23612.13;8.96916;7.977759;21597.21;10574.08;0.119558;0.4285905;0;
23755.03;16312.73;2292.215;25100.32;11.23732;4.41977;23201.47;11987.74;-0.0104968;0.4931272;0;
23784.08;16657.16;3605.969;25060.17;8.881508;10.84557;23218.95;12064.44;-0.1404209;0.167795;0;
-2195.495;-1553.337;3307.9;-2115.987;6.461686;14.51861;-2373.886;-1707.185;-0.2702145;0.102659;0;
-29491.46;-21367.66;2263.506;-30677.5;7.594269;12.42755;-29113.61;-15766.06;-0.3349104;0.2324906;0;
-23232.83;-15336.76;486.9359;-24729.2;7.586638;11.41044;-22795.54;-10683.48;-0.009737124;0.4921263;0;
-27307.27;-19391;-1828.265;-28599.49;3.292108;14.07817;-26820.79;-13708.07;0.05524;0.1018278;0;
-25198.99;-18207.84;-3114.031;-26807.5;0.2746898;15.7386;-24695.65;-13587.53;-0.2696522;-0.2880786;0;
9925.815;8491.889;-2760.984;9312.985;-0.9320111;12.70855;9835.135;5930.957;-0.399316;0.1020149;0;
25908.71;17930.14;-1834.111;27219.4;-2.939831;11.95909;25351.26;13053.88;0.1857914;-0.157957;0;
22062.86;14693.51;-123.2214;23513.46;-2.468362;6.856496;21515.63;10493.53;0.5754087;-0.5476023;0;
23629.43;16191.59;2331.731;24986.09;-2.800674;2.562699;23085.81;11883.24;0.3149612;-0.2871827;0;
23816;16672.37;3648.725;25085.11;-0.7217554;0.2828259;23264.03;12079.47;0.2496774;-0.2219268;0;
-2159.903;-1550.983;3334.902;-2071.463;1.422424;-4.473125;-2288.136;-1615.537;0.3143938;-0.02680177;0;
-29535.89;-21425.93;2279.33;-30679.81;-0.1865961;-1.588486;-29099.2;-15781.68;-0.2706282;0.1031599;0;
-22840.03;-14947.98;526.857;-24306.72;-4.272245;1.427342;-22360.04;-10452.59;-0.2053889;0.1680235;0;
-26647.35;-18724.1;-1774.859;-27897.04;4.373212;-2.526085;-26112.58;-13109.09;0.3145562;0.2977894;0;
-24774.89;-17781.77;-3071.455;-26332.41;12.13835;-1.652769;-24231.76;-13205.3;0.2492728;-0.2222486;0;
10081.56;8632.193;-2731.569;9489.807;0.136086;-2.655852;10013.89;5956.593;-0.01084701;-0.02712323;0;
25860.27;17880.32;-1821.78;27180.45;-3.145604;-6.002208;25317.97;13020.16;0.2490333;0.3627081;0;
22082.33;14715.95;-111.902;23544.35;-9.170664;5.792575;21545.79;10539.09;0.1838157;0.1674416;0;
23722.68;16276.51;2339.353;25089.28;-15.32437;12.41782;23194.25;11973.94;0.1186636;0.4271427;0;
23698.17;16580.01;3644.939;24998.55;-15.17427;15.01768;23159.16;12007.47;0.5733158;0.2967789;0;
-2123.421;-1453.747;3348.455;-1978.473;-21.12087;21.09791;-2228.395;-1561.284;0.3778377;0.166546;0;
-29187.31;-21059.77;2294.9;-30275.13;-10.31601;18.26343;-28705.22;-15399.6;0.05262135;0.5561827;0;
-22904.73;-15025.78;516.2991;-24309.84;-5.013379;19.11586;-22375.45;-10428.85;-0.01239887;0.3607218;0;
-27068.99;-19151.94;-1782.127;-28241.44;-0.9225045;15.74763;-26475.33;-13472.98;-0.07735375;-0.02944473;0;
-24935.43;-17954.83;-3064.785;-26427.27;8.790338;12.04786;-24328.36;-13356.23;-0.3371454;-0.4841865;0;
10061.58;8604.912;-2735.025;9503.328;0.07396775;11.76783;10026.02;5949.213;-0.2718393;-0.5486674;0;
25796.23;17815.13;-1838.602;27127.31;-3.007565;7.000213;25262.44;12960.61;0.1182379;-0.09334467;0;
21975.95;14609.27;-133.8913;23449.96;-2.803473;10.81121;21453.75;10457.28;-0.01181558;-0.1582182;0;
23646.02;16197.91;2321.946;25032.33;-7.355007;10.93431;23126.62;11896.39;-0.07677105;-0.2230266;0;
23669.02;16557.71;3629.174;24957.39;-4.534577;10.85634;23149.74;12019.94;0.5729795;-0.0928678;0;
-2516.131;-1823.789;3310.967;-2379.26;-3.725738;14.86428;-2552.96;-1704.694;0.3775018;0.2320622;0;
-29802.4;-21666.81;2252.639;-30833.25;-8.946907;4.333272;-29243.46;-15842.73;-0.3375183;0.3617637;0;
-22866.68;-14987.73;501.0358;-24217.04;-12.22045;-1.297526;-22280.38;-10386.6;-0.01234248;0.1664982;0;
-26472.89;-18540.98;-1793.565;-27610.79;-11.40388;-2.702864;-25813.01;-12780.06;0.5074087;0.3612329;0;
-24630.42;-17653.04;-3091.14;-26045.98;-9.047901;-8.192627;-23964.05;-12947.66;0.3769641;0.03603325;0;
10080.87;8600.993;-2758.544;9593.82;-15.33545;-4.768265;10071.21;5974.112;0.05174864;-0.6136764;0;
25871.91;17885.55;-1855.943;27227.95;-20.74505;-5.232354;25347.09;13038.59;0.05169665;-0.288223;0;
22005.35;14642.63;-154.4638;23497.56;-12.28509;-2.74885;21493.58;10501.16;0.1815794;0.1018706;0;
23633.98;16185.05;2294.273;25022.74;-9.325005;1.808629;23124.75;11886.03;-0.2084071;0.231703;0;
23621.76;16508.45;3596.375;24961.33;-3.823278;-3.484596;23108.95;11996.07;-0.5330344;0.3614048;0;
-2531.996;-1844.018;3284.416;-2277.695;4.352237;-3.949975;-2562.102;-1763.428;-0.2726295;0.03620496;0;
-29752.67;-21614.41;2223.585;-30719.63;-0.2074635;-6.558341;-29177.16;-15740;-0.07745349;-0.1587334;0;
-23573.7;-15704.86;442.3073;-24882.02;-2.082289;-10.77155;-22961.99;-10798.57;-0.142343;-0.02863926;0;
-27962.4;-20052.03;-1859.668;-29050.46;3.144716;-6.808859;-27284.93;-14141.21;0.05270204;-0.1585452;0;
-25558.34;-18538.83;-3131.487;-26969.81;4.347005;-6.935983;-24876.06;-13851.11;0.05264909;-0.02845118;0;
9890.485;8472.448;-2794.618;9388.18;5.548086;-3.378919;9898.907;5916.804;-0.3372079;0.1015121;0;
25782.71;17799.43;-1893.855;27128.71;9.293555;4.059338;25263.12;12964.47;-0.01203233;-0.09349193;0;
21941.14;14576.45;-186.1217;23431.43;2.317992;-6.5278;21431.18;10424.98;0.1828818;0.1015041;0;
23616.13;16164.86;2259.773;25010.26;0.1722091;-13.48722;23110.04;11881.13;-0.2720734;0.4262388;0;
23590.81;16505.02;3562.191;24912.59;-1.904069;-4.230269;23083.47;11977.35;0.2479388;0.1009738;0;
-2825.282;-2049.406;3240.271;-2588.692;-8.131446;-2.14967;-2833.025;-1882.863;0.5725263;-0.1589971;0;
-30039.04;-21875.8;2184.826;-30994.83;2.861437;1.670517;-29442.13;-16011.15;-0.2726244;-0.09386997;0;
-22985.06;-15127.94;450.4387;-24295.88;6.006393;5.888641;-22364.37;-10490.41;-0.2073831;0.03615904;0;
-26710.57;-18773.86;-1836.146;-27809.94;13.97194;5.480827;-26017.43;-12986.17;0.5724334;-0.2237467;0;
-24607.58;-17685.8;-3131.009;-26033.67;26.14806;7.886583;-23911.92;-12994.03;0.2470215;-0.3534565;0;
10330.09;8755.904;-2796.42;9807.33;15.53824;4.864549;10339.96;6138.384;-0.1430308;-0.093232;0;
25974.19;17971.86;-1899.997;27322.93;13.17908;3.520002;25457.52;13141;0.246917;-0.1581057;0;
22074.22;14717.19;-209.1864;23567.45;11.4909;1.708048;21568.11;10567.24;0.1167342;-0.2229141;0;
23722.56;16273.73;2229.048;25117.77;3.776191;-1.575832;23222.38;12008.97;-0.2731872;0.03717921;0;
23766.3;16641.07;3535.151;25092.33;10.6049;0.5692056;23259.67;12072.67;-0.07801063;0.1670766;0;
-2118.002;-1477.129;3238.371;-1907.809;10.99638;1.238463;-2138.774;-1482.75;0.3118718;-0.09296071;0;
-29055.43;-20935.52;2185.52;-30038.8;9.712538;0.2324746;-28461.3;-15197.23;-0.01327827;-0.612606;0;
-22658.45;-14774.57;420.0226;-23960.37;14.25713;-0.5715542;-22021.58;-10177.85;-0.403069;-0.4820558;0;
-26618.26;-18689.12;-1859.691;-27700.48;0.04291093;1.371525;-25906.41;-12926.78;0.1170748;0.168102;0;
-24090.56;-17145.52;-3142.224;-25487.62;-8.061457;0.5663519;-23391.69;-12654.72;0.2468918;0.4927698;0;
10569.83;9026.376;-2837.359;10093.05;-8.85764;5.053517;10570.66;6210.304;-0.1431603;0.4273073;0;
25857.55;17859.42;-1961.103;27227.68;-17.42256;10.80885;25340.94;13052.17;-0.01308179;-0.02789345;0;
22082.89;14721.7;-293.1263;23578.82;-5.749774;1.956364;21577.91;10584.65;0.0518987;-0.4176695;0;
23680.51;16233.88;2117.769;25078.14;2.829818;-0.6578143;23180.93;11955.1;0.1817812;-0.3522825;0;
23732.93;16598.45;3441.319;25086.46;-3.402316;-4.27411;23228.51;12064.87;0.4414679;-0.2869611;0;
-2294.476;-1693.742;3163.03;-2019.529;-0.854278;-9.896259;-2318.064;-1640.997;0.05122031;-0.4166075;0;
-29416.19;-21314.47;2120.249;-30352.37;-4.202322;-5.465564;-28809.81;-15574.26;-0.3386352;-0.4161889;0;
-22519.71;-14624.57;387.8012;-23798.26;-9.087244;-5.326107;-21868.05;-10179.82;0.1164764;-0.02596663;0;
-26472.02;-18538.4;-1893.911;-27519.85;1.102317;-1.904747;-25753.63;-12811.4;0.1813267;0.2988962;0;
-24573.02;-17630.98;-3196.539;-25923.94;6.594542;1.111399;-23846.86;-12881.58;-0.1436922;0.1686612;0;
10304.81;8744.549;-2863.368;9857.119;4.912976;3.655511;10330.83;6122.237;0.1163216;0.1035244;0;
25948.99;17939.37;-1967.346;27314.73;7.318937;8.407504;25433.77;13112.43;0.2461394;0.1034203;0;
22017.04;14662.86;-294.4594;23514.81;4.968034;6.59064;21518.41;10525.56;0.1809247;0.2982184;0;
23729.85;16275.38;2137.958;25139.19;3.690245;7.990537;23233.21;12012.75;0.3106776;0.3628861;0;
23718.47;16609.95;3458.02;25045.88;4.2224;6.642971;23220.39;12059.35;0.5702348;0.2975542;0;
-2461.697;-1760.422;3185.212;-2220.005;2.275775;4.961723;-2442.664;-1634.436;0.3747598;-0.02758155;0;
-29071.52;-20931.53;2171.488;-30010.74;5.756113;7.702916;-28430.63;-15131.41;-0.01542079;-0.3523905;0;
-22213.35;-14337.3;434.9904;-23492.24;8.295924;7.293278;-21553.83;-9845.844;0.1794967;0.03776759;0;
-26192.97;-18246.14;-1843.489;-27253.09;6.010413;11.43889;-25464.45;-12525.32;0.309251;0.2326317;0;
-23414.32;-16574.58;-3121.337;-24788.28;4.797948;13.57073;-22695.18;-12205.76;0.1790056;0.1024633;0;
11137.07;9430.45;-2803.984;10684.56;7.271374;16.10245;11149.86;6475.213;0.3087605;0.2972623;0;
25952.54;17933.8;-1931.51;27334.13;9.809663;20.90891;25438.63;13144.93;0.4383849;0.4918657;0;
22171.43;14824;-254.0987;23670.57;5.713969;15.46241;21669.88;10697.55;0.372977;0.4264041;0;
23808.94;16349.7;2175.685;25215.84;1.756113;12.29867;23310.59;12070.78;0.1127329;0.1011389;0;
23676.57;16552.49;3493.398;25023.4;7.716196;14.63072;23173.24;12032.73;-0.2122171;0.1660046;0;
-2285.743;-1658.824;3225.396;-2017.746;13.40187;14.683;-2289.699;-1525.866;-0.2120038;0.3607399;0;
-28952.26;-20845.09;2197.795;-29888.93;4.881937;13.6635;-28332.35;-15094.56;0.04807856;-0.02942668;0;
-22034.87;-14159.28;451.1198;-23329.74;-1.151188;13.44883;-21387.86;-9862.139;0.1779649;-0.2892665;0;
-25993.51;-18043;-1824.065;-27055.94;6.284708;11.82784;-25270.38;-12390.22;0.3077208;-0.2240085;0;
-23765.31;-16885.81;-3103.292;-25104.99;7.885983;8.198881;-23041.56;-12240.26;0.04754224;-0.09384871;0;
10761.4;9052.076;-2769.855;10342.29;8.681366;14.41993;10775.81;6315.077;-0.2773422;-0.1587217;0;
25912.14;17869.92;-1883.641;27292.58;10.07916;18.55826;25395.38;13059.92;-0.1471289;-0.02862758;0;
21930.19;14595.54;-217.6783;23425.75;9.332101;14.18585;21427.75;10465;-0.01704637;0.4261726;0;
23579.54;16112.52;2204.76;24993.96;12.60525;13.56875;23082.09;11849.5;-0.01702924;0.2308423;0;
23508.89;16407.96;3510.575;24844.32;3.349187;10.9429;23010.47;11875.64;0.2428572;-0.1591937;0;
-2537.448;-1851.999;3235.622;-2291.941;-2.347605;8.989401;-2525.515;-1687.953;0.3725479;-0.09406637;0;
-28867.4;-20737.68;2215.038;-29799.36;-2.211524;5.76531;-28221.83;-14993.24;0.1123042;0.1009302;0;
-21775.75;-13877.32;441.4215;-23059.71;-8.170174;1.003851;-21106.19;-9627.099;0.1771587;0.2307635;0;
-25941.08;-17988.9;-1867.518;-27005.82;-0.05763902;3.414106;-25215.11;-12372.84;0.1769807;-0.09430514;0;
-23795.52;-16840.75;-3155.712;-25150.67;3.492392;2.941795;-23089.78;-12349.35;-0.1480339;-0.02924304;0;
10606.22;9053.538;-2847.007;10168.24;2.550878;2.536941;10607.36;6178.035;-0.3427871;0.2306557;0;
25666.1;17654.77;-1969.805;27044.03;4.892839;3.606119;25151.01;12859.92;-0.08257334;0.1004893;0;
21802.08;14452.41;-280.3922;23294.23;0.6683645;0.2534707;21300.83;10315.16;0.04744432;-0.02954639;0;
23461.41;16000.32;2145.389;24869.8;0.6003439;0.2532161;22956.44;11723.93;-0.3424074;-0.1594514;0;
23435.55;16352.62;3445.766;24745.36;-7.839376;-4.100807;22932.56;11809.14;-0.2121287;-0.09432383;0;
-2601.465;-1837.219;3170.565;-2406.182;-15.8021;-8.919335;-2591.943;-1740.792;0.1129212;0.2306077;0;
-29053.26;-20895.03;2147.955;-30032.94;-14.7145;-3.618844;-28434.55;-15169.14;-0.1470616;0.2953433;0;
-21624.58;-13742.96;390.5848;-22957.8;-17.31266;-0.6010976;-21001;-9578.431;-0.08194654;-0.02979019;0;
-25766.68;-17814.6;-1912.931;-26854.42;-19.63979;-2.476016;-25073.79;-12237.34;0.3729072;-0.02976025;0;
-24264.52;-17322.73;-3204.234;-25618.59;-23.17002;-3.478272;-23566.7;-12490.69;0.3075652;0.03523699;0;
10232.07;8682.985;-2872.929;9777.996;-18.39034;0.6111821;10235.39;6090.213;0.04738675;-0.2246678;0;
25711.69;17709.38;-1987.736;27075.14;-12.34365;1.883122;25189.8;12878.08;-0.01762821;0.03542733;0;
21778.91;14420.91;-305.2085;23268.78;-19.76598;4.158649;21269.53;10279.6;0.04735685;0.5551305;0;
23438.38;15983.57;2121.004;24841.69;-22.29172;8.374273;22930.73;11719.62;-0.08262542;0.1647686;0;
23458.78;16351.94;3399.666;24767.73;-19.18786;1.399878;22948.15;11790.63;-0.2124771;0.1646031;0;
-2501.238;-1795.472;3080.94;-2301.59;-19.16858;-1.079897;-2498.608;-1691.773;0.1125731;0.03450298;0;
-28845.43;-20692.73;2032.682;-29806.39;-15.66669;-4.762752;-28219.61;-15033.15;0.1774274;-0.4852704;0;
-21726;-13826.46;260.5607;-23017.68;-14.64657;-10.51838;-21088.7;-9653.035;-0.1475876;0.03495592;0;
-25677.7;-17726.83;-2055.881;-26756.25;-9.675364;-7.493697;-24978.6;-12153.14;-0.3423414;0.1648555;0;
-23386.87;-16465.72;-3347.04;-24769.46;-3.502725;-10.09838;-22698.45;-12011.85;0.04780667;-0.2900816;0;
10799.66;9200.663;-3030.24;10345.16;-8.254628;-4.126874;10788.37;6281.031;0.3725953;-0.2248227;0;
25679.15;17658.29;-2141.36;27055.63;-8.17996;2.575322;25154.53;12861.33;0.04738425;-0.09466216;0;
21924.16;14576.51;-419.3851;23413.95;-10.78371;-5.063076;21416.75;10449.27;-0.2775001;0.2302697;0;
23608.76;16140.35;2013.97;25012.68;-16.4663;-7.335408;23100.31;11856.5;-0.1472865;0.2950056;0;
23478.26;16411.88;3279.684;24791.55;-8.210733;-7.261055;22973.54;11877.14;0.1776982;-0.2899969;0;
-2598.918;-1780.167;2959.079;-2394.579;-3.715481;-9.330108;-2592.532;-1719.415;0.3074543;-0.3546728;0;
-29120.79;-20946.51;1895.358;-30079.82;-7.194372;-8.517059;-28502.53;-15198.61;0.5020474;-0.4192838;0;
-22190.96;-14333.59;112.411;-23480.96;-7.119794;-8.307552;-21556.46;-9914.601;0.3716082;-0.4838298;0;
-26427.81;-18463.52;-2203.288;-27501.85;-7.046267;-10.17461;-25726.75;-12743.17;-0.01856921;0.1663298;0;
-24022.35;-17188.88;-3475.902;-25379.2;-7.10556;-11.03516;-23328.36;-12498.6;-0.1484852;0.2960973;0;
10821.03;9083.628;-3092.6;10392.16;-6.964698;-10.55519;10819.79;6393.92;-0.4082054;0.3607671;0;
26064.55;18036.14;-2170.799;27432.33;-7.560913;-9.874756;25542.73;13214.03;-0.3428279;0.620274;0;
22216.61;14874.81;-480.3096;23701.08;-6.012098;-9.931817;21708.04;10736.04;-0.08261406;0.2298467;0;
23820.6;16358.19;1946.297;25230.72;-4.867957;-10.32374;23313.53;12086.51;-0.1474984;0.09968106;0;
23658.54;16543.65;3223.105;24962.87;-5.466278;-7.232269;23151.93;11999.27;-0.2123175;-0.0303538;0;
-2495.39;-1824.386;2905.618;-2306.333;-4.924922;-5.81836;-2494.644;-1754.063;-0.01720216;0.0996114;0;
-29260.55;-21129.26;1848.447;-30216.5;-4.986346;-4.003974;-28643.05;-15372.75;-0.08215222;0.424348;0;
-22635.58;-14774.74;62.04943;-23890.05;-4.646544;-1.722654;-22001.07;-10168.6;-0.2769717;0.03411757;0;
-26452.67;-18512.9;-2240.793;-27518.95;-2.833214;-3.663306;-25749.61;-12704.68;-0.01682402;0.03408328;0;
-23255.87;-16402.49;-3493.161;-24651.22;-0.2857473;-4.195488;-22566.44;-12101.01;-0.1467418;-0.160853;0;
11345.88;9614.347;-3125.958;10909.95;-2.160494;-5.062051;11327.42;6597.602;-0.276529;-0.3555934;0;
26030.19;17991.99;-2196.689;27419.35;-6.913745;-4.72205;25504.9;13213.08;0.04858553;-0.03039937;0;
22427.75;15083.52;-445.1427;23906.95;5.283363;-9.874868;21921.1;10948.23;0.1784714;0.03459851;0;
24280.1;16826.46;2023.97;25672.2;13.51708;-15.69234;23774.88;12552.62;0.1133247;-0.03040359;0;
24201.05;17043.15;3300.231;25555.73;6.939412;-9.983145;23686.02;12490.79;-0.2765932;-0.1603077;0;
-1801.384;-1269.305;2958.991;-1522.369;6.061783;-7.963748;-1841.398;-1419.389;-0.2113479;-0.0951793;0;
-28888.02;-20807.01;1873.062;-29813.8;3.107955;-8.357643;-28288;-15127.63;0.3086032;-0.160051;0;
-22865.1;-14980.24;73.865;-24111.36;1.430869;-6.808638;-22215.51;-10359.25;0.5031951;-0.02995551;0;
-27673.9;-19765.08;-2240.265;-28704.42;-5.134653;-7.940506;-26970.83;-13946.61;0.4377221;0.3598787;0;
-25245.55;-18280.69;-3502.378;-26598.96;-11.69358;-8.602235;-24553.78;-13522.59;0.04747827;0.164615;0;
10311.15;8773.023;-3116.567;9880.457;-10.61108;-8.995489;10304.07;6160.855;-0.01753678;-0.2253544;0;
26121.3;18109.01;-2168.863;27492.02;-13.41345;-12.26861;25597.28;13284.57;0.3722849;0.2946107;0;
22445.51;15084.65;-423.7787;23928.53;-10.25117;-8.304416;21936.15;10939.47;-0.08286057;0.6191514;0;
24222.42;16772.13;2043.532;25618.89;-7.963691;-2.73661;23712.61;12521.89;-0.212712;0.2936926;0;
24167.53;17030.63;3325.208;25518.26;-6.54917;-15.39327;23655.1;12449.7;0.0473711;0.1634628;0;
-1919.123;-1291.059;2980.508;-1642.427;-2.32303;-20.93726;-1943.08;-1396.137;-0.2775132;0.2932332;0;
-28720.52;-20604.29;1904.521;-29662.74;-4.866292;-23.46158;-28114.96;-14958.98;-0.08233233;0.2279712;0;
-22428.64;-14541.51;119.566;-23704.29;-6.401643;-31.20778;-21782.63;-10008.51;0.2425871;-0.0321272;0;
-26878.63;-18935.15;-2189.456;-27940.16;-1.036576;-21.06224;-26177.96;-13181.6;-0.01752601;-0.03209492;0;
-23916.51;-17099.95;-3448.763;-25292.98;3.586166;-16.62033;-23235.01;-12619.77;-0.08247574;0.03290467;0;
11133.4;9374.422;-3093.38;10708.95;-1.708723;-14.05827;11115.73;6517.343;0.1774765;-0.09706307;0;
26048.99;18009.94;-2177.715;27433.09;-6.262334;-6.67627;25521.56;13203.1;0.4371675;-0.1619329;0;
22270.54;14934.63;-435.9328;23752.36;0.3080419;-11.35824;21761.98;10803.83;0.2418262;-0.5515742;0;
24022.36;16553.99;2010.588;25423.09;4.327197;-13.3562;23514.03;12279.62;-0.2781555;-0.6809547;0;
23710.4;16612.5;3278.961;25035.59;-0.9684373;-7.381541;23202.52;12063.46;-0.277876;-0.1605317;0;
-2435.141;-1716.656;2959.013;-2204.776;-4.317343;-3.824028;-2446.772;-1661.814;0.04723993;0.2294336;0;
-28944.77;-20795.73;1895.979;-29888.21;-2.235924;-6.365538;-28326.77;-15081.05;-0.1477096;0.03430107;0;
-22169.39;-14292.31;112.2815;-23437.95;-2.83689;-6.961988;-21517.52;-9865.016;-0.2125285;-0.09566808;0;
-25996.46;-18028.88;-2186.207;-27080.54;-3.570973;-7.758788;-25293;-12317.19;0.1125218;0.03436273;0;
-22903.21;-16150.09;-3451.139;-24275.84;-2.696729;-10.83208;-22221.15;-11744.66;-0.2773953;0.0343282;0;
11543.25;9665.733;-3104.859;11157.82;-7.851583;-6.266483;11520.65;6731.625;-0.731888;-0.03067363;0;
26144.63;18092.11;-2197.226;27537.29;-10.18724;-3.37992;25610.66;13294.85;-0.6012179;0.1642592;0;
22353.21;15028.16;-472.7273;23820.73;-12.32046;-6.524722;21840.54;10892.28;0.1140269;0.03415948;0;
24063.42;16588.74;1977.141;25463.55;-15.85805;-7.121012;23550.4;12316;0.5037164;-0.2907116;0;
23776.41;16689.98;3251.045;25078.96;-12.62694;-8.453394;23262.96;12128.81;0.1783736;-0.03055008;0;
-2359.281;-1624.138;2914.29;-2181.133;-13.21746;-10.7893;-2381.317;-1597.94;0.3730964;0.424252;0;
-28694.5;-20550.2;1844.554;-29686.05;-8.180341;-9.773717;-28112.74;-14908.41;0.04788478;0.293891;0;
-21951.32;-14085.77;64.81269;-23253.66;-2.344972;-10.56769;-21349.6;-9728.696;-0.277;-0.09620831;0;
-25778.22;-17788.22;-2231.754;-26876.92;-6.026311;-11.56182;-25103.01;-12140.3;0.3079844;-0.0311443;0;
-22265.95;-15588;-3493.033;-23652.84;-4.212571;-12.08606;-21604.06;-11433.43;0.1127729;0.3586911;0;
12008.15;9984.221;-3153.458;11593.56;-9.298553;-14.48518;11970;6861.537;-0.2121772;-0.1614081;0;
26148.22;18073.76;-2258.378;27526.94;-17.05874;-13.93476;25614.99;13303.54;-0.08202928;-0.8109193;0;
22408.7;15104.72;-548.4047;23877.23;-7.7982;-20.01609;21895.04;10969.34;-0.01697951;-0.2903658;0;
24241.5;16751.6;1885.111;25633.95;-4.642533;-23.7469;23727.07;12470.42;-0.1468971;0.4895341;0;
23860.74;16799.14;3165.791;25197.67;-7.584629;-21.9816;23346.3;12258.43;0.0481525;0.1642055;0;
-2340.745;-1557.896;2846.581;-2081.358;-4.361827;-23.29905;-2366.651;-1484.068;0.2430061;-0.1607962;0;
-28434.79;-20263.54;1781.942;-29392.65;-14.6062;-17.3144;-27837.81;-14573.26;0.1777946;-0.03069997;0;
-21816.53;-13933.57;13.16475;-23117.21;-20.28495;-14.88562;-21189.32;-9600.736;0.1126486;0.09926557;0;
-26294.55;-18317.65;-2277.791;-27380.7;-21.67109;-8.775338;-25609.85;-12627.22;-0.4721706;-0.09573621;0;
-22903.38;-16195.52;-3552.407;-24306.56;-29.28512;-4.010855;-22233.1;-11868.89;-0.6016309;-0.4204767;0;
11784.28;9861.584;-3220.612;11354.71;-17.40033;-1.193664;11757.62;6831.485;0.04864706;0.2296192;0;
26157.15;18110.96;-2324.387;27543.09;-7.938372;6.7114;25626.41;13329.38;-0.01636916;0.5542252;0;
22405.36;15085.88;-610.7243;23875.96;-15.36514;-4.95013;21893.98;10953.16;-0.3411894;-0.03103779;0;
24170.64;16692.36;1832.412;25570.51;-17.22473;-10.03574;23656.56;12418.96;-0.4707813;-0.09597394;0;
23872.33;16790.36;3108.865;25186.89;-10.17482;-14.04451;23360.18;12243.98;-0.08050418;-0.03091016;0;
-2250.722;-1519.237;2771.566;-2031.627;-5.542901;-25.14932;-2268.92;-1505.179;0.2444134;0.09905559;0;
-28636.82;-20474.18;1698.1;-29588.28;-6.407987;-12.33067;-28039.25;-14796.25;-0.2755709;0.1639234;0;
-21974.02;-14079.75;-76.46478;-23260.98;-5.798336;-4.816317;-21345.55;-9668.094;-0.3402613;-0.03114335;0;
-26152.35;-18188.39;-2372.109;-27233.79;-4.118546;-11.44267;-25467.71;-12451.37;-0.2749521;-0.09607939;0;
-23148.21;-16352.2;-3643.866;-24544.56;-3.243752;-11.2972;-22490.18;-11947.76;-0.4046105;-0.2908849;0;
11373.99;9574.176;-3291.646;10931.79;-3.441563;-10.81697;11339.5;6615.797;-0.01439992;-0.2256253;0;
26079.7;18039.04;-2361.414;27465.8;-3.303407;-11.6099;25548.31;13245.2;0.1155492;0.1644055;0;
22328.52;15000.86;-633.1271;23809.93;-4.907679;-6.775582;21815.83;10873.35;-0.0794689;0.294175;0;
24112.1;16633.72;1802.254;25504.63;-8.185277;-2.415005;23598.19;12359.86;-0.4691931;0.2289121;0;
23739.7;16679.18;3080.175;25063.64;-3.354281;-4.756859;23224.96;12136.64;-0.1438849;0.09874738;0;
-2549.463;-1739.78;2769.11;-2321.1;1.203441;-3.948284;-2572.121;-1678.995;0.505933;0.2285828;0;
-28522.53;-20352.43;1720.572;-29493.17;-5.227154;-4.681129;-27937.38;-14709.66;0.1156206;0.09841847;0;
-21808.53;-13950.62;-47.08208;-23106.81;-6.896841;-7.824502;-21198.38;-9589.106;-0.01443022;-0.1615498;0;
-26353.07;-18379.26;-2328.076;-27436.37;-7.358426;-0.5157439;-25668.37;-12660;0.05055162;-0.09642013;0;
-22974.71;-16243.89;-3576.811;-24363.43;-10.49984;3.369662;-22303.7;-11943.38;-0.07943386;-0.42116;0;
11745.57;9828.259;-3235.433;11326.33;-3.589437;2.562481;11714.02;6800.624;0.31045;-0.5506715;0;
26112.45;18052.84;-2335.696;27498.8;-0.03585736;4.569395;25578.3;13270.88;0.115236;0.03458794;0;
22288.04;14976.16;-613.9941;23760.8;2.307727;1.952591;21773.99;10843.6;-0.4046185;0.09952054;0;
24028.93;16543.55;1818.744;25435.58;6.994458;1.682697;23510.63;12263.44;-0.4042119;-0.2254162;0;
23678.45;16637.81;3091.214;24961.56;4.911325;-1.936072;23168.1;12097.87;-0.01400171;-0.03028766;0;
-2552.855;-1696.734;2771.048;-2405.072;4.236804;-6.287895;-2556.039;-1615.872;0.3108491;-0.03025722;0;
-28838.53;-20643.93;1706.048;-29826.18;7.31303;-4.205106;-28233.84;-14909.71;-0.01429999;0.03474052;0;
-22054.68;-14179.95;-56.78131;-23360.61;9.449136;-6.478301;-21430.38;-9677.737;-0.01428562;-0.03026173;0;
-26007.32;-18014.79;-2326.583;-27114.09;6.224461;-2.452937;-25322.77;-12205.54;-0.1442059;-0.2251333;0;
-22617.05;-15959.02;-3583.347;-24008.69;4.142101;1.501521;-21958.85;-11587.43;-0.3389631;-0.2249071;0;
11738.56;9737.435;-3252.192;11313.34;3.669425;-3.992467;11701.37;6764.771;-0.01378577;-0.1597138;0;
26031.17;17976.44;-2350.767;27414.22;0.1147883;-5.596045;25494.82;13184.57;0.3110648;0.2302507;0;
22292.03;14983.53;-614.0576;23762.01;5.608006;-6.729132;21775.3;10848.33;0.4406869;0.3599541;0;
24037.6;16548.57;1824.053;25434.82;12.36753;-8.061908;23519.99;12274.06;0.05044005;0.03475567;0;
23546.39;16502.44;3088.209;24846.68;1.436758;-9.661397;23030.11;11951.86;-0.1445127;0.0996881;0;
-2594.908;-1754.799;2784.257;-2431.647;-5.999425;-11.79514;-2610.516;-1677.38;0.1155019;0.1645553;0;
-28672.08;-20484.4;1726.115;-29665.15;2.915211;-10.9795;-28086.85;-14775.38;0.4402226;-0.2254141;0;
-22102;-14253.44;-75.40244;-23376.8;6.930769;-11.97321;-21497.47;-9775.644;0.1799109;-0.485057;0;
-26107.05;-18119.54;-2367.612;-27196.04;3.373832;-8.411082;-25427.51;-12365.3;-0.1451066;-0.1597329;0;
-22406.08;-15713.15;-3604.86;-23830.59;-0.7827438;-3.78093;-21756.84;-11508.76;0.1149086;0.03532961;0;
11868.6;9863.481;-3245.854;11430.64;7.590787;-7.929951;11817.78;6780.925;-0.01514159;-0.09464057;0;
25969.3;17896.51;-2330.051;27359.83;14.28194;-9.328624;25433.87;13125.01;-0.1450611;0.2952586;0;
22220.19;14917.81;-588.6777;23696.16;5.358983;-6.907987;21707.05;10787.31;-0.07994796;0.4248966;0;
24064.24;16575.2;1865.337;25463.23;4.482942;-8.039634;23546.78;12289.71;-0.339737;-0.03030175;0;
23636.56;16596.36;3132.918;24952.64;-3.760585;-2.271267;23122.37;12070.66;0.05040843;-0.0302713;0;
-2915.421;-2060.277;2803.091;-2716.237;-12.73276;3.491425;-2930.668;-1941.771;0.1153251;0.1646612;0;
-29000.5;-20807.17;1735.434;-29994.04;-8.499434;-1.133784;-28404.34;-15092.21;0.1801766;0.1644957;0;
-21883.07;-14007.24;-56.94059;-23192.84;-11.10384;-0.4628151;-21257.3;-9555.913;0.5048323;0.2942651;0;
-25959.74;-17950.8;-2355.853;-27055.9;-5.935118;-3.409477;-25272.57;-12184.36;-0.01541374;0.2939694;0;
-22431.4;-15827.63;-3591.16;-23822.42;0.1664145;-9.099479;-21777.28;-11525.69;-0.4701696;0.09877202;0;
12012.31;9904.769;-3216.645;11607.1;-3.91959;0.08608246;11968.97;6894.37;-0.6645992;0.1636401;0;
26084.67;18011.03;-2300.606;27474.89;-2.240712;3.502003;25547.33;13230.58;-0.3390947;0.1634757;0;
22284.67;14993.8;-556.8569;23746.47;-3.042744;4.771161;21767.54;10863.42;0.3109194;0.03337672;0;
24060.66;16558.91;1889.692;25461.57;-5.852726;9.990913;23541.32;12275.12;-0.2740991;0.4231473;0;
23490.45;16478.49;3139.789;24782.4;2.593249;2.813822;22973.64;11949.05;-0.2088563;0.2927874;0;
-2820.976;-1914.704;2825.415;-2681.282;7.412438;-0.8729442;-2845.76;-1851.396;0.441027;-0.1622782;0;
-29026.73;-20815.43;1750.115;-30023.75;7.740759;0.9364721;-28436.88;-15013.25;-0.01418759;0.1627216;0;
-22771.79;-14909.84;-96.87184;-24045.05;12.42105;1.13648;-22142.33;-10103.43;-0.07914068;-0.1622787;0;
-26931.96;-18937.54;-2406.114;-28027.38;7.920595;-0.941133;-26243.38;-13011.99;-0.2089958;-0.5519196;0;
-22839.27;-16126.15;-3619.71;-24246.95;6.506117;-3.083519;-22180.45;-11884.41;-0.4686552;-0.161561;0;
11726.49;9776.166;-3241.667;11306.18;7.170141;1.876194;11690.45;6767.755;0.1165218;0.2933727;0;
25836.92;17780.52;-2313.156;27223.86;2.473887;5.290317;25299.68;12993.17;0.05143735;0.3580453;0;
22173.6;14869.53;-554.2774;23642.78;11.7148;6.62466;21656.41;10739.13;-0.5982878;0.2277508;0;
24051.46;16557.28;1897.36;25447.91;14.315;7.421798;23532.02;12265.35;-0.5976866;0.2924893;0;
23426.73;16417.64;3142.358;24734.64;18.18538;13.57653;22909.23;11913.36;-0.3372167;-0.0326413;0;
-3194.424;-2268.722;2810.928;-3020.538;29.21917;17.78281;-3215.267;-2067.835;-0.1419758;-0.1625432;0;
-29404.57;-21196.27;1744.388;-30396.88;10.03342;18.03275;-28819.68;-15374.07;0.05306888;0.1624569;0;
-22475.68;-14628.89;-63.42539;-23751.91;-0.8949974;22.16757;-21862.17;-9994.754;-0.2068538;-0.09757575;0;
-26331.51;-18340.43;-2363.081;-27428.59;2.924295;13.90652;-25657.13;-12486.53;-0.2716133;0.09742434;0;
-22783.91;-16053.2;-3588.167;-24201.63;-1.968763;9.404813;-22138.61;-11693.39;-0.2063731;0.4221632;0;
11672.67;9726.199;-3187.949;11250.82;3.59292;6.582201;11627.02;6810.562;-0.466035;0.09690225;0;
26086.45;18014.4;-2252.199;27471.42;6.201278;-1.060344;25546.18;13223.15;-0.07576272;0.03183753;0;
22183.49;14881.47;-531.0497;23650.25;6.79826;5.638892;21661.98;10744.08;0.1841828;0.2267076;0;
23875.59;16375.21;1905.509;25276.93;8.131576;7.642592;23352.53;12101.65;-0.01090432;0.4213818;0;
23423.99;16437.39;3165.023;24714.78;11.67338;6.094428;22912.24;11891.68;0.3139434;0.3559911;0;
-3202.848;-2210.917;2838.662;-3069.097;16.28335;7.561806;-3216.754;-2112.921;0.3136279;0.1607313;0;
-29267.23;-21038.5;1772.75;-30286.46;12.44859;5.745791;-28677.08;-15297.56;-0.01152395;0.2255372;0;
-22390.59;-14542.92;-39.24638;-23666.9;13.77623;6.94571;-21768.01;-9925.96;0.3782917;0.1603432;0;
-26571.23;-18570.61;-2341.581;-27658.69;7.197331;2.718807;-25887.32;-12754.78;0.1830095;-0.09968729;0;
-22602.54;-15936.45;-3561.801;-24032.68;1.83244;-0.5659671;-21944.04;-11789.36;-0.4018804;-0.03461978;0;
11975.03;9960.133;-3181.083;11533.96;2.968699;0.975209;11940.16;6872.703;-0.1416072;0.0953497;0;
25924.19;17855.9;-2249.682;27309.08;-2.727711;-1.035259;25386.65;13087.36;-0.2713996;-0.09964815;0;
22197.01;14896.78;-489.4613;23661.93;7.92495;2.381789;21680.64;10768.71;-0.3360943;-0.2294827;0;
24217.51;16721.61;1971.95;25609.04;15.01693;4.321901;23698.24;12430.28;-0.01091986;0.2255193;0;
23806.36;16788.65;3227.18;25125.06;12.12243;3.44678;23293.51;12275.11;-0.2707783;0.6150967;0;
-3003.742;-2101.573;2870.428;-2793.863;16.39618;5.050907;-3009.951;-1951.59;-0.1405715;0.289642;0;
-29414.01;-21200.61;1776.81;-30371.51;10.28512;1.428875;-28809.68;-15380.8;0.1844065;-0.03548578;0;
-22688.2;-14832.62;-29.03682;-23943.11;6.724808;-0.4480824;-22057.28;-10181.79;-0.0756482;-0.1004175;0;
-27282.16;-19307.87;-2328.664;-28363.38;7.052843;-1.452376;-26597.28;-13409.76;-0.2704742;0.09458547;0;
-23829.37;-17074.27;-3565.483;-25234.24;1.08391;-2.723593;-23174.07;-12538.39;-0.07530041;0.09449043;0;
11290.84;9388.158;-3200.223;10881.12;10.05878;-4.328324;11254.38;6592.346;0.1846446;-0.1654739;0;
25938.63;17869.47;-2271.55;27327.73;17.55076;-7.070275;25401.12;13055.19;0.2494264;0.1595291;0;
22057.72;14755.23;-513.4628;23528.72;7.75386;-4.517819;21542.24;10628.99;0.1842085;0.2893035;0;
23854.58;16360.39;1929.325;25251.41;5.200473;-5.451041;23335.53;12071.47;-0.2057807;-0.1657586;0;
23305.2;16312.09;3169.325;24599.55;3.856077;-1.359727;22790.91;11812.59;-0.07563923;-0.1006247;0;
-3533.722;-2545.534;2816.91;-3352.235;0.2348799;3.665237;-3541.191;-2282.438;0.1843061;0.02941108;0;
-29674.33;-21447.32;1739.089;-30653.41;4.587924;-2.567736;-29072.8;-15585.86;-0.07574841;0.1593162;0;
-22751.72;-14912.4;-57.69418;-24029.55;5.989834;-2.765983;-22120.8;-10170.76;-0.1406396;0.2241235;0;
-26929.33;-18939.82;-2356.168;-28019.24;7.658755;-8.925511;-26238.68;-13020.38;0.1843384;0.02899624;0;
-22940.79;-16272.31;-3585.119;-24347.5;10.06196;-16.35153;-22282.65;-12023.94;0.5739572;-0.4258043;0;
11784.41;9785.278;-3229.663;11363.87;10.92348;-9.502959;11746.69;6801.517;0.3784785;-0.6202784;0;
25883.6;17819.92;-2327.338;27267.03;12.98861;-6.412318;25345.49;13044.38;-0.01170588;-0.09991647;0;
22105.82;14803.57;-583.3751;23572.55;12.97556;-9.152053;21587.16;10660.67;0.1182406;0.1600533;0;
23871.74;16373;1843.398;25261.99;13.83317;-9.946652;23352.32;12100.11;0.1181218;0.09492514;0;
23479.97;16478.87;3085.92;24804.26;12.54648;-5.917804;22963.68;11932.28;-0.1418663;0.09482976;0;
-3012.1;-2069.907;2757.701;-2788.069;10.18935;-3.433489;-3038.099;-1988.924;0.2480803;-0.03520022;0;
-29160.13;-20948.01;1680.783;-30145.28;12.05512;-1.621622;-28577.58;-15232.81;0.3777657;0.02980249;0;
-22116.67;-14257.47;-114.2857;-23420.82;11.84193;1.193291;-21496.6;-9750.835;0.1175168;-0.1651295;0;
-26491.24;-18491.99;-2405.051;-27590.53;9.887652;1.058126;-25811.63;-12682.65;0.05243134;-0.2299309;0;
-23135.51;-16473.42;-3647.805;-24538.73;8.337476;3.803241;-22479.91;-11985.96;-0.1425234;0.0301695;0;
11605.36;9582.688;-3291.817;11192.84;6.721508;-0.2194348;11569.59;6754.471;-0.2073475;0.1600739;0;
25919.74;17848.01;-2377.857;27303.21;7.384339;-3.568239;25378.37;13039.71;0.1826649;0.09494571;0;
21979.57;14685;-640.3716;23444.68;-0.9958252;1.12403;21456.64;10554.32;0.6372527;-0.0350844;0;
23796.73;16287.62;1793.611;25189.72;-8.831706;1.591781;23274.31;11995;0.3117757;0.1598529;0;
23233.81;16269.18;3042.524;24524.03;-3.79899;6.077916;22718.22;11767.54;-0.143309;0.2246596;0;
-3734.308;-2710.53;2703.885;-3579.921;-2.723445;10.49256;-3756.2;-2413.787;0.1816718;0.09449919;0;
-29733.86;-21501.59;1642.357;-30737.28;-3.591365;10.21409;-29145.99;-15671.59;0.1814892;-0.2304325;0;
-22507.04;-14668.97;-127.7479;-23775.66;-0.9084392;12.48124;-21879.58;-10084.61;-0.01359518;-0.5550376;0;
-26679.39;-18676.38;-2403.663;-27769.77;-4.524849;11.39697;-25993.54;-12836.04;0.05138583;-0.2296432;0;
-22670.15;-15978.01;-3628.756;-24072.36;-7.668134;8.974136;-22019.08;-11771.14;-0.2735025;-0.3593472;0;
11949.5;9935.134;-3271.99;11565.24;-1.231043;13.85475;11900.96;6870.072;-0.338195;-0.2290514;0;
25834.17;17748.22;-2373.699;27229.52;0.8472744;17.05601;25288.54;12969.6;-0.1429532;-0.03391924;0;
22030;14743.37;-641.7147;23489.02;3.726811;12.35019;21509.77;10615.7;-0.2077769;-0.0988525;0;
23792.25;16283.7;1785.585;25187.38;8.61221;10.79717;23269.45;11978.82;-0.2725355;0.03118151;0;
23219.49;16245.44;3031.445;24527.64;4.651442;8.107006;22701.58;11755.52;-0.01239225;-0.03381716;0;
-3741.781;-2754.92;2705.249;-3548.667;6.38808;4.749836;-3768.533;-2607.11;0.3774242;0.03118416;0;
-30181.65;-21954.53;1649.466;-31172.73;-0.6509364;5.213943;-29593.42;-16111.28;0.0522083;0.03115282;0;
-23351.85;-15499.2;-112.4311;-24644.64;-9.826334;3.333183;-22719;-10730.15;-0.2077135;-0.03384582;0;
-28484.87;-20550.66;-2383.302;-29557.83;0.02917657;5.406304;-27792.84;-14559.75;0.4421686;0.2910249;0;
-25435.13;-18501.78;-3616.739;-26836.49;0.297567;7.745152;-24748.15;-13680.05;0.5066916;0.1607978;0;
10391.82;8840.496;-3244.649;9924.076;5.588553;5.259124;10391.49;6330.845;0.05141114;-0.1642005;0;
25806.64;17800.28;-2324.506;27161.47;15.49592;5.186856;25272.4;12972.31;-0.01360786;0.03086653;0;
22026.13;14680.75;-595.6633;23494.46;0.8783186;4.712764;21502.55;10526.31;-0.1435289;0.2257376;0;
23905.67;16431.39;1846.77;25288.29;-4.882364;2.631558;23385.75;12173.53;0.1164847;-0.09932599;0;
23665.71;16652.9;3128.769;24982.45;-5.882813;6.781856;23142.83;12098.66;0.571139;-0.3590955;0;
-3193.535;-2247.231;2821.247;-2981.236;-12.03884;9.521219;-3225.056;-2158.48;0.2457285;-0.1638327;0;
-29532.21;-21318.34;1765.942;-30511.32;-6.735461;6.22961;-28946.99;-15633.76;-0.07935515;0.09620129;0;
-22832.28;-14987.92;-8.129572;-24098.11;-6.929764;4.883692;-22202.03;-10439.73;0.1156266;0.2260393;0;
-27902.39;-19945.14;-2278.917;-28964.14;-2.970685;4.07499;-27203.86;-14064.32;0.4403471;-0.1639919;0;
-24433.92;-17584.56;-3499.513;-25830.39;2.12349;2.79822;-23762.96;-13040.36;0.2450027;-0.3587291;0;
11157.64;9438.476;-3131.305;10731.49;-1.563315;1.053974;11125.51;6641.665;-0.4049169;-0.1634666;0;
25960.7;17919.47;-2206.716;27340.47;-0.422668;0.4500684;25421.95;13109.08;-0.2745754;-0.2282697;0;
22205.43;14874.71;-451.5668;23670.2;-4.173287;-2.765564;21686.77;10735.55;-0.1443648;-0.2930077;0;
24178.14;16703.91;1988.317;25565.17;-8.053861;-5.308015;23658.82;12439.09;-0.3391218;-0.09781127;0;
23714.12;16681.98;3227.57;25028.38;-5.36645;-3.89604;23196.11;12125.63;0.05102301;0.03222169;0;
-3088.765;-2193.229;2888.59;-2868.446;-4.624124;-4.561954;-3109.861;-2023.964;0.4407758;-0.2276801;0;
-28858.47;-20665.36;1834.028;-29855.53;-6.964002;-0.4715338;-28275.97;-15005.06;0.3103982;0.09738544;0;
-21705.62;-13857.6;70.07121;-23040.02;-8.698317;3.145896;-21098.11;-9675.342;0.1801516;0.4221243;0;
-26589.58;-18590.59;-2197.172;-27691.24;-6.881892;3.343684;-25904.8;-12944.02;0.05003595;0.2267981;0;
-23021.5;-16372.56;-3416.257;-24426.4;-6.94135;5.014898;-22361.77;-11995.28;-0.2098837;-0.03329914;0;
12048.28;9973.466;-3045.852;11616.81;-5.595204;6.282535;12001.42;7025.405;-0.1447055;-0.1632004;0;
26179.29;18087.69;-2144.525;27559.54;-5.522233;8.084639;25635.66;13302.59;0.1802766;-0.0331017;0;
22230.81;14941.18;-439.8193;23690.3;-2.368853;6.000166;21707.44;10788.69;0.2450628;-0.09803578;0;
24169.43;16674.09;1979.657;25553.68;5.470408;3.113871;23646.64;12418.41;0.1798493;-0.2928393;0;
23654.17;16643.81;3234.286;24967.64;-8.667633;5.589111;23127.41;12056.03;0.1147012;-0.03267569;0;
-2783.026;-1848.989;2918.131;-2567.086;-19.37619;6.38729;-2824.417;-1708.294;-0.08031607;0.2272265;0;
-27534.05;-19326.55;1880.75;-28572.96;-9.242666;1.558223;-26973.98;-13954.45;-0.2751374;0.03209617;0;
-19761;-11905.24;97.5368;-21196.23;-9.300729;-2.26137;-19179.26;-8342.729;-0.07995891;-0.4227075;0;
-24432.5;-16379.35;-2199.532;-25620.99;-5.004476;-2.460046;-23778.76;-11044.61;0.1799908;-0.2923481;0;
-21019.44;-14527.72;-3432.591;-22447.1;-0.9799829;-1.854728;-20401.83;-10478.17;-0.1450268;-0.227087;0;
12764.35;10419.05;-3081.036;12350.74;-1.849654;-8.684879;12685.94;7138.935;-0.144881;-0.3567935;0;
25913.1;17796.21;-2184.686;27310.01;5.385873;-13.03004;25367.56;13054.52;0.1801012;-0.2914676;0;
21924.91;14660.63;-456.4521;23391.18;-10.42702;-12.01221;21402.63;10527.46;-0.07994909;-0.3561421;0;
23900.8;16386.93;1981.969;25294.26;-22.87513;-14.61235;23374.76;12098.84;-0.3397381;-0.09591487;0;
23414.08;16418.17;3231.723;24721.48;-12.20222;-8.100444;22888.84;11875.16;-0.5342988;0.4239202;0;
-3004.321;-2074.272;2896.455;-2818.3;-10.71609;-3.068707;-3040.062;-1809.865;-0.4038272;0.4884616;0;
-27604.01;-19392.95;1838.388;-28660.65;-9.165084;-2.395916;-27044.74;-13883.65;-0.1435521;0.2281015;0;
-19837.59;-11980.21;36.91369;-21250.98;-5.605901;2.831038;-19264.13;-8323.376;-0.2733425;0.4227743;0;
-24676.95;-16640.93;-2274.836;-25848.93;-5.399198;-0.6547972;-24020.95;-11224.14;-0.1431332;0.3573821;0;
-21159.74;-14643.49;-3499.262;-22578.57;-3.116596;-3.534283;-20537.49;-10554.98;-0.01305469;0.162121;0;
12769.34;10464.59;-3122.278;12383.82;-0.4341477;2.966368;12686.53;7182.577;-0.07800891;0.09699078;0;
26066.98;17953.65;-2203.179;27469.85;2.446677;4.905893;25519.19;13215.93;-0.07793053;-0.1629761;0;
22241.87;14977.18;-456.0609;23694.05;2.510591;6.910451;21720.29;10849.07;-0.07785223;0.2269918;0;
24142.96;16624.33;1982.953;25528.98;0.7667562;12.12805;23616.95;12320.92;0.05216068;0.096829;0;
23541.25;16563.86;3219.525;24850.7;6.39304;3.877089;23016.24;12067.15;0.05210827;-0.423007;0;
-3316.335;-2340.662;2871.339;-3126.108;10.7399;-1.552302;-3357.48;-2166.39;-0.01291143;0.2270914;0;
-28890.35;-20667.16;1792.776;-29914.41;4.097673;2.267163;-28329.1;-15030.45;0.05206889;0.2918306;0;
-21685.21;-13851.04;-28.14273;-23016.05;0.6109313;-0.1463786;-21101.41;-9600.505;0.05201657;0.1616027;0;
-26722.39;-18714.53;-2342.576;-27833.58;-0.05926787;5.212281;-26063.54;-12996.26;0.181899;0.6162117;0;
-22888.31;-16310.76;-3551.535;-24295.99;-0.394001;9.292881;-22249.37;-12010.91;0.1817162;0.2907558;0;
12227.67;10008.58;-3146.793;11831.34;-6.556523;5.532621;12167.29;6983.341;-0.1433031;0.03059427;0;
26095.66;17979.5;-2212.084;27484.78;-12.37708;6.129908;25550.33;13202.3;-0.3380611;-0.1643385;0;
22152.64;14886.03;-463.0206;23606.99;-6.47015;1.76998;21631.44;10764.18;-0.3377214;-0.09920603;0;
24130.51;16608.29;1971.128;25518.56;-2.913675;-1.714911;23605.35;12307.47;-0.3373821;0.160763;0;
23296.25;16348.02;3186.629;24593.43;-3.312889;-0.7754267;22774.83;11870.51;-0.07717372;-0.2292026;0;
-3934.573;-2876.75;2822.671;-3761.538;-2.505277;0.02914768;-3965.156;-2563.375;0.1178058;-0.358907;0;
-29517.48;-21285.42;1742.282;-30548.59;4.396117;-3.721804;-28951.17;-15478.09;-0.1421819;0.0962251;0;
-22367.24;-14555.4;-77.99174;-23692.36;8.879678;-7.402125;-21771.49;-9980.244;-0.4668757;0.1610958;0;
-27144.04;-19141.14;-2382.099;-28258.41;11.88487;-0.8974653;-26468.65;-13283.99;-0.3364719;-0.4887396;0;
-22709;-16094.14;-3574.698;-24136.88;14.68596;1.782754;-22068.64;-11970.26;-0.01129713;-0.7481178;0;
12354.83;10215.34;-3163.39;11953.28;14.80493;5.531885;12288.37;7089.582;-0.01128578;-0.3575621;0;
25990.74;17890.95;-2225.665;27388.05;16.19657;10.21501;25441;13119.56;0.1186602;0.03260126;0;
22127.93;14851.77;-469.2793;23579.21;11.62595;9.333967;21603.99;10729;0.05357367;0.09753586;0;
23972.4;16453.21;1967.03;25360.66;12.95343;10.73123;23442.16;12144.19;-0.07641485;0.0324705;0;
23095.71;16158.71;3185.878;24380.14;-1.92906;8.510011;22573.63;11682.42;0.05359662;-0.03252947;0;
-3802.69;-2708.804;2833.415;-3653.462;-17.26609;5.95623;-3826.033;-2420.131;0.05354277;-0.1624315;0;
-29565.11;-21320.07;1755.702;-30582.43;-5.459746;6.486109;-29002.55;-15471.62;0.3133583;-0.03233357;0;
-22687.36;-14901.5;-70.27061;-23995.96;-5.72268;7.551197;-22102.45;-10154.16;0.3780108;0.09763362;0;
-27323.98;-19344.91;-2371.387;-28445.35;-0.4920169;-0.427116;-26651.59;-13345.74;0.2476963;-0.03239919;0;
-23275.44;-16610.47;-3566.199;-24688.52;6.474702;-7.727705;-22631.11;-12306.1;0.3773821;-0.09733398;0;
11792.32;9726.229;-3159.85;11395.65;2.516082;-2.42841;11733.15;6760.175;-0.01280115;-0.03226883;0;
25976.55;17881.93;-2204.2;27360.67;7.067905;-1.354243;25430.23;13099.46;0.05217906;-0.1621711;0;
22137.4;14853.32;-416.9141;23590.82;-3.053254;-1.017968;21613.2;10721.19;0.1820613;-0.09704079;0;
24147.18;16638.64;2036.99;25527.9;-12.29359;1.729355;23620.62;12344.83;-0.01302365;0.03299139;0;
23413.3;16448.95;3248.271;24713.5;-4.980216;0.4549421;22887.88;11959.53;0.3118261;0.0979256;0;
-3672.557;-2652.39;2870.883;-3493.896;-5.176283;1.660178;-3710.496;-2375.644;0.6363495;-0.2270095;0;
-29355.86;-21133.82;1768.02;-30378.11;-4.233077;1.524544;-28795.36;-15351.62;0.3108734;-0.09684674;0;
-22762.87;-14953.08;-72.9572;-24055.24;-0.1429864;-0.8213907;-22172.44;-10327.06;0.1806264;0.09815262;0;
-27812.49;-19838.07;-2378.225;-28910.6;-7.109068;7.686023;-27147.45;-13921.48;0.1154775;-0.4216847;0;
-23333.44;-16640.81;-3571.547;-24760.92;-10.45083;15.4482;-22699.68;-12396.33;-0.2094752;-0.5511957;0;
11882.47;9863.749;-3168.877;11482.7;-8.765387;9.404334;11818.79;6864.154;-0.4041668;0.03406419;0;
25829.85;17735.11;-2216.421;27219.94;-13.04349;8.323157;25280.55;12962;-0.07892394;0.1639647;0;
22115.36;14829.79;-428.7785;23563.52;-3.988051;9.788419;21589.12;10693.78;0.05109004;0.3587019;0;
24108.2;16596.99;2025.388;25490.85;2.245247;7.434181;23578.27;12316.7;-0.2088307;0.3583415;0;
23425.88;16475.87;3253.828;24717.17;-3.383087;13.38807;22896.49;11957.9;-0.6633922;-0.486594;0;
-3662.66;-2577.4;2891.489;-3487.545;-1.169861;15.65204;-3689.57;-2308.805;-0.4678236;-0.3561704;0;
-29242.29;-20997.94;1809.751;-30283.98;-10.61316;16.44011;-28677.74;-15268.52;-0.1425168;0.2938609;0;
-21741.01;-13930.56;24.95354;-23113.37;-16.96551;19.57166;-21180.3;-9615.087;-0.402243;0.09866362;0;
-26543.57;-18543.89;-2258.393;-27688.77;-15.67566;14.46142;-25908.32;-12777.92;-0.2719041;0.1635318;0;
-22894.22;-16250.3;-3466.656;-24312.05;-17.60229;13.37516;-22274.88;-11866.74;-0.0767289;0.2933022;0;
12062.31;9973.818;-3062.873;11667.82;-15.77594;7.668291;11988.7;7011.278;-0.2715538;0.0331381;0;
26045.53;17951.53;-2124.032;27437.38;-18.10462;-0.04220762;25493.07;13157.2;0.1185231;-0.03186254;0;
22148.3;14869.6;-348.9449;23591.35;-5.226679;6.388074;21619.31;10743.24;0.6381427;-0.09679787;0;
24142.66;16617.63;2111.856;25524.15;5.563191;9.060851;23610.52;12326.87;0.05279544;0.1631688;0;
23254.94;16345.98;3330.808;24528.41;4.017359;5.099875;22726.41;11843.41;-0.01222495;0.2279722;0;
-3862.898;-2688.071;2961.645;-3745.237;9.103538;4.023024;-3899.519;-2428.414;0.3775914;-0.2270283;0;
-29194.25;-20914.38;1879.087;-30244.57;6.950936;5.090709;-28636.98;-15222.82;-0.2074941;-0.2917675;0;
-22183.79;-14379.26;72.73089;-23488.49;5.269013;5.219559;-21599.21;-9932.021;-0.4021876;-0.09657234;0;
-27042.68;-19038.39;-2208.446;-28161.95;7.474521;6.286042;-26384.22;-13222.21;0.1179552;0.2933288;0;
-22535.61;-15892.13;-3409.184;-23984.63;6.596354;7.552279;-21924.01;-11830.38;0.2477714;0.3580014;0;
12347.14;10243.04;-3041.801;11943.65;6.85717;5.468342;12265.53;7061.669;0.05262039;-0.1620971;0;
25888.94;17783.86;-2112.007;27287.14;7.720936;3.453359;25339.61;13026.63;-0.1423345;-0.2269016;0;
22074.47;14800.12;-324.0329;23523.59;3.292549;5.727309;21547.53;10677.77;-0.1421915;0.2280978;0;
24023.88;16499.78;2119.158;25408.6;-0.4618038;9.271527;23495.47;12190.19;-0.01211393;0.292836;0;
23081.23;16179.93;3329.888;24377.45;2.016907;1.224504;22559.77;11710.76;0.3777023;-0.227197;0;
-4295.729;-3112.185;2961.226;-4128.991;1.010502;-4.537137;-4327.239;-2733.755;0.6371921;-0.09703404;0;
-29814.32;-21550.74;1877.481;-30859.73;3.152941;-0.4467413;-29260.9;-15756.13;0.2467478;0.3578349;0;
-22158.6;-14359.19;87.52484;-23492.21;4.355221;-2.321815;-21585.05;-9980.509;-0.2082715;0.03263859;0;
-26786.25;-18773.63;-2197.009;-27904.29;4.149775;2.637133;-26127;-12953.29;-0.1430949;-0.03236155;0;
-22878.3;-16260.32;-3409.534;-24302.26;7.762927;6.452511;-22248.58;-11847;-0.07798374;0.03263831;0;
12092.39;9965.222;-3021.958;11700.48;-0.6176177;3.632744;12021.19;7052.098;-0.4027421;-0.09732917;0;
26026.56;17927.08;-2092.98;27416.82;-5.238698;5.906514;25474.97;13125.11;-0.2074354;-0.03226403;0;
22062.71;14787.62;-323.5469;23507.38;-4.563848;-0.9985413;21538.27;10667.64;0.3125118;0.03273573;0;
24092.31;16567.67;2127.984;25470.11;-8.242958;-5.150358;23562.51;12266.34;0.1172957;0.2276049;0;
23201.83;16299.07;3337.237;24482.59;-3.746697;-5.948978;22680.47;11827.14;-0.01275681;0.3573109;0;
-4382.751;-3191.097;2955.48;-4218.143;-4.479867;-10.02884;-4391.46;-2691.422;0.3120927;-0.09781957;0;
-29689.72;-21410.89;1869.648;-30707.96;2.557233;-6.133872;-29119.37;-15551.55;-0.07802492;-0.2926233;0;
-22285.38;-14496.99;67.58056;-23573.47;12.6697;-4.520118;-21713.53;-9992.209;-0.3378159;0.03250743;0;
-27087.26;-19077.24;-2218.744;-28205.49;-0.2711063;-4.113679;-26432.32;-13204.1;-0.01263975;0.03247477;0;
-22277.98;-15700.67;-3419.192;-23742.13;-5.896912;-3.238767;-21670.23;-11716.98;-0.1425617;-0.0325252;0;
12669.01;10454.17;-3050.596;12282.66;-5.221402;-0.3553689;12574.71;7200.81;-0.07745114;-0.1624272;0;
25892.88;17772.69;-2148.92;27300.32;-10.50744;3.462893;25339.3;13018.54;0.2474634;-0.2272313;0;
22023.6;14757.51;-396.9526;23458.53;-5.205597;-0.09055965;21498.64;10634.99;0.2472147;0.03286635;0;
24023.63;16497.95;2027.134;25407.06;-1.449322;-2.099957;23491.05;12183.96;0.3119337;-0.03213402;0;
23013.13;16093.67;3229.086;24281.22;-6.872874;-1.495;22488.23;11633.92;0.2466529;-0.09706907;0;
-4292.425;-3143.22;2870.645;-4175.881;-7.536529;-2.297293;-4311.358;-2686.854;-0.2733337;0.03296315;0;
-29481.34;-21217.72;1810.011;-30542.54;-8.399612;-4.438317;-28921.65;-15409.66;-0.3380264;-0.2269393;0;
-22031.59;-14236.17;27.46221;-23360.44;-10.601;-6.175413;-21463.42;-9865.74;-0.01285;-0.03180929;0;
-26795.81;-18774.51;-2255.543;-27932.91;-3.825193;-8.31254;-26140.34;-12941.32;0.05213025;0.3580267;0;
-22273.69;-15751.17;-3456.625;-23732.61;2.072172;-10.78256;-21667.38;-11556.4;-0.3377262;0.2277323;0;
12630.55;10326.83;-3070.328;12235.96;-0.2734582;-10.90569;12536.17;7225.449;-0.3373868;0.1625361;0;
26080.37;17953.7;-2163.26;27482.53;-1.412259;-12.23439;25527.87;13180.86;0.2476583;-0.2923986;0;
22119.75;14861.19;-425.5526;23557.58;6.894555;-10.88244;21590.23;10727.02;0.2474094;-0.4870068;0;
24033.82;16506.98;1998.188;25419.94;12.9832;-8.32615;23501.49;12222.19;0.05225878;-0.03174606;0;
23195.78;16265.82;3216.317;24468.08;10.69298;-11.93486;22667.06;11743.25;0.1821409;-0.1616489;0;
-3732.377;-2627.957;2872.507;-3622.034;10.21274;-13.53034;-3783.663;-2351.379;0.2469253;0.0334156;0;
-28736.51;-20488.65;1805.624;-29805.17;13.88715;-11.57436;-28208.82;-14821.61;0.1167425;0.2932514;0;
-21599.91;-13776.9;4.495166;-22929.88;18.62862;-12.56747;-21039.59;-9432.337;0.3764946;-0.1618147;0;
-26216.8;-18177.99;-2277.081;-27344.47;9.902363;-7.330299;-25562.26;-12414.71;0.3111489;0.228152;0;
-21321.12;-14833.11;-3482.905;-22760.99;1.92181;-2.768217;-20713.8;-10956.17;0.1809016;0.6177268;0;
12987.79;10654.11;-3119.789;12606.23;9.421968;-4.104972;12896.55;7330.215;-0.07914956;-0.2274694;0;
25942.31;17829.36;-2203.722;27351.3;9.747293;-0.3499249;25392.68;13095.64;-0.5988088;-0.6170448;0;
22159.93;14906.67;-446.7652;23606.95;11.94733;-6.043001;21631.22;10774.31;-0.4682724;-0.09668609;0;
24087.29;16553.09;1969.438;25470.67;17.82982;-12.19924;23552.29;12262.32;-0.4028345;0.2932151;0;
23060.05;16166.47;3182.786;24328.92;8.166361;-1.737885;22532.2;11656.61;-0.3374624;-0.09688357;0;
-4171.682;-2975.208;2841.258;-4045.182;3.536455;3.019527;-4206.683;-2628.55;0.3125501;-0.4216229;0;
-28988.83;-20706.12;1780.747;-30059.54;5.609982;3.016493;-28437.9;-15068.97;0.6370727;-0.2262973;0;
-21094.74;-13283.16;6.067714;-22448.91;3.929406;5.558814;-20529.91;-9215.073;0.4415306;-0.1611025;0;
-25410.4;-17348.7;-2256.77;-26567.62;6.337331;5.620211;-24764.47;-11706.96;0.1812176;-0.42081;0;
-20701.92;-14331.34;-3453.181;-22149.6;5.52668;6.217411;-20106.35;-10407.21;0.1810355;-0.5503219;0;
13322.67;10796.64;-3069.23;12972.77;11.34828;6.278146;13214.35;7463.555;0.2458209;-0.4198342;0;
26049.95;17906.56;-2153.215;27470.81;17.76723;5.602008;25492.61;13178.48;0.3755086;-0.2245103;0;
22244.83;15004.47;-396.0895;23677.9;11.72116;4.45767;21717.25;10870.04;0.4400986;-0.02938273;0;
24304.79;16773.65;2048.018;25683.48;10.37021;2.577668;23771.92;12485.76;-0.1450497;-0.02935321;0;
23556.96;16601.61;3266.377;24844.56;9.555511;1.436491;23025.83;12085.47;-0.07993659;0.1655783;0;
-3502.787;-2487.765;2904.151;-3338.731;7.670876;1.100133;-3555.797;-2233.827;0.2449804;0.03547725;0;
-28491.61;-20252.57;1830.521;-29551.2;6.39037;-3.45569;-27951.51;-14691.12;-0.1450698;-0.5492644;0;
-21345.61;-13496.89;26.80615;-22713.44;2.967698;-6.064552;-20777.39;-9504.985;-0.144924;-0.2238759;0;
-26799.88;-18772.79;-2266.818;-27943.95;5.10817;-6.393373;-26155.95;-13141.9;0.2450257;0.4909899;0;
-22215.94;-15674.16;-3449.179;-23654.17;5.370481;-7.056778;-21614.05;-11523.36;-0.08005723;0.1006925;0;
12733.53;10461.65;-3041.932;12343.36;5.164989;-5.576063;12643.71;7286.457;-0.2748788;-0.3541801;0;
25969.64;17853.29;-2111.748;27364.92;8.575075;-5.704426;25420.01;13104.64;-0.01473325;-0.09395486;0;
22286.37;15029.82;-327.3029;23725.42;1.265441;0.3966303;21759.8;10900.25;-0.01471845;-0.09386045;0;
24386.4;16858.73;2123.013;25763.88;-3.357531;4.147154;23854.67;12568.78;-0.1446383;-0.02879881;0;
23400.38;16482.85;3329.741;24689.94;-0.9422833;7.826926;22873.07;11977.57;0.1803437;0.1011648;0;
-3834.154;-2706.126;2972.604;-3684.591;-5.764108;12.90964;-3872.575;-2473.49;0.2451298;-0.2237735;0;
-28903.84;-20646.89;1890.191;-29975.47;6.097053;10.82032;-28348.08;-14971.67;-0.07995319;-0.09361401;0;
-21706.77;-13898.51;66.08307;-23052.97;17.94727;13.15373;-21128.15;-9546.272;-0.01490551;-0.2234546;0;
-26855.46;-18833.27;-2227.206;-28002.03;5.335959;6.844362;-26194.75;-13014.62;-0.2097926;-0.5480668;0;
-22146.81;-15597.14;-3400.143;-23581.02;2.584907;0.8761255;-21522.55;-11444.15;-0.3395164;0.03718996;0;
12787.78;10532.64;-2983.043;12450.36;1.845376;5.095048;12703.23;7382.592;0.1805634;0.491924;0;
26068.05;17948.5;-2042.361;27473.7;-3.581486;5.156911;25510.75;13183.93;0.3103167;0.166593;0;
22228.95;14965.41;-255.3;23652.79;3.72313;5.017764;21704.77;10842.08;-0.01483182;-0.1584111;0;
24171.03;16647.5;2191.352;25556.03;4.79014;3.405132;23639.35;12368.28;-0.07978426;-0.2232193;0;
23267.54;16327.91;3390.359;24521.25;7.063478;8.760222;22747.25;11814.31;0.1151979;-0.2879623;0;
-3801.882;-2692.274;3015.951;-3688.632;10.20421;13.03821;-3803.83;-2323.994;0.05011484;-0.09277096;0;
-28551.95;-20284.63;1925.124;-29623.57;6.711335;10.61384;-27974.78;-14659.57;-0.0798702;0.03725694;0;
-21017.41;-13187.24;104.2285;-22381.11;8.914418;12.14378;-20445.5;-9183.909;-0.274692;-0.02774784;0;
-26060.21;-18023.49;-2194.408;-27225.58;-0.06951964;7.174845;-25406.75;-12397.69;-0.1444813;0.1022147;0;
-21399.18;-14944.83;-3367.316;-22856.81;-4.155287;3.282748;-20793.95;-10989.4;0.5053373;-0.287692;0;
13179.79;10801.33;-2947.376;12823.94;-7.50099;2.877552;13079.79;7461.593;0.5697969;-0.09250093;0;
26014.31;17890.85;-2017.162;27434.01;-14.99457;-0.1394498;25459.73;13158.23;0.04948563;0.6222328;0;
22248.41;14994.6;-231.5316;23673.59;-4.73172;-0.4742244;21722.64;10872.93;-0.1454661;0.03690148;0;
24384.92;16858.61;2218.782;25765.16;-3.186724;-2.416253;23852.32;12566.15;-0.2102873;0.1018318;0;
23360.45;16433.21;3402.238;24630.73;7.601096;-1.61003;22836.9;11926.98;-0.08014132;0.2966315;0;
-3621.796;-2500.617;3016.105;-3495.139;19.85097;1.070905;-3649.23;-2170.38;0.2447759;0.03646402;0;
-28187.57;-19926.14;1912.316;-29253.43;13.33331;-5.561359;-27632.85;-14311.11;0.1795626;0.1663621;0;
-20810.66;-12989.91;62.88523;-22175.65;15.66444;-9.641608;-20235.27;-8957.384;0.04944751;-0.1586418;0;
-25950.6;-17883.29;-2252.733;-27110.33;9.553131;-8.024451;-25288.56;-12242.12;0.1793325;-0.09351506;0;
-21175.02;-14835.16;-3426.737;-22604.92;2.042419;-11.29843;-20568.7;-10882.15;-0.1456844;0.1664483;0;
13365.42;10786.44;-2993.338;13023.11;5.188199;-4.722872;13264;7468.143;-0.6652768;-0.1585557;0;
26095;17950.24;-2039.808;27511.88;3.106881;2.448803;25538.53;13226.72;-0.3397716;0.03650566;0;
22245.81;15014.64;-236.6329;23677.37;-0.3798414;-6.931024;21715.58;10886.7;0.0503739;-0.02849836;0;
24310.87;16768.76;2225.211;25690.83;-2.254494;-9.469289;23774.19;12490.74;-0.01464406;-0.1584044;0;
23318.96;16420.61;3398.697;24596.43;-7.744585;-10.86642;22791.8;11900.48;-0.01462935;0.03665678;0;
-3846.247;-2670.54;2983.208;-3697.559;-12.69427;-15.8791;-3882.03;-2408.834;0.11532;-0.0283474;0;
-28456.6;-20185.02;1884.917;-29544.65;-11.94458;-9.365917;-27907.29;-14626.83;-0.1446652;0.1016158;0;
-20816.26;-13007.37;60.00186;-22233.53;-12.33375;-7.34714;-20245.85;-8927.166;-0.01458516;0.2314484;0;
-25644.25;-17574.18;-2241.558;-26833.29;-14.5995;-6.067082;-24989.09;-11932.68;0.1803315;0.03631376;0;
-20435.48;-14222.81;-3402.393;-21883.5;-16.2588;-1.975149;-19833.41;-10498.28;-0.1446864;0.1012446;0;
13901.48;11171.85;-2988.509;13559.14;-13.89794;-7.130728;13795.74;7691.739;-0.144541;0.2310776;0;
26150.58;18007.17;-2055.223;27573.79;-9.932834;-9.467844;25594.58;13308.7;0.05050626;0.2308454;0;
22392.57;15173.04;-250.0332;23818.97;-15.75;-9.257381;21865.72;11037.79;-0.01451183;-0.02925594;0;
24403.16;16854.13;2197.363;25791.08;-20.69067;-11.5255;23869.34;12578.73;-0.1444319;0.0357408;0;
23248.46;16354.18;3377.623;24525.95;-11.62755;-10.04029;22719.33;11814.89;-0.07931947;0.5554436;0;
-3506.607;-2350.795;2994.42;-3386.429;-5.252853;-9.159428;-3554.35;-2172.44;0.1806296;0.2300488;0;
-28088.52;-19820.88;1886.81;-29181.95;-10.33779;-11.42764;-27547.45;-14282.15;0.05051342;-0.3548884;0;
-21003.94;-13198.33;41.62233;-22393.8;-13.81003;-11.08125;-20436.16;-9126.105;-0.07947202;-0.2895645;0;
-25631.95;-17565.62;-2246.082;-26816.77;-5.759175;-14.68707;-24983.22;-11956.48;0.1155099;-0.09437151;0;
-20244.88;-13969.14;-3402.212;-21705.79;0.2748319;-20.43272;-19647.63;-10218.96;-0.2744102;0.1006254;0;
13785.17;11106.81;-2990.873;13439.76;-4.74831;-11.03482;13677.57;7659.721;-0.3391019;0.1005242;0;
26094.95;17940.46;-2053.369;27517.9;-4.275024;-4.258582;25536.74;13241.54;-0.07889178;0.03545588;0;
22260.83;15045.83;-259.2377;23687.87;-7.888052;-10.88549;21733.46;10922.94;-0.2087472;0.1003876;0;
24235.38;16679.12;2184.076;25618.69;-13.90835;-12.95102;23698.63;12393.4;-0.2085374;-0.22455;0;
23153.47;16287.63;3364.162;24424.85;-4.047757;-11.53137;22625.56;11786.94;0.05154147;-0.2892917;0;
-4017.135;-2782.365;2971.259;-3890.517;1.850808;-12.12263;-4052.199;-2471.691;0.1814244;-0.02913165;0;
-28535.37;-20235.37;1875.073;-29614.94;0.3077311;-12.44536;-27988.19;-14640.71;0.1162747;0.1008323;0;
-20890.3;-13070.18;47.16911;-22270.77;4.259537;-13.10256;-20324.93;-9031.925;0.4409946;0.4905351;0;
-25859.7;-17800.07;-2239.604;-27035.78;1.040076;-13.02242;-25217.46;-12126.9;0.5704862;0.5550095;0;
-21055.39;-14696.94;-3399.098;-22517.67;-4.788118;-10.66505;-20464.17;-10713.06;0.05017421;0.1646478;0;
13270.32;10765.12;-2995.243;12905.52;8.545931;-16.14681;13168.82;7454.657;0.1150911;0.2294497;0;
25945.45;17824.87;-2062.357;27357.19;15.57092;-19.68056;25389.07;13095.23;0.3098775;0.3591538;0;
22160.86;14924.47;-268.4666;23590.36;11.73688;-15.57495;21631.29;10807.19;-0.2751399;0.03395621;0;
24350.78;16809.44;2168.141;25732.93;13.6011;-15.9612;23811.9;12514.2;-0.5347328;-0.2909146;0;
23281.95;16396;3349.586;24556.45;6.08534;-8.979057;22757.99;11911.92;0.05051055;0.0342144;0;
-4152.218;-2957.627;2976.313;-4007.849;1.189106;-3.477556;-4159.747;-2571.429;0.4402638;0.09914738;0;
-28819.29;-20527.82;1897.426;-29898.18;-2.830577;-2.938199;-28263.62;-14789.11;-0.1448846;-0.1608216;0;
-21627.33;-13817.17;85.42881;-23028.81;-7.650504;0.4137784;-21082.82;-9555.403;-0.07977168;-0.09569269;0;
-27208.66;-19178.21;-2188.452;-28388.7;-10.59055;-0.5243984;-26568.1;-13363.27;0.3750799;0.1642728;0;
-22240.59;-15750.62;-3352.354;-23710.01;-15.8712;0.2799237;-21636.63;-11593.12;-0.4698725;0.2290751;0;
12844.56;10517.82;-2944.595;12459.35;-11.03248;-1.662863;12747.19;7354.214;-0.5343677;0.3587796;0;
25964.35;17850.6;-2002.546;27372.26;-8.945289;-3.335643;25407.33;13094.68;-0.01409201;0.4883538;0;
22134.31;14883.25;-212.5262;23564.17;-7.32871;-3.667206;21603.1;10766.66;0.1808242;0.2929611;0;
24243.36;16710.71;2229.335;25622.73;-4.507331;-5.739992;23703.91;12424.14;0.3105772;-0.09713735;0;
23191.23;16309.68;3419.808;24460.28;-2.359348;-3.858702;22666.4;11818.15;-0.274441;-0.09703974;0;
-4292.344;-3063.073;3037.562;-4167.69;3.201752;-4.65862;-4309.799;-2632.503;-0.4040999;0.2928618;0;
-28875.47;-20585.04;1951.398;-29958.29;-3.49927;-0.6350855;-28326.18;-14885.76;-0.2737592;-0.03226916;0;
-21397;-13598.57;142.4395;-22781.53;-8.184804;3.652338;-20843.98;-9426.633;-0.7282555;-0.3570735;0;
-26707.41;-18659.04;-2133.122;-27879.34;-3.822323;0.3666268;-26060.29;-12899.44;-0.1428177;0.1630241;0;
-21598.22;-15201.6;-3287.57;-23041.37;-3.952204;1.036088;-21000.4;-11158.3;0.1171952;0.09789294;0;
13251.22;10763.1;-2870.865;12898.33;-2.810133;-1.979185;13147.16;7522.275;-0.532596;0.09779458;0;
26000.4;17859.21;-1933.075;27410.17;-0.6638556;-6.464931;25447.87;13124.07;-0.3371588;0.422533;0;
22124.65;14895;-143.0001;23554.14;-3.744648;-1.635786;21597.39;10780.07;-0.2068853;-0.1625976;0;
24156.34;16607.48;2284.392;25539.64;-5.213777;-0.5624154;23620.22;12318.52;-0.4015795;-0.03249957;0;
22946.29;16102.77;3462.847;24219.27;-3.869368;-1.901509;22419.16;11625.94;-0.07633925;0.2923698;0;
-4425.977;-3124.081;3095.27;-4294.436;-3.86548;-1.832615;-4464.146;-2707.482;0.4434762;-0.1626954;0;
-28960.34;-20660.53;2013.264;-30038.93;-3.192011;-3.572208;-28415.2;-14977.08;0.4430306;-0.2274992;0;
-21479.64;-13689.09;198.9334;-22851.78;-3.99211;-2.028133;-20913.42;-9441.365;-0.01218597;0.1625334;0;
-26474.81;-18410.88;-2071.594;-27634.95;-0.7729183;-9.193026;-25828.78;-12636.88;0.1827283;0.4222395;0;
-21186.7;-14849.16;-3233.849;-22638.3;2.443039;-14.60928;-20588.87;-10989.16;0.3774467;0.4218152;0;
13423.01;10860.37;-2834.939;13063.31;-1.377809;-11.71446;13321.36;7511.481;0.05223075;0.2914567;0;
25961.89;17823.41;-1904.338;27370.28;-1.442797;-14.51585;25403.99;13107.59;-0.2076911;0.1612291;0;
22045.2;14823.11;-124.0062;23465.85;-4.857599;-7.267352;21516.25;10705.52;-0.07754773;0.03113244;0;
24139.12;16585.59;2307.271;25525.04;-8.47004;-1.566623;23603.61;12294.76;-0.1424371;0.09606851;0;
22999.22;16181.07;3504.756;24241.57;-6.117005;-3.507432;22474.7;11696.39;-0.3371961;0.03100462;0;
-4528.639;-3169.002;3133.388;-4460.14;-7.249935;0.04606619;-4552.947;-2707.382;0.1828815;0.03097347;0;
-28834.29;-20508.93;2060.652;-29944.96;-2.754671;-4.776629;-28281.66;-14825.74;0.4425671;0.3557791;0;
-20899.25;-13109.98;269.9809;-22300.99;2.070868;-7.384164;-20339.06;-9050.115;-0.207551;0.3554216;0;
-26271.04;-18191.5;-2014.83;-27461.26;0.7296162;-5.769154;-25619.61;-12465.77;-0.3372771;0.4849991;0;
-21341.62;-15074.86;-3185.778;-22792.62;3.675644;-7.036033;-20736.77;-11005.91;-0.2719709;0.6144465;0;
13485.61;10813.77;-2776.594;13138.75;1.595846;-4.282663;13377.55;7586.842;-0.4016323;0.2889924;0;
26055.58;17906.68;-1857.108;27473.61;-3.965463;-3.206633;25494.78;13174.5;0.11851;-0.1011021;0;
22115.34;14903.89;-80.634;23537.22;8.899244;-1.796891;21588.6;10781.47;-0.07651111;-0.1659678;0;
24282.53;16724.96;2351.724;25660.45;15.99025;-1.259222;23746.4;12448.13;-0.6611403;-0.165801;0;
23054.89;16214.78;3528.956;24325.51;15.10353;1.622309;22528.53;11723.41;0.1840995;-0.1006671;0;
-4328.35;-3045.796;3153.628;-4210.588;25.46985;5.706516;-4356.165;-2639.653;0.3788165;-0.03559862;0;
-28417.98;-20098.04;2081.872;-29517.26;10.10529;0.007354944;-27871.75;-14513.67;-0.4011723;-0.2304649;0;
-20851.28;-13028.81;278.1228;-22231.53;3.732122;-2.671848;-20296.96;-9010.159;-0.1408998;-0.4901026;0;
-26306.79;-18243.76;-1993.484;-27468.16;9.355427;-4.544685;-25664.26;-12580.67;0.2490458;-0.3596755;0;
-21136.06;-14679.2;-3164.204;-22611.8;2.246079;-9.42975;-20540.74;-10892.21;-0.01107377;-0.6191835;0;
13371.46;10961.84;-2783.933;12991.15;26.08828;-6.808063;13263.22;7523.592;-0.3358994;-0.6835287;0;
25805.89;17674.86;-1854.882;27222.51;32.96192;-6.06441;25247.98;12976.82;-0.01072513;-0.03316845;0;
22036.92;14806.33;-58.85767;23460.02;56.0373;-10.14415;21509.37;10690.7;0.3790897;-0.09810246;0;
24170.36;16621.48;2368.388;25549.81;89.53835;-11.27267;23631.96;12328.83;0.05387208;-0.03303654;0;
22950.33;16137.7;3551.162;24196.91;54.68558;-14.54339;22433.84;11658.64;-0.2710188;0.03196399;0;
-4530.519;-3143.938;3183.496;-4457.9;43.31015;-18.21271;-4535.423;-2754.948;-0.07584441;-0.2929048;0;
-28811.99;-20475.8;2110.585;-29912.22;39.18079;-15.71616;-28241.46;-14776.32;-0.2057029;0.09719355;0;
-21138.14;-13334.24;305.0579;-22520.83;19.2481;-14.49468;-20563.15;-9129.885;-0.5953003;-0.09780616;0;
-26619.68;-18545.28;-1985.785;-27795.02;35.30466;-16.28865;-25966.7;-12767.05;-0.3998001;-0.3575772;0;
-21605.44;-15258.59;-3154.232;-23066.69;36.67571;-16.6072;-20993.91;-11208.01;-0.2694637;0.2274881;0;
13241.96;10705.52;-2737.989;12865.08;33.15526;-16.05465;13152.64;7492.166;-0.2042256;0.4221616;0;
25922.54;17790.83;-1805.362;27334.26;35.53382;-15.70361;25366.47;13060.1;0.1857837;0.5516721;0;
21979.77;14760.91;-4.702031;23410.18;22.36995;-14.41515;21450.64;10643.48;0.185597;0.1613137;0;
24136.04;16571.83;2447.57;25518.29;11.96499;-12.32432;23598.61;12293.33;-0.009491489;-0.3585871;0;
22906.33;16135.61;3619.645;24149.55;13.69428;-13.18259;22387.52;11643.64;-0.07444929;-0.03339012;0;
-4837.188;-3380.163;3233.638;-4771.671;18.1685;-12.70046;-4847.077;-2912.576;0.2504622;0.2265128;0;
-28955.64;-20598.36;2150.775;-30063.13;-6.766917;-10.94627;-28402.63;-14954.91;0.3801453;0.4211873;0;
-21064.95;-13283.11;325.187;-22440.05;-22.63495;-10.60036;-20514.03;-9267.232;0.1848612;0.2908294;0;
-26650.12;-18582.13;-1954.713;-27822.47;-21.6742;-5.298174;-26011.26;-12894.8;0.2496428;-0.09926695;0;
-21444.88;-15070.76;-3097.408;-22892.03;-32.97193;-0.5371839;-20857.05;-11147.49;0.1844247;-0.0991672;0;
13335.88;10808.7;-2693.481;12997.07;-14.51935;-0.9385418;13218.96;7471.59;0.119272;0.2257692;0;
25639.21;17490.41;-1775.079;27064.21;0.0299289;-1.071565;25076.51;12773.35;0.5089562;0.160575;0;
21752.92;14530.19;23.08311;23183.58;-6.132043;4.62294;21223.67;10424.67;0.3785101;-0.09945576;0;
23992.82;16442.45;2459.21;25375.42;-1.906323;9.039045;23454.86;12145.33;-0.2715436;-0.03438848;0;
22733.71;15910;3628.369;24002.23;0.7085372;6.551717;22207.61;11462.12;-0.4661728;0.03061341;0;
-4712.963;-3366.647;3257.689;-4593.777;1.779552;6.746082;-4737.643;-2829.36;0.05403434;-0.09935203;0;
-28636.43;-20311.25;2176.676;-29728.49;7.336493;5.533611;-28083.85;-14623.81;0.1189474;-0.03428486;0;
-20826.98;-13027.8;345.5334;-22213.9;10.94644;3.987443;-20269.18;-8925;-0.4009109;0.09568429;0;
-26337.77;-18272.33;-1939.228;-27513.97;8.457198;4.854215;-25695.75;-12493.17;-0.3355407;-0.09931389;0;
-21295.54;-14964.83;-3081.532;-22738.88;9.386705;4.782354;-20695.96;-10939.78;0.1195679;0.03072058;0;
13345.22;10760.14;-2658.663;13003.8;2.946913;4.643583;13241.1;7524.839;0.1194477;0.6153958;0;
25885.25;17735.66;-1725.334;27296.3;-2.950547;3.299259;25324.9;13019.92;0.184295;0.2249734;0;
22021.81;14808.32;76.05749;23441.74;-0.6030573;6.377159;21492.63;10684.6;-0.07575951;-0.2949914;0;
24185.02;16620.2;2515.411;25563.79;-3.349118;6.638682;23648.06;12348.66;-0.5954221;-0.294695;0;
22945.34;16162.11;3669.521;24210.07;1.275948;9.37819;22421.38;11672.54;-0.2050198;-0.2943989;0;
-4581.715;-3140.219;3259.663;-4494.543;4.021332;13.65555;-4606.687;-2750.555;0.1200229;-0.09920105;0;
-28727.57;-20379.54;2149.382;-29847.5;3.883569;6.273953;-28173.72;-14714.28;-0.3348691;0.160768;0;
-21161.83;-13379.29;305.429;-22533.26;6.223216;4.459109;-20596.15;-9144.736;-0.2045979;-0.2291976;0;
-26542.68;-18465.81;-1991.599;-27722.53;4.27458;-1.707679;-25906.02;-12724.07;0.1854117;-0.4888366;0;
-20980.34;-14718.4;-3134.725;-22447.97;5.275639;-9.877637;-20402.32;-10941.5;0.1202581;-0.1635088;0;
13726.42;11058.52;-2710.458;13390.1;1.451944;-4.30825;13608.65;7665.517;-0.2046995;-0.09837713;0;
25959.23;17809.37;-1768.301;27375.67;-1.09511;-4.169955;25396.75;13111.98;-0.07455909;-0.03331094;0;
22164.11;14952.54;57.9961;23580.45;-0.3570752;-3.094038;21633.2;10838.78;-0.07448418;0.2265919;0;
24362.88;16800.61;2503.552;25739.83;-1.829609;0.325078;23824.46;12507.92;-0.3342787;0.03146219;0;
22968.29;16158.73;3646.836;24239.6;1.654854;-3.62712;22441.61;11702.49;-0.2689755;0.09639794;0;
-4716.81;-3349.97;3221.259;-4593.125;2.256404;-5.56598;-4746.968;-2916.162;0.0561315;0.3561704;0;
-29042.43;-20717.5;2089.089;-30133.62;5.736761;-1.541533;-28498.99;-15009.92;-0.008892241;-0.09895885;0;
-21529.64;-13755.11;245.6344;-22896.26;5.127784;2.746801;-20975.48;-9469.284;-0.3986874;-0.4236961;0;
-27092.43;-19035.98;-2039.589;-28263.44;12.35728;-2.815298;-26452.3;-13191.83;-0.3982868;-0.2933357;0;
-21662.22;-15340.21;-3181.48;-23126.03;22.86106;-6.630497;-21074.78;-11323.99;-0.07304984;-0.293041;0;
13414.16;10808.26;-2752.169;13074.2;5.623107;-1.265322;13298.44;7570.691;-0.2678785;-0.1628118;0;
25947.48;17794.24;-1815.092;27363.7;0.3261718;-0.1253403;25386.12;13068.75;-0.2676093;-0.3575503;0;
22045.33;14835.59;1.819057;23463.88;-8.046901;2.955878;21516.49;10722.59;0.0574963;-0.4221583;0;
24307.86;16738.3;2458.051;25682.74;-20.56377;6.569987;23768.01;12461.56;-0.007528814;0.03303725;0;
22968.25;16207.5;3600.444;24237.37;-11.4344;5.022778;22441.15;11723.84;-0.07248859;0.0979714;0;
-4815.986;-3329.016;3163.887;-4694.924;-13.70009;4.950748;-4849.306;-2957.25;0.3173883;0.09787297;0;
-28898.37;-20550.95;2037.991;-30010.54;-2.566914;5.816552;-28366.13;-14926.26;0.1871347;0.2277093;0;
-21383.91;-13616.9;187.7161;-22775.51;7.281302;6.614502;-20831.04;-9311.016;-0.2028574;0.03257846;0;
-26870.49;-18787.1;-2098.261;-28053.74;5.867467;4.129488;-26229.82;-12979.14;0.05721581;0.1624804;0;
-20883.82;-14662.5;-3212.404;-22360.88;14.63646;1.84804;-20305.83;-10958.39;-0.1377437;0.1623172;0;
13901.47;11168.97;-2756.747;13553.98;1.493584;2.917788;13785.96;7741.338;-0.5923767;-0.03274797;0;
25918.02;17760.12;-1791.524;27337.18;-9.292535;3.115805;25359.75;13075.53;0.1878266;0.03225227;0;
22177.47;14976.01;33.14139;23596.12;-0.240868;1.572189;21644.61;10849.19;0.1876379;-0.2926168;0;
24379.49;16807.39;2465.729;25756.03;1.970177;0.1639678;23840.74;12540.22;-0.462224;-0.2273555;0;
22901.5;16132.24;3607.864;24178.09;-5.400169;2.039325;22369.45;11631.88;0.3178485;0.162677;0;
-4654.511;-3197.574;3209.156;-4526.756;-10.55231;2.640122;-4697.679;-2831.295;0.1226271;0.2274809;0;
-28321.98;-19982.06;2124.693;-29444.07;-7.259174;3.910023;-27791.74;-14478.39;-0.3972349;0.4221544;0;
-20269.82;-12500.61;310.3445;-21697.43;-4.0367;6.31748;-19727.53;-8641.488;0.5127071;0.3567629;0;
-25838.05;-17736.97;-1961.794;-27041.97;-9.994491;3.765781;-25202.11;-12123.66;0.5121919;0.291437;0;
-20649.64;-14413.55;-3107.23;-22098.12;-14.60615;2.69027;-20065.84;-10555.98;-0.3328982;0.3561115;0;
13851.23;11106.04;-2684.897;13540.37;-7.223105;3.491362;13727.84;7715.074;-0.5274657;0.1608517;0;
25995.36;17834.02;-1726.898;27423.36;-5.273465;3.018973;25433.44;13136.3;-0.3320337;-0.1641467;0;
22131.87;14932.14;94.70329;23551.86;-0.8475363;4.087667;21603.41;10820.68;0.1880387;-0.2289491;0;
24361.75;16798.57;2535.381;25743.6;6.789125;5.155286;23824.51;12522.32;0.1228824;-0.033817;0;
23060.74;16262.61;3691.158;24314.62;-1.656814;3.475533;22531.8;11772.54;-0.2670451;-0.1637177;0;
-4465.762;-3080.034;3283.402;-4391.157;-5.205122;1.194743;-4509.367;-2688.023;0.1879946;-0.2285205;0;
-28199.94;-19875.7;2177.532;-29349.23;-4.998821;4.408601;-27677.02;-14355.42;0.447675;-0.09835624;0;
-20682.55;-12905.52;342.7651;-22092.5;-10.01764;5.207967;-20154.13;-8973.183;0.1873559;0.2265793;0;
-26715.13;-18638.13;-1934.06;-27907.69;-5.184803;4.800836;-26099.38;-12969.17;0.05723292;0.3562863;0;
-21008.27;-14798.95;-3060.674;-22483.85;-3.103489;7.944088;-20446.11;-11025.2;0.05717541;0.2259936;0;
13902.21;11143.67;-2633.937;13565.71;-7.453651;-0.9723801;13768.06;7702.203;0.1220853;0.1607992;0;
25921.3;17761.88;-1684.579;27344.28;-7.111369;-7.133711;25358.61;13080.08;0.05699529;0.03070296;0;
22124.13;14926.38;129.7653;23535.7;-13.13244;-5.050072;21595.23;10806.19;-0.137964;-0.1642299;0;
24390.86;16822.11;2548.794;25768.06;-17.00499;-7.590227;23853.38;12559.83;-0.3976947;-0.03413022;0;
23015.47;16238.29;3706.493;24279.78;-17.3227;-3.831678;22485.29;11723.67;-0.2023931;0.09583878;0;
-4525.121;-3085.666;3322.085;-4423.157;-21.05633;-0.1438888;-4569.492;-2754.601;0.2525816;-0.1641269;0;
-28073.5;-19730.62;2228.858;-29220.06;-15.54282;-2.621991;-27546.52;-14342.41;-0.1374762;-0.09899465;0;
-20161.44;-12380.17;414.5915;-21618.04;-13.51747;-2.753322;-19618.39;-8685.166;-0.3972074;0.4858109;0;
-26038.83;-17927.07;-1862.587;-27249.61;-9.820193;0.06260575;-25407.98;-12373.53;-0.2019063;0.4853228;0;
-20561.86;-14395.83;-3010.262;-22021.69;-2.844101;0.866338;-19999.15;-10622.47;-0.3966054;0.2249658;0;
14085.74;11237.84;-2591.166;13749.97;-9.337977;4.415441;13950.73;7784.358;-0.4611743;0.1597724;0;
25994;17824.37;-1663.09;27421.55;-11.4047;8.429858;25434.2;13155.94;-0.5256782;0.2895465;0;
22156.97;14968.26;126.2452;23577.75;-9.317135;3.86667;21627.48;10850.69;-0.2003133;0.2892556;0;
24391.24;16822.07;2549.244;25775.63;-9.843637;0.3128118;23852.84;12557.66;0.1247247;-0.1008391;0;
23091.88;16291.17;3712.097;24355.12;-8.762018;2.388968;22563.32;11789.15;-0.005335335;-0.4255745;0;
-4265.462;-2897.264;3319.5;-4174.794;-10.02601;1.381824;-4304.264;-2568.358;0.05963737;-0.3601796;0;
-28017.78;-19691.1;2213.25;-29135.68;-4.791025;0.8445721;-27492.16;-14216.52;-0.3302266;0.1599211;0;
-20457.85;-12663.08;388.3486;-21853.54;1.107311;3.589902;-19926.12;-8780.347;-0.1999601;0.2247277;0;
-26150.74;-18065.17;-1881.026;-27339.94;-5.792678;-5.858055;-25520.54;-12424.16;0.1250775;-0.2952368;0;
-20592.34;-14342.33;-3023.873;-22052.04;-10.87707;-11.81353;-20019.45;-10569.49;-0.4597542;0.1598312;0;
13855.82;11139.78;-2614.914;13533.68;-3.230333;-8.988375;13723.97;7688.787;-0.3293576;0.224638;0;
25814.28;17657.41;-1689.469;27243.96;1.729406;-11.72564;25252.33;12978.55;-0.004189939;-0.1004245;0;
21994.25;14799.41;96.76917;23410.79;-5.439627;-3.676031;21466.63;10702.01;0.1257489;0.2245132;0;
24231.83;16654.44;2498.777;25611.1;-10.99289;1.820141;23695.16;12373.37;0.06065526;-0.03558179;0;
22634.75;15911.13;3650.561;23893.79;-5.89163;3.961644;22109.07;11458.89;-0.3292097;-0.3603827;0;
-5144.85;-3581.531;3288.573;-5049.399;-3.340115;10.72282;-5173.859;-3082.341;0.1258924;0.02978341;0;
-28576.91;-20199.81;2214.182;-29689.89;-8.896464;5.755428;-28046.74;-14641.63;0.4506027;0.09472085;0;
-20827.19;-13072.93;389.2172;-22202.03;-10.0266;2.534586;-20294.74;-9067.342;-0.004621502;-0.230211;0;
-26411.6;-18312.73;-1878.94;-27587.62;-15.70995;7.823447;-25777.67;-12589.02;-0.1995189;-0.3599144;0;
-20285.61;-14119.49;-3008.702;-21757.93;-22.86049;8.954296;-19719.04;-10471.62;-0.4591878;-0.2296181;0;
14203.3;11353.02;-2594.479;13877.89;-15.80492;7.739728;14063.4;7850.406;-0.4587264;0.09544935;0;
25917;17738.88;-1663.652;27346.53;-11.09999;7.932778;25356.04;13084.6;-0.1334287;0.2252881;0;
22081.79;14900.87;148.1102;23496.64;-16.71589;4.30785;21553.76;10790.27;-0.06832733;0.2250618;0;
24318.14;16735.73;2581.551;25700.21;-18.57413;2.294156;23778.78;12467.57;-0.133226;0.2248356;0;
22781.34;16050.97;3728.535;24040.9;-15.47401;0.2823629;22254.46;11592.85;-0.003157465;0.02970766;0;
-4990.182;-3441.915;3325.958;-4888.387;-15.25836;-2.464221;-5018.131;-2976.859;0.2567151;-0.1002569;0;
-28456.09;-20082.56;2224.262;-29572.92;-11.15622;-0.3182912;-27925.53;-14607.32;0.2564571;-0.1651235;0;
-20489.21;-12714.62;390.6348;-21896.08;-7.595035;1.021687;-19957.77;-8850.198;0.3861341;-0.09999022;0;
-25857.47;-17740.52;-1885.895;-27057.62;-9.329692;2.025405;-25218.45;-12075.43;0.3207788;-0.2298244;0;
-19917.9;-13808.75;-3021.397;-21378.68;-8.985524;3.831787;-19345.58;-10136.44;0.0605871;-0.2945608;0;
14231.97;11308.66;-2620.655;13926.13;-10.38302;6.373288;14090.04;7783.543;0.2554283;-0.09936284;0;
25753.94;17577.94;-1707.979;27188.87;-10.97482;8.041335;25191.24;12917.54;0.3851063;-0.03429566;0;
21918.69;14744.69;87.89802;23332.8;-13.04087;11.7843;21390.06;10652.59;-0.2649541;0.3555429;0;
24136.67;16543.92;2492.726;25522.75;-14.29959;13.58088;23593.68;12251.39;-0.849394;0.4851203;0;
22479.47;15769.27;3631.616;23722.74;-16.02751;16.84939;21955.11;11354.58;0.190937;0.09482879;0;
-5342.111;-3790.112;3257.06;-5292.458;-19.29296;22.12399;-5364.648;-3260.298;0.5805492;-0.03520119;0;
-28984.9;-20609.14;2153.215;-30094.31;-12.44205;14.1979;-28438.88;-14847.87;-0.1996422;0.2247036;0;
-21695.46;-13942.37;288.1444;-23013.16;-6.668769;10.63366;-21140.89;-9526.693;-0.264409;0.3544125;0;
-27869.44;-19796.79;-2003.743;-29026.3;-8.805522;8.9484;-27234.78;-13854.22;-0.199176;0.289089;0;
-21667.83;-15335.78;-3129.757;-23152.19;-9.131467;4.317709;-21103.53;-11484.38;-0.06904115;0.3537659;0;
13655.91;11028.41;-2692.924;13320.21;-3.629935;7.528552;13524.25;7696.949;0.2558649;0.02857368;0;
25782.15;17616.89;-1748.035;27200.81;-3.425217;6.985123;25219.67;12923.15;0.3855425;-0.4911937;0;
21919.28;14720.71;60.34451;23331.8;4.214035;9.858249;21389.18;10623.48;0.2552204;-0.2957982;0;
24195.59;16624.94;2480.911;25574.22;13.38585;12.39369;23656.17;12340.99;0.06006197;0.2242378;0;
22517.98;15793.01;3613.972;23770.03;1.718104;13.05095;21991.23;11386.09;0.319871;0.4838818;0;
-5550;-3991.77;3204.763;-5466.27;-0.293354;17.05681;-5575.334;-3352.259;-0.2001892;0.1585589;0;
-29207.92;-20838.63;2098.691;-30337.94;-9.134318;12.68578;-28676.35;-15157.16;-0.6547594;0.1583996;0;
-21389.85;-13644.33;251.4477;-22784.91;-22.45438;11.3335;-20860.02;-9478.729;0.1255066;0.4830771;0;
-26884.21;-18809.88;-2029.846;-28085.83;-9.772163;10.9872;-26256.77;-12970.46;0.06041316;-0.1670817;0;
-20773.67;-14553.03;-3139.638;-22247.53;-6.681861;7.493165;-20210.18;-10755.08;-0.589321;-0.6866525;0;
13842.05;11067.47;-2706.746;13531.26;-7.411106;13.64782;13704.09;7663.333;-0.2638921;-0.1012565;0;
25717.07;17538.94;-1770.527;27143.83;-5.796068;16.71532;25155.25;12849.77;0.3210791;0.4835513;0;
21884.41;14702.59;55.92865;23295.24;-4.652144;15.09094;21353.84;10609;0.1908218;0.3531308;0;
24209.04;16627.65;2493.366;25590.28;1.514472;14.00405;23668.55;12337.71;-0.2641413;0.2228413;0;
22613.79;15891.61;3626.228;23875.6;-10.54349;16.53533;22091.74;11476.66;0.06096082;0.2875847;0;
-5602.427;-4060.95;3221.004;-5512.565;-17.90029;20.33662;-5623.026;-3435.473;0.3857363;-0.037541;0;
-29181.94;-20806.25;2122.568;-30303.22;-16.07364;11.60865;-28630.34;-15055.69;-0.004455366;-0.167438;0;
-21651.52;-13875.75;257.4034;-23008.13;-21.48347;7.042264;-21092.24;-9599.27;0.1904511;-0.2972044;0;
-27982.66;-19907.71;-2050.664;-29143.32;-12.28583;4.422853;-27342.64;-14006.11;0.3201945;-0.4268405;0;
-21621.8;-15320.19;-3152.127;-23079.99;-2.359526;-2.614677;-21046.65;-11445.88;0.06000336;-0.2964769;0;
13767.14;11127.76;-2692.392;13459.07;-12.47121;2.67948;13639.61;7782.434;-0.00502428;-0.03630961;0;
25714.64;17555.61;-1742.288;27143.31;-16.4108;3.547566;25150.05;12858.17;-0.3298559;0.4184983;0;
21954.85;14754.53;92.22877;23367.46;-8.491053;3.477018;21421.25;10659.32;-0.2645572;0.2881431;0;
24323.89;16752.27;2524.82;25699.84;-9.152106;7.559361;23781.92;12463.86;-0.06938931;-0.03698317;0;
22586.34;15855.49;3633.037;23845.06;2.779808;-0.8208566;22055.75;11448.56;0.0606151;-0.1019133;0;
-5497.049;-3954.636;3201.914;-5418.546;13.49428;-5.441732;-5546.437;-3344.385;-0.004413146;0.09309109;0;
-29219.19;-20855.48;2089.629;-30360.86;6.447151;-3.761691;-28706.69;-15167.31;-0.1343434;0.6777036;0;
-21561.99;-13802.68;246.6108;-22922.78;8.785197;-5.432485;-21028.05;-9555.513;0.4504977;0.352186;0;
-27010.97;-18915.81;-2020.56;-28196.71;-0.4670304;-3.819436;-26389.34;-13043.34;0.3850777;-0.232874;0;
-20744.98;-14509.5;-3122.662;-22256.25;-9.241447;-2.743993;-20197.06;-10716.63;-0.135048;-0.2976074;0;
13893.82;11133.04;-2687.991;13565.76;-6.150702;-2.60727;13746.13;7747.158;-0.004977616;-0.2973083;0;
25719.14;17546.89;-1735.737;27150.87;-10.8326;-0.662145;25151.91;12846.49;0.1249621;0.1577618;0;
21873.36;14689.6;116.5147;23285.47;-5.731496;-1.264326;21339.24;10586.76;0.05986917;0.3525053;0;
24180.38;16602.63;2556.234;25558.31;-1.840971;-0.861158;23636.56;12317.23;-0.2650277;0.02731441;0;
22449.74;15739.74;3663.607;23700.66;-6.327099;1.752042;21922.19;11310.12;-0.1997941;-0.1026477;0;
-5475.429;-3894.36;3242.573;-5411.568;-6.253393;3.290767;-5510.061;-3288.503;0.3201454;0.02739011;0;
-28739.71;-20363.92;2133.715;-29899.72;-8.658983;5.765829;-28220.37;-14769.49;0.05995438;0.1572973;0;
-21231.43;-13475.83;260.1364;-22619.56;-11.79811;7.300642;-20716.84;-9378.116;-0.1350079;0.02720453;0;
-26617.29;-18529.05;-2020.26;-27829.36;-8.973221;10.10647;-26021.37;-12763.44;0.2549318;-0.1677248;0;
-19769.17;-13641.6;-3113.773;-21285.54;-7.557684;12.77551;-19240.62;-10144.85;-0.005193705;0.02734573;0;
14406.15;11525.03;-2680.361;14095.32;-10.83164;12.42788;14249.48;7930.813;-0.3949925;-0.03764909;0;
25731.95;17555.72;-1708.467;27167.05;-11.35662;13.42001;25163.96;12907.07;-0.06975894;-0.362448;0;
22031.36;14857.02;153.1896;23434.39;-14.76146;11.39716;21495.5;10748.75;0.2551479;-0.6219531;0;
24244.58;16655.79;2579.035;25624.31;-19.23461;9.309239;23697.08;12369.48;0.05998947;-0.4264262;0;
22541.88;15847.03;3687.916;23777.82;-14.79465;9.031954;22008.24;11410.73;-0.1349728;-0.101161;0;
-5336.035;-3727.202;3257.206;-5298.668;-12.70271;6.2767;-5387.268;-3193.35;-0.1348372;-0.425896;0;
-28571.38;-20182.48;2139.462;-29756.69;-15.23554;7.877862;-28079.68;-14601.95;-0.1996691;-0.4904355;0;
-20835.33;-13079.7;279.4966;-22264.82;-15.95716;9.477536;-20335.22;-9026.013;-0.1994684;-0.165106;0;
-26803.93;-18698.04;-2012.32;-28036.54;-15.47164;4.31045;-26209.4;-12892.09;0.190536;-0.09997272;0;
-20633.07;-14462.06;-3114.961;-22161.54;-14.51906;2.698528;-20120.32;-10687.3;0.3202793;-0.1648396;0;
14083.52;11236.72;-2655.53;13738.05;-17.11645;-0.3852761;13908.12;7798.293;0.2549901;0.09519541;0;
25819.7;17643.23;-1682.786;27243.1;-18.77419;-4.470726;25244.35;12954.92;0.1247992;0.3549691;0;
22003.83;14822.32;165.7574;23404.31;-19.15649;-0.7822944;21457.96;10711.82;-0.1351956;0.2896451;0;
24300.95;16722.51;2595.9;25667.72;-21.95028;-0.7815083;23746.73;12435.41;-0.1350597;0.2893541;0;
22612.18;15880.83;3715.416;23854.94;-17.03908;2.970199;22063.87;11426.24;-0.004989321;0.2890633;0;
-5240.821;-3717.677;3307.979;-5207.06;-11.39588;8.459693;-5337.912;-3230.908;0.3198524;-0.03606385;0;
-28538.62;-20169.47;2189.84;-29743.93;-18.6181;3.025697;-28102.38;-14639.14;0.2545637;-0.1659623;0;
-21067.45;-13311.22;305.3362;-22511.83;-21.54615;0.6113935;-20620.94;-9249.044;-0.3303982;-0.1008282;0;
-26858.33;-18772.13;-1983.695;-28136.1;-18.77881;4.428684;-26319.89;-13056.14;-0.3950335;-0.1656942;0;
-20274.14;-14056.95;-3076.464;-21844.32;-20.50125;7.036569;-19809.25;-10536.05;-0.06979991;-0.1005604;0;
14241.02;11440.99;-2629.658;13903.07;-14.45243;5.220959;14038.63;7867.806;0.06020491;-0.03549201;0;
25739.79;17558.9;-1658.003;27163.97;-10.95431;6.086491;25157.17;12890.06;0.06014442;0.09447835;0;
22104.11;14924.96;204.1651;23486.86;-9.604134;6.013392;21551.06;10797.95;-0.004883359;0.4192201;0;
24362.95;16784.37;2631.99;25726.71;-3.767334;4.39976;23799.08;12501.35;0.1250562;0.5487336;0;
22689.52;15966.7;3751.468;23900.94;-12.40374;12.43305;22134.58;11469.53;0.1249306;0.4832149;0;
-4953.427;-3384.278;3341.247;-4987.913;-18.41949;16.43953;-5065.87;-3011.906;0.1897724;0.417762;0;
-28162.91;-19785.16;2215.516;-29436.22;-12.90863;20.97773;-27757.79;-14396.97;-0.005320325;0.4823096;0;
-20361.77;-12603.29;352.0694;-21885.52;-12.15872;25.71232;-19956.79;-8806.508;-0.200217;0.3518902;0;
-26050.79;-17942;-1928.982;-27375.75;-12.74972;26.28933;-25551.12;-12356.45;0.3846903;-0.2981368;0;
-20032.47;-13928.26;-3045.544;-21600.4;-13.34012;28.74116;-19586.75;-10246.98;0.1244343;-0.1679025;0;
14237.89;11303.23;-2607.608;13889.65;-10.6474;25.22929;14028.97;7834.345;-0.2005274;0.2220703;0;
25770.3;17592.05;-1662.525;27175.93;-6.885656;24.06523;25178.86;12890.99;0.2544455;-0.557761;0;
21903.57;14730.37;150.017;23274.57;-10.7635;18.4146;21342.05;10612.74;0.1242551;-0.6871352;0;
24322.69;16735.1;2571.586;25670.54;-12.29293;12.63569;23748.46;12418.21;0.05916294;0.09316332;0;
22617.22;15900.97;3691.032;23809.89;-11.20885;12.68998;22049.8;11466.51;-0.2007659;-0.03686499;0;
-5568.614;-4021.685;3269.096;-5650.395;-14.27905;9.797081;-5706.913;-3408.567;-0.3954662;-0.2966973;0;
-28706.34;-20341.42;2166.739;-30039.22;-6.495167;10.18913;-28344.14;-14846.69;0.1896373;-0.1014972;0;
-20919.64;-13155.44;319.5829;-22461.53;1.61666;8.169408;-20543.55;-9228.523;0.1244794;-0.1663625;0;
-26558.36;-18454.53;-1956.407;-27935.48;-8.297951;13.31876;-26092.81;-12814.27;-0.5253191;-0.29613;0;
-19711.69;-13596.71;-3063.79;-21371.36;-12.30908;18.99881;-19330.21;-10235.14;-0.07001987;0.02900422;0;
14579.57;11674.26;-2651.167;14214.17;-10.75549;14.0231;14329.99;7995.939;0.3198545;-0.03599227;0;
25709.48;17535.51;-1715.378;27124.57;-14.09456;14.94677;25111.97;12869.05;-0.005303568;-0.0359561;0;
22036.04;14858.7;118.2681;23394.3;-8.453346;10.17609;21465.65;10718.47;0.1246364;0.2889167;0;
24439.31;16865.84;2528.25;25783.93;-5.29702;2.864846;23857.9;12544.79;0.1245112;0.02875706;0;
22813.29;16055.41;3635.996;24007.96;-5.693839;12.03839;22232.47;11588.69;-0.2004506;-0.2961085;0;
-5264.032;-3793.399;3209.836;-5345.34;-0.8653469;16.98303;-5434.801;-3370.5;0.1245875;0.3538624;0;
-28771.66;-20420.17;2079.146;-30119.23;-7.629632;11.0046;-28440.45;-14977.46;-0.005472356;0.4184742;0;
-21188.87;-13421.16;222.9888;-22758.34;-11.97525;10.12277;-20849.14;-9409.598;-0.1354015;0.1581843;0;
-26993.61;-18902.71;-2054.122;-28392.64;-7.00672;8.103107;-26574.72;-13241.73;0.1246039;0.4178948;0;
-20249.53;-14155.4;-3160.001;-21932.4;-9.411553;6.755429;-19892.43;-10601.34;-0.3302927;0.2225728;0;
14409.81;11456.82;-2725.418;14019.46;1.047729;5.609931;14153.14;7948.466;-0.4598955;0.02744716;0;
25704.79;17521.23;-1801.236;27110.94;10.08901;2.724028;25097.13;12811.91;-0.004662023;0.09238694;0;
21832.89;14672.66;12.94395;23190.62;3.9833;6.472335;21253.04;10533.66;-0.06962468;-0.29751;0;
24112.44;16509.44;2426.405;25453.73;5.385817;6.532815;23523.25;12176.83;-0.3294241;-0.3621784;0;
22323.11;15670.31;3526.413;23487.71;-0.7151637;9.406394;21737.34;11218.23;-0.1341911;-0.1019451;0;
-5957.271;-4291.533;3095.459;-6092.985;-9.488356;12.81295;-6146.197;-3762.439;0.1907805;0.02809205;0;
-29184.03;-20788.99;1974.599;-30560.64;-0.4364914;8.51329;-28890.29;-15333.84;-0.1992153;0.09303118;0;
-21191.63;-13447.53;127.1047;-22778.55;5.123652;8.102839;-20882.18;-9510.806;-0.3939171;-0.1669317;0;
-27453.79;-19364.41;-2143.413;-28870.01;-6.603143;2.401269;-27057.97;-13725.24;-0.003717252;-0.03682927;0;
-21189.02;-14925.25;-3246.657;-22869.25;-13.96487;-2.35681;-20858.38;-11293.02;-0.2635829;0.1581098;0;
13918.08;11214.08;-2812.658;13528.12;-10.93673;-3.894927;13649.72;7769.768;-0.3932527;0.09298357;0;
25668.7;17502.4;-1867.368;27071.79;-12.33226;-7.508091;25062.48;12789.31;-0.003053525;0.2228248;0;
21979.36;14785.81;-25.97887;23333.73;-11.91773;-6.495803;21398.6;10632.99;-0.0680178;0.2875683;0;
24398.69;16834.77;2394.424;25733.87;-8.556852;-5.819447;23811.67;12517.21;-0.2628515;-0.1674921;0;
22818.66;16048.99;3512.611;24005.93;-15.98299;-5.880583;22228.96;11560.94;-0.19762;-0.4921605;0;
-5010.763;-3559.3;3103.567;-5112.431;-20.25384;-4.735964;-5210.917;-3189.99;-0.06748677;-0.1018619;0;
-28577.07;-20238.71;1970.704;-29952.4;-16.34872;-2.721839;-28290.33;-14818.24;-0.3272883;0.02817511;0;
-21552.42;-13804.18;103.0053;-23146.88;-16.73444;-2.451173;-21261.4;-9790.928;-0.4568942;-0.03682054;0;
-28100.96;-20054.29;-2172.861;-29497.21;-12.43072;4.383428;-27716.94;-14350.09;-0.3265004;0.4179879;0;
-21735.42;-15435.31;-3270.171;-23398.52;-10.40849;10.34038;-21386.88;-11599.48;-0.06630294;0.3526005;0;
13650.95;10994.04;-2809.163;13250.46;-7.116482;7.31576;13396.3;7673.193;0.3235677;0.02740951;0;
25697.77;17530.35;-1851.039;27090.43;-1.147484;7.509358;25090.44;12775.09;0.2582753;0.02738196;0;
21828.02;14639.01;-23.84636;23184.88;-8.380976;5.492446;21245.96;10513.55;-0.1967556;0.09232181;0;
24218.75;16632.46;2398.491;25558.19;-10.98452;3.008559;23627.5;12297.88;0.1282788;0.2221637;0;
22389.87;15730.98;3507.835;23546.9;-11.64307;1.665877;21802.63;11287.17;0.5829213;-0.1028962;0;
-6052.594;-4356.645;3090.425;-6208.771;-13.44003;-0.2111966;-6251.9;-3722.634;0.4524009;0.0921092;0;
-29080.79;-20695.26;1997.055;-30483.81;-14.09611;-4.162856;-28808.28;-15216.36;0.1271096;0.546788;0;
-21012.07;-13280.8;163.5937;-22621.41;-17.16341;-8.579424;-20717.52;-9309.599;-0.002952826;0.3513366;0;
-26685.78;-18582.89;-2103.275;-28121.42;-11.18432;-8.035062;-26299.97;-12975.97;-0.0679172;-0.03882049;0;
-19856.48;-13733.46;-3217.07;-21571.51;-9.029624;-10.30429;-19541.52;-10426.76;-0.457653;-0.03878148;0;
14455.17;11557.99;-2800.295;14038.97;-5.269507;-8.485515;14178.1;7906.79;-0.1973238;0.1561595;0;
25525.13;17341.4;-1851.675;26925.39;-0.7098605;-5.395774;24917.92;12660.83;0.4525479;0.2859373;0;
21792.39;14622.02;-4.867053;23151.5;-2.585157;-11.41869;21210.78;10480.85;-0.06764556;0.09074796;0;
24104.66;16510.58;2412.485;25450.43;0.2314554;-12.88085;23512.98;12167.29;-0.4573816;-0.03927792;0;
22202.21;15532.59;3518.004;23363.5;-7.806729;-15.01123;21617.22;11107.61;0.322686;0.02572889;0;
-6061.963;-4394.583;3114.514;-6207.027;-14.76511;-18.47926;-6246.164;-3790.083;0.3873292;0.09067039;0;
-29302.55;-20923.19;1996.695;-30700.62;-11.46774;-14.57569;-29014.33;-15345.45;-0.1977661;0.220514;0;
-21621.29;-13898.03;114.8523;-23250.34;-11.65729;-14.49406;-21324.4;-9743.244;-0.06763271;0.1553251;0;
-27434.98;-19347.46;-2159.276;-28878.87;-14.39225;-9.79081;-27045.28;-13581.94;-0.3274341;-0.3645698;0;
-20411.41;-14334.1;-3234.799;-22108.96;-16.45389;-3.953578;-20075.62;-10762.03;-0.4570398;-0.4941381;0;
14357.07;11417.93;-2773.701;13965.91;-15.16456;-9.174152;14098.93;7935.7;-0.001809174;0.02609712;0;
25595.97;17418.43;-1819.705;27008.33;-17.96334;-11.97822;24991.61;12702.28;-0.0667747;0.1560056;0;
21715.94;14547.54;17.32641;23077.75;-9.706264;-7.478447;21139.78;10426.56;-0.3915443;-0.1040205;0;
24036.6;16438.71;2437.999;25389.68;-0.7205533;-3.920838;23450.63;12100.66;-0.1962489;0.02601866;0;
22145.6;15497.06;3537.401;23278.19;-10.63379;-10.01222;21569.21;11096.11;0.1937524;0.3508292;0;
-6157.231;-4448.413;3122.835;-6345.119;-10.9579;-13.82007;-6315.634;-3696.284;0.1285904;0.09060736;0;
-29286.28;-20893.11;2005.601;-30665.78;-16.10445;-11.66285;-28976.44;-15220.79;0.06349381;0.1554837;0;
-21572.68;-13851.26;116.284;-23150.31;-21.91542;-12.92381;-21265.77;-9658.098;0.1933647;0.3502294;0;
-27329.55;-19232.6;-2170.558;-28744.61;-18.2097;-9.829605;-26927.29;-13457.62;-0.1966337;-0.1048939;0;
-20094.15;-14058.52;-3243.259;-21793.96;-26.29573;-6.738636;-19753.47;-10585.08;-0.7811422;-0.2347232;0;
14554.65;11554.74;-2787.587;14150.45;-5.973847;-8.138506;14295.37;8003.107;-0.5204879;0.1553168;0;
25570.04;17391.41;-1831.234;26988.58;9.705918;-7.259551;24972.65;12698.09;-0.0002261648;0.220128;0;
21805.65;14647.9;36.63675;23173.99;-1.021104;-6.381478;21235.64;10522.37;0.3246108;0.1549395;0;
24159.09;16555.03;2458.726;25512.46;6.01252;-6.174117;23580.02;12230.33;0.6491213;0.2847185;0;
22074.48;15446.32;3517.878;23261.52;-12.81511;-4.694289;21500.27;11033.27;0.258665;0.2194651;0;
-6215.695;-4491.956;3075.626;-6323.498;-27.87279;-5.895265;-6385.301;-3860.456;-0.3912683;0.08930989;0;
-29163.35;-20759.09;1957.971;-30504.74;-19.94055;-1.133675;-28840;-15191.02;-0.5857772;-0.04071455;0;
-21268.09;-13534.81;79.47847;-22828.94;-28.09316;4.025028;-20917.68;-9432.439;-0.2603519;-0.2355757;0;
-27133.39;-19027.02;-2209.888;-28517.73;-11.78796;-4.15069;-26686.53;-13266.48;-0.06518825;-0.3003063;0;
-20529.76;-14345.71;-3310.239;-22178.93;0.5487419;-7.964547;-20143.63;-10698.56;-0.1300901;-0.3000045;0;
14104.55;11275.39;-2868.133;13725.99;-5.145236;-9.564013;13874.86;7850.276;-2.469663E-05;-0.03983374;0;
25669.98;17494.51;-1908.419;27081.27;3.633843;-14.1761;25080.42;12787.15;0.1948774;0.09014098;0;
21793.96;14623.09;-52.77735;23169.52;-10.10021;-12.82232;21233.88;10512.14;0.1946815;0.1550177;0;
24156.66;16565.75;2379.553;25515.81;-22.2812;-14.61786;23586.96;12248.66;0.1944859;0.154862;0;
22290;15648.28;3461.742;23444.61;-7.389333;-13.93334;21733.99;11242;0.3242252;-0.1701303;0;
-6220.168;-4488.253;3004.023;-6359.624;-5.573247;-11.97695;-6340.561;-3732.176;0.3888668;-0.1699594;0;
-29057.15;-20658.3;1877.132;-30397.01;-0.007941377;-17.4574;-28685.53;-15019.14;-0.1312627;0.02511341;0;
-21140.64;-13403.68;-1.997953;-22682.2;9.168118;-19.58319;-20760.27;-9280.084;-0.3260328;-0.03987917;0;
-27008.27;-18895.08;-2294.906;-28365.09;-2.026878;-21.70696;-26527.74;-13116.7;-0.06583589;-0.1048064;0;
-19714.39;-13693.36;-3369.278;-21340.42;-6.579192;-24.5653;-19305.28;-10260.56;-0.2606718;-0.1047011;0;
14698.05;11689.79;-2923.24;14347.11;-6.505232;-22.66521;14474.18;8100.417;-0.2604098;-0.03962858;0;
25529.71;17357.38;-1980.65;26966.71;-10.11602;-20.76692;24947.65;12694.64;-0.0002788107;0.1553133;0;
21839.24;14682.88;-122.0926;23219.39;-8.766684;-22.68856;21287.91;10566.68;0.1296562;0.2201246;0;
24205.05;16602.54;2291.192;25570.92;-8.154662;-24.00529;23644.74;12303.07;0.3244279;-0.03996601;0;
22140.07;15527.38;3363.162;23335.72;-12.16496;-18.01994;21589.24;11111.9;0.06423254;-0.03992585;0;
-6152.173;-4377.165;2932.31;-6240.674;-15.70271;-14.45174;-6265.196;-3709.105;0.06416801;0.02508161;0;
-28867.74;-20451.03;1808.459;-30171.59;-11.93686;-11.62405;-28473.19;-14892.07;0.1290709;-0.2997803;0;
-20990.4;-13251.29;-67.8225;-22485.64;-10.78579;-8.531159;-20583.25;-9240.484;-0.2608629;-0.2345117;0;
-26763.87;-18628.42;-2334.209;-28082.55;-9.301084;-6.178306;-26255.85;-12905.79;0.06423596;-0.3642108;0;
-19450.67;-13480.1;-3410.493;-21047.45;-4.938457;-1.885313;-19016.12;-10068.83;0.1941061;-0.2988775;0;
14855.41;11753.23;-2966.678;14533.31;-10.6933;-6.907016;14643.77;8137.901;-0.3258277;0.2211616;0;
25613.37;17427.82;-2002.993;27052.82;-13.96508;-10.91893;25036.13;12781.45;0.1292711;0.02603732;0;
21826.49;14681.53;-139.6969;23212.88;-11.07066;-7.357985;21281.4;10570.82;0.7788146;-0.1039235;0;
24295.26;16687.53;2293.783;25671.35;-12.39968;-5.876967;23737.99;12405.33;0.4531954;0.1560503;0;
22413.45;15804.72;3381.43;23595.03;-7.899245;-9.75595;21871.14;11365.43;0.3228053;-0.4288126;0;
-5897.632;-4101.784;2923.198;-5973.581;-3.470678;-12.15753;-5978.958;-3465.867;0.1275789;-0.6882511;0;
-28446.99;-20030.51;1805.228;-29731.46;-8.289962;-10.26979;-28012.44;-14518.06;-0.06745129;-0.2327882;0;
-20268.4;-12538.03;-38.78484;-21795.48;-10.08932;-10.39344;-19828.43;-8669.329;0.2574532;-0.2975216;0;
-26100.18;-17967.95;-2293.519;-27430.02;-8.807358;-8.37351;-25564.55;-12301.58;0.06229248;-0.4271573;0;
-19032.89;-13153.59;-3350.291;-20595.52;-8.731159;-7.829355;-18577.7;-9753.982;-0.1976395;-0.03692406;0;
15118.05;11925.36;-2889.42;14821.71;-8.588664;-4.539324;14916.97;8272.325;0.1273958;-0.03688696;0;
25785.38;17605.48;-1921.096;27234.46;-7.239888;-0.5828922;25212.68;12979.89;0.1922352;-0.1667846;0;
22006.84;14865.43;-48.79348;23391.45;-9.844582;-3.931331;21467.34;10760.41;0.2570093;0.1582197;0;
24389.36;16773.48;2372.008;25769.99;-13.65308;-3.391517;23837.21;12496.41;0.1917837;0.02812605;0;
22314.75;15710.65;3440.367;23512.7;-6.472068;-7.742;21779.23;11268.42;0.1266237;-0.03686955;0;
-5700.574;-3912.438;2995.601;-5773.45;-3.184011;-13.36054;-5767.693;-3347.252;0.3863658;0.09310219;0;
-28028.7;-19596.71;1873.622;-29304.41;-2.242807;-8.055589;-27572.76;-14101.97;0.5159123;0.02804128;0;
-20364.2;-12627.55;-2.943291;-21852.93;3.520223;-5.502265;-19900.4;-8682.731;0.3204919;0.2878825;0;
-26390.54;-18264.55;-2269.332;-27687.7;-5.258201;-10.31939;-25828.15;-12530.72;0.1252678;-0.0372435;0;
-19266.02;-13212.42;-3337.701;-20821.1;-10.61155;-14.9977;-18781.62;-9760.582;-0.1347274;-0.1021734;0;
14801.9;11836.95;-2891.633;14495.66;-7.720501;-9.825067;14619.07;8232.171;-0.1995594;0.2877333;0;
25764.2;17603.29;-1917.184;27211.33;-11.26272;-7.805706;25197.15;12986.35;0.5152819;-0.1023599;0;
22175.3;15006.51;-42.19944;23568.76;-5.089458;-11.01304;21640.37;10896.47;0.6446988;-0.03728968;0;
24624.64;17041.27;2389.527;25996.89;-0.9311585;-9.394387;24081.39;12795.29;-0.2005244;0.5474539;0;
22894.55;16197.6;3487.292;24129.11;-3.87796;-19.2312;22359.95;11724.67;-0.395225;0.3520018;0;
-5105.018;-3504.065;3044.415;-5087.794;-0.6588826;-26.37892;-5179.449;-3042.504;-0.2648931;0.2866807;0;
-27602;-19207.35;1917.764;-28836.05;-7.557096;-26.4194;-27138.69;-13882.92;-0.5894637;0.35136;0;
-20088.76;-12310.32;57.17773;-21569.88;-11.2332;-30.67964;-19610.52;-8669.332;-0.1341;0.09113761;0;
-26965.52;-18840.84;-2220.985;-28228.73;-9.212179;-27.90257;-26390.82;-13168.07;0.3857735;0.09104604;0;
-20162.39;-14116.82;-3301.256;-21672.95;-12.08331;-26.20002;-19663.36;-10439.61;0.06054914;0.1559219;0;
14631.63;11623.5;-2835.156;14358.67;-3.162561;-26.77648;14455.79;8093.956;-0.2643484;-0.1041042;0;
25767.71;17585.85;-1859.327;27220.75;2.131902;-24.9411;25204.09;12940.9;-0.1991154;-0.3638689;0;
22083.64;14930.27;-1.079499;23475.74;4.139492;-23.1075;21556.21;10844.38;-0.2638827;-0.2335686;0;
24472.18;16877.8;2404.369;25860.13;7.952749;-19.40034;23931.62;12625.22;-0.1986502;0.09150279;0;
22363.59;15729.14;3494.622;23578.32;8.614344;-19.78275;21840.39;11276.8;0.2563208;-0.03852385;0;
-5602.962;-3840.897;3098.465;-5630.996;10.95021;-20.0308;-5642.285;-3202.569;0.6458673;-0.1684198;0;
-27585.89;-19184.63;2010.365;-28831.88;7.255515;-13.17854;-27102.79;-13790.57;0.3853489;0.02665143;0;
-19428.79;-11689.2;163.9911;-20932.39;5.372214;-9.347389;-18944.9;-8103.788;-0.1997443;-0.10331;0;
-25183.85;-17014.1;-2084.887;-26499.14;0.8124647;-6.323887;-24595.03;-11493.69;-0.1995436;-0.1032062;0;
-17960.47;-12232.16;-3157.611;-19483.64;-4.546986;-2.633472;-17475.32;-9020.969;-0.00444111;-0.1031025;0;
15591.11;12184.4;-2722.484;15351.78;-5.948937;-1.559221;15393.96;8405.981;-0.06940399;-0.2979009;0;
25757.75;17572.23;-1778.784;27229.33;-11.23425;1.992441;25197.03;13001.97;0.06060043;-0.2976016;0;
22049.17;14922.82;60.6112;23444.62;-8.543639;-1.626639;21523.84;10823.2;0.1255069;-0.1024006;0;
24546.84;16930.65;2471.651;25934.97;-7.062162;-4.974029;24007.38;12687.86;0.1903481;-0.1022977;0;
22525.6;15915.58;3565.803;23754.34;-11.20728;-0.9501773;22001.75;11469.39;0.06022217;-0.1671622;0;
-5595.096;-3831.835;3142.182;-5585.385;-10.86122;-1.35112;-5642.584;-3211.117;-0.1347404;-0.03705958;0;
-27449.3;-19039.15;2047.698;-28709.01;-15.8068;0.8606742;-26967.19;-13764.82;-0.134605;0.09291236;0;
-18974.23;-11225;214.5922;-20512.36;-19.20717;2.400417;-18488.25;-7872.974;-0.1994371;-0.0371157;0;
-24950.6;-16774.13;-2047.861;-26247.48;-16.84335;1.460244;-24361.96;-11277.69;-0.1342693;-0.0370784;0;
-17860.07;-12196.6;-3121.482;-19359.91;-15.28618;3.468143;-17365.46;-8916.259;-0.1991018;0.1578609;0;
15810.23;12302.36;-2676.88;15580.58;-16.94478;-2.898477;15622.95;8506.041;-0.06896702;0.09273493;0;
25865.59;17668.2;-1735.974;27344.08;-20.27764;-7.919162;25304.8;13108.55;0.3209063;-0.03729295;0;
22093.61;14979.89;120.6192;23490.39;-8.803059;-6.303737;21569.21;10886.88;0.1906492;0.09267922;0;
24472.89;16844.11;2535.315;25870.56;1.319844;-8.842632;23934.9;12605.87;0.1254903;0.1575534;0;
22315.48;15738;3605.323;23541.97;-4.977146;-7.226279;21799.92;11276.41;0.06039685;-0.2324089;0;
-5382.687;-3546.584;3172.541;-5390.556;-6.043872;-5.879359;-5407.768;-3061.219;-0.004631173;-0.5570121;0;
-27246.63;-18808.79;2056.818;-28467.8;-2.153033;-9.088511;-26749.74;-13495.51;0.1253082;-0.1666484;0;
-19554.31;-11819.42;192.5315;-21011.74;-1.413935;-9.481276;-19057.59;-8121.765;0.450019;0.2233231;0;
-25291.23;-17121.9;-2058.406;-26558.61;-1.21242;-12.21805;-24687.92;-11530.73;0.3196321;0.0281967;0;
-17576.09;-11897;-3127.455;-19088.42;-2.550372;-14.21514;-17077.41;-8842.161;-0.2653951;0.2230704;0;
15753.26;12279.79;-2712.77;15514.74;-1.408734;-13.79896;15568.37;8412.336;-0.3950632;0.6126503;0;
25682.28;17495.96;-1778.637;27159.13;0.4003668;-14.45492;25126.04;12964.84;-0.5246009;0.2222307;0;
22093.61;14974.64;75.37546;23493.2;-7.838082;-13.30169;21570.94;10876.93;-0.3291717;-0.4276661;0;
24438.12;16818.19;2476.874;25839.7;-14.32792;-12.95341;23901.85;12590.37;-0.004004273;-0.2973017;0;
22337.81;15738.12;3550.001;23576.39;-12.907;-11.06499;21822.3;11285.45;0.06096709;0.1577685;0;
-5481.957;-3701.225;3120.429;-5468.257;-12.82668;-9.781198;-5503.215;-3121.716;-0.06902885;0.2875446;0;
-27172.23;-18759.51;2007.695;-28410.59;-17.36814;-7.627915;-26666.34;-13485.88;-0.1339268;0.4171904;0;
-19017.08;-11285.38;145.2066;-20527.6;-18.35605;-3.467431;-18516.44;-7900.15;0.2560118;0.09193449;0;
-25205.94;-17020.42;-2123.955;-26467.35;-21.15064;-7.683749;-24594.35;-11499.84;0.06085252;-0.2329946;0;
-17975.3;-12261.01;-3193.61;-19439.9;-27.96189;-8.814738;-17457.29;-8971.312;-0.1341106;-0.2327605;0;
15758.02;12288.13;-2745.734;15529.32;-13.13069;-8.872865;15582.71;8518.744;0.3857628;-0.7522653;0;
25880.21;17684.83;-1801.667;27353.88;-2.868743;-12.28008;25323.35;13135.98;0.3853752;-0.3617054;0;
22097.43;14981.3;38.93764;23500.59;-7.421188;-5.301636;21574.75;10888.69;0.3200206;0.2883314;0;
24437.72;16822.17;2441.347;25836.05;-4.800786;-1.679353;23903.45;12597.43;0.5795684;0.1581071;0;
22369.57;15746.52;3521.444;23602.92;-6.873044;-2.146424;21850.44;11294.78;0.4490514;0.3528502;0;
-5376.346;-3645.872;3098.741;-5376.379;-7.535723;0.06604745;-5413.355;-3098.605;-0.2010732;-0.03730839;0;
-27072.89;-18661.85;1981;-28317.93;-9.537883;-2.345283;-26581.99;-13397.22;-0.3957732;-0.03727091;0;
-19203.71;-11453.54;101.3597;-20710.94;-13.27934;-2.945772;-18716.86;-7971.057;-0.00557146;0.2876033;0;
-25165.86;-17008.26;-2157.794;-26465.94;-10.18454;-5.220232;-24570.63;-11500.8;0.05940148;-0.1674571;0;
-17514.47;-11808.37;-3200.445;-19029.29;-8.499369;-8.162114;-17014.98;-8751.386;0.1892765;0.1575479;0;
15797.2;12349.47;-2749.423;15567.18;-11.03642;-8.019947;15608.69;8441.332;0.1890863;0.2223569;0;
25562.95;17374.71;-1804.165;27042.95;-12.90134;-9.88741;25006.84;12856.64;0.05896161;-0.1027033;0;
21993.88;14880.75;60.86761;23390.26;-8.534124;-9.743509;21471.42;10793.35;0.05890237;0.5470734;0;
24460.88;16834.28;2479.528;25859.84;-6.248374;-10.2026;23925.35;12602.53;0.05884318;0.5465237;0;
22234.02;15682.06;3547.561;23462.82;-4.634505;-11.46502;21714.97;11252.24;-0.006183285;0.2211378;0;
-5752.628;-3876.627;3108.216;-5763.86;-1.615738;-12.45813;-5797.658;-3325.496;-0.1361118;0.2209156;0;
-27363.14;-18924.35;1991.808;-28590.79;-2.2837;-13.98621;-26871.94;-13605.45;-0.2009423;-0.2990451;0;
-19556.35;-11827.6;117.9041;-21015.25;-0.6738152;-15.51277;-19055.87;-8280.438;-0.005838399;-0.558614;0;
-26054.86;-17871.44;-2152.948;-27311.9;-3.218734;-18.51129;-25450.86;-12281.21;0.1890695;-0.3631507;0;
-18327.57;-12645.05;-3199.508;-19818.54;-6.229609;-21.57391;-17819.56;-9309.781;0.3188142;-0.4277531;0;
15721.38;12226.29;-2731.558;15490.8;-3.275613;-23.42763;15540.98;8510.121;0.05862448;-0.1024866;0;
25758.28;17563.89;-1776.854;27229.01;-5.148332;-24.00694;25202.76;13009.48;-0.2013038;0.02755106;0;
21998.86;14887.72;94.49178;23400.34;0.8850614;-30.74797;21478.86;10811.53;-0.1361342;0.2224254;0;
24383.53;16763.42;2514.149;25785.07;9.860129;-35.53972;23850.39;12544.47;-0.006062703;0.2871693;0;
22251.79;15655.5;3564.219;23484.88;-4.952885;-35.03513;21735.21;11224.52;-0.006056611;-0.2978254;0;
-5570.036;-3793.075;3113.519;-5558;-15.59783;-36.87539;-5599.622;-3185.195;0.1888515;-0.2325588;0;
-27152.71;-18740.58;1983.769;-28374.43;-5.60182;-34.42701;-26647.49;-13404.62;0.1236944;0.4173483;0;
-19281.65;-11550.66;75.07779;-20759.36;-3.520087;-33.58868;-18784.64;-7968.004;0.1885374;-0.03784243;0;
-25488.6;-17337.16;-2212.941;-26752.07;-4.319857;-29.53602;-24886.52;-11751.42;0.05841333;-0.4925758;0;
-17787.66;-12090.96;-3253.6;-19270.5;-0.9002408;-24.08084;-17273.73;-8971.878;-0.5263515;0.02765788;0;
15799.57;12346.93;-2780.254;15583.45;-7.463419;-27.80763;15620.27;8476.934;-0.4608552;0.1575648;0;
25675.18;17486.21;-1808.167;27159.25;-12.41241;-29.11929;25119.2;12973.53;-0.2005228;-0.1674303;0;
22051.73;14937.07;66.64616;23454.37;-6.572792;-27.28155;21532.17;10852.32;0.05954807;-0.1022947;0;
24384.11;16768.28;2461.032;25785.79;-3.149936;-28.39279;23850.46;12551.71;0.1244556;0.09271014;0;
22369.86;15763.2;3514.778;23620.1;-6.964188;-27.35958;21854.76;11319.51;-0.2654735;-0.102285;0;
-5491.733;-3722.285;3069.312;-5458.659;-9.837579;-25.99242;-5517.48;-3302.306;0.5144013;-0.232117;0;
-27377.79;-18939;1926.333;-28591.59;-3.665752;-31.86068;-26862.97;-13687.73;0.8387212;0.1579203;0;
-19741.07;-11993.19;36.18975;-21202.12;0.9596316;-35.3787;-19233.6;-8415.062;0.1232376;0.222729;0;
-27028.3;-18867.51;-2250.291;-28254.22;-2.523957;-37.21862;-26418.73;-13174.68;0.05814648;0.09257052;0;
-19737.54;-13940.23;-3304.374;-21200.08;-3.057284;-40.39634;-19206.21;-10283.92;0.1230554;0.2224122;0;
15262.29;11889.11;-2813.361;15028.81;-3.187934;-39.01609;15097.21;8351.975;0.0579644;0.02728667;0;
25766.37;17567.33;-1833.713;27237.98;-6.333539;-37.50332;25208.87;12974.33;-0.007061182;0.2221613;0;
21856.29;14747.28;45.93563;23262.68;-2.040267;-39.87696;21337.35;10692.31;-0.2019561;0.4168401;0;
24328.99;16699.41;2461.863;25726.79;0.2389585;-42.24822;23795.62;12466.02;-0.0718185;-0.1682848;0;
22046.26;15523.43;3507.831;23295.43;-4.382982;-35.03878;21527.91;11138.31;0.3180577;-0.4279851;0;
-6243.947;-4308.378;3031.325;-6203.759;-4.980814;-30.04696;-6272.63;-3630.811;0.4476728;0.157151;0;
-28110.69;-19662.34;1873.922;-29296.59;-12.21045;-29.21297;-27603.02;-14226.76;-0.07251575;0.2869278;0;
-20168.41;-12452.09;-20.04132;-21598.41;-18.89599;-24.49493;-19654.08;-8625.551;-0.07244288;-0.363034;0;
-26276.53;-18101.31;-2278.636;-27530.86;-18.20742;-26.54673;-25664.66;-12395.97;0.2524666;-0.1677671;0;
-18447.8;-12664.18;-3312.81;-19945.59;-20.73374;-26.65402;-17950.88;-9421.393;-0.2025585;0.2222055;0;
15469.71;12084.26;-2858.661;15254.66;-21.31612;-23.881;15277.84;8336.574;-0.3322896;0.1570149;0;
25493.99;17294.33;-1884.37;26973.38;-21.09363;-24.2589;24936.8;12750.24;-0.07208636;0.2218245;0;
21869;14762.91;26.25116;23262.26;-22.34524;-18.80903;21348.67;10703.01;0.05792076;-0.03826782;0;
24285.22;16655.25;2434.733;25683.01;-20.98264;-16.04395;23751.06;12406.63;0.05786256;-0.03822937;0;
21809.97;15292.84;3470.764;23031.07;-21.83319;-14.08533;21299.53;10949.78;-0.07213026;0.2866458;0;
-6577.137;-4648.015;3020.064;-6595.602;-21.94497;-10.05232;-6592.597;-3894.638;-0.1370251;0.2213904;0;
-28608.45;-20150.74;1879.726;-29806.74;-18.23922;-12.98935;-28082.62;-14482.54;-0.2668221;-0.03870143;0;
-20668.21;-12948.43;-16.08536;-22064.14;-18.0862;-11.56965;-20138.35;-8792.062;-0.006684656;-0.1685972;0;
-26830.35;-18689.49;-2280.181;-28049.79;-10.76701;-16.04589;-26202.23;-12753.54;0.3831261;-0.1034605;0;
-19475.09;-13530.39;-3317.852;-20949.55;-5.867044;-21.52212;-18943.87;-9969.513;-0.07203025;-0.03838918;0;
14850.7;11698.09;-2833.119;14626.5;-5.861149;-13.7977;14685.13;8163.177;-0.2018926;0.09158409;0;
25588.56;17403.06;-1849.609;27060.25;-1.835796;-12.57814;25031.92;12809.98;0.05817967;-0.03844263;0;
21727.76;14602.33;20.96629;23138.6;-8.063242;-6.269231;21209.32;10555.58;-0.3316828;0.02656334;0;
24190.95;16574.39;2435.263;25587.57;-8.389933;1.640811;23660.23;12338.46;-0.2014149;0.1564713;0;
21951.96;15440.91;3492.502;23191.69;-16.21838;-3.719351;21441.55;11093.67;0.3834936;0.02637942;0;
-6682.845;-4705.19;3017.854;-6645.873;-25.17804;-5.524152;-6693.679;-3894.827;0.2531736;-0.1685491;0;
-28706.96;-20244.06;1874.427;-29888.74;-17.65066;-2.638336;-28184.8;-14676.05;0.1229845;-0.03844507;0;
-20696.61;-12979.29;-3.045221;-22099.22;-19.64265;-2.501719;-20176.46;-8987.582;0.1878283;0.2864303;0;
-26677.22;-18506.31;-2263.094;-27905.84;-9.910025;-3.035069;-26054.1;-12694.14;-0.2671319;0.09124046;0;
-18698.85;-12868.96;-3301.703;-20185.22;-2.800121;-1.558394;-18184.47;-9578.879;-0.5267328;-0.2986553;0;
15354.69;12033.12;-2845.956;15155.26;-2.998378;-8.991812;15171.75;8324.876;-0.07143216;-0.5582246;0;
25443.93;17245.24;-1889.482;26934.44;4.238304;-15.68095;24887.75;12688.72;-0.1363277;-0.5576636;0;
21699.89;14592.29;-14.36904;23104.12;-6.616946;-10.97639;21181.25;10543.75;-0.2661254;-0.03736458;0;
24121.03;16492.3;2379.692;25524.41;-9.891851;-10.36263;23586.9;12243.38;-0.070956;0.2225423;0;
21668.98;15174.48;3425.68;22902.08;-16.44697;-11.35684;21159.38;10848.93;-0.2008194;0.09238405;0;
-6895.538;-4907.777;2987.363;-6888.402;-27.54888;-11.68035;-6909.252;-4042.285;-0.1356503;-0.1675782;0;
-28723.45;-20263.64;1850.4;-29924.6;-18.01035;-10.53002;-28208.26;-14614.24;-0.07054662;-0.2973444;0;
-20777.06;-13067.03;-50.81717;-22191.72;-17.18797;-9.1128;-20267.02;-9004.535;-0.1354431;-0.1021437;0;
-26969.64;-18815.13;-2321.375;-28205.88;-12.75007;-11.11301;-26356.14;-12928.23;0.2544971;0.2227957;0;
-18926.82;-13083.05;-3353.85;-20410.17;-5.235174;-11.23581;-18408.59;-9690.219;-0.07059535;0.1576045;0;
15265.27;11987.74;-2875.984;15058.49;-11.66028;-13.76987;15088.04;8341.178;-0.6552305;-0.1673906;0;
