Fp1;Fp2;O1;O2;POLY3;POLY4;A1;A2;Video;Audio;event;
2542.55;2534.647;-1054.174;2745.752;14.42316;-7.57422;2530.515;2533.151;-0.3152215;-0.1613789;0;13:30:03 Глаза закрыты;
6167.859;6162.588;-2167.211;5978.929;16.4184;-4.150601;6175.889;6167.527;0.009931904;-0.09624939;0;
5557.153;5550.138;-3556.615;5480.107;19.88453;-5.28508;5560.614;5552.699;-0.1200128;0.2936514;0;
10095.79;10091.71;-3782.708;9512.633;10.08529;-1.059967;10109.55;10100.08;0.01004251;0.228389;0;
19878.16;19868.03;-2922.181;18959.26;7.596907;1.486328;19902.65;19888.63;0.2699018;0.1631922;0;
20901.35;20878.3;-2156.847;20645.6;12.0099;-2.868873;20902.14;20896.94;-0.05520612;0.03309348;0;
17451.88;17427.11;-952.4089;17586.07;9.385867;-2.464093;17432.37;17438.74;-0.4449547;-0.2917765;0;
17959.58;17936.89;548.5441;18007.37;16.20894;2.360971;17942.46;17950.7;-0.2496056;-0.03161393;0;
13206.91;13181.63;838.6906;13770.46;18.93834;3.095411;13179.26;13192.42;0.3353513;-0.1615168;0;
3316.858;3296.842;46.0896;4214.917;0.8346531;6.910206;3279.799;3296.442;0.270047;-0.4861912;0;
2232.069;2224.629;-779.5729;2444.444;-3.654164;8.845768;2219.222;2223.605;-0.1200284;0.09900335;0;
6027.73;6022.859;-1879.299;5830.66;0.4353446;3.880264;6034.449;6027.77;0.1399616;0.1638712;0;
5387.554;5380.189;-3278.831;5313.371;-4.119444;3.809382;5389.769;5384.346;0.2697556;-0.2260975;0;
9833.153;9828.607;-3525.286;9253.111;10.35203;-0.6821797;9845.798;9837.57;-0.1203195;-0.2258703;0;
19725.29;19714.7;-2662.926;18794.14;15.83399;-3.293768;19747.92;19735.83;-0.2501333;-0.160676;0;
20805.67;20782.15;-1896.415;20536.31;-1.462299;0.7284569;20804.35;20802.02;0.07495478;-0.2904493;0;
17327.01;17301.88;-699.3602;17454.71;1.418582;-0.4779678;17305.82;17313.42;0.2048142;-0.1602227;0;
17733.2;17710.28;778.7874;17789.31;-5.68279;2.134725;17714.9;17723.68;0.139641;0.164775;0;
12899.36;12873.79;1049.087;13471.16;-6.81518;3.070341;12870.16;12884.73;0.5293047;0.1646094;0;
3238.31;3218.759;273.0789;4121.813;10.67311;-2.760076;3200.64;3218.828;0.3988382;0.09947667;0;
2340.631;2333.656;-541.786;2538.34;10.4623;-3.762047;2328.735;2334.536;-0.1213013;-0.1604927;0;
6059.159;6054.564;-1653.589;5860.181;46.01887;-5.097865;6066.828;6060.504;-0.05621205;0.03457062;0;
5530.646;5523.62;-3037.699;5442.687;59.56931;-6.700333;5535.246;5528.366;-0.3809923;0.2294379;0;
10085.3;10079.84;-3267.718;9490.931;33.11842;-4.215292;10100.51;10091.45;-0.5105441;0.09927271;0;
19764.29;19752.72;-2420.202;18839.13;35.49702;-4.010108;19787.86;19775.81;-0.1202271;0.488977;0;
20753.61;20730.12;-1643.691;20489.23;14.22788;-4.94384;20755.36;20751.82;0.3346651;0.4884857;0;
17327.91;17302.94;-432.3971;17451.47;3.228873;-3.867145;17313.1;17318.37;0.3343288;0.1631581;0;
17678.38;17654.93;1007.408;17732.29;18.36353;-6.810448;17665.52;17671.53;0.1390909;0.2279615;0;
12872.33;12846.29;1243.62;13440.31;13.58965;-7.473434;12848.68;12858.75;0.3988205;-0.09710424;0;
3225.864;3205.968;484.5325;4104.24;19.13473;-1.169651;3195.176;3206.922;0.008615698;-0.2919087;0;
2273.225;2265.28;-273.3237;2467.562;21.99589;0.03721728;2266.681;2267.608;-0.576099;-0.09671336;0;
6090.271;6085.02;-1333.797;5889.423;6.835888;0.1041628;6103.474;6094.155;-0.1207488;0.1632532;0;
5561.977;5555.419;-2739.906;5483.394;5.4225;0.5059558;5572.667;5561.484;-0.2505621;0.2280565;0;
9983.038;9978.299;-2995.46;9405.598;6.287708;0.3714815;10003.09;9989.104;-0.6401144;-0.09700938;0;
19686.19;19675.27;-2124.012;18771.06;2.798765;0.5050741;19715.03;19699.81;0.1401369;-0.4867159;0;
20682.21;20659.37;-1379.626;20424.79;17.8665;-3.447366;20688.15;20682.13;0.5298001;-0.3562922;0;
17301.3;17276.24;-209.4208;17429.83;21.06373;-3.979765;17288.31;17291.48;0.1394637;0.4236739;0;
17755.68;17731.83;1275.325;17814.74;13.87527;-11.00879;17744.64;17749.99;0.2042909;0.2933135;0;
12851.86;12825.47;1568.208;13427.97;17.01014;-15.01664;12828.65;12839.74;0.3340203;-0.22672;0;
3160.186;3139.069;818.9766;4047.938;-0.4220296;-2.20812;3127.879;3140.523;-0.05611934;0.2932466;0;
2216.67;2207.506;20.99193;2432.368;-6.115033;0.7413474;2209.634;2209.521;0.2038064;0.2929519;0;
5958.873;5952.529;-1068.169;5773.118;9.698596;-6.694381;5972.708;5962.914;0.463471;0.1627229;0;
5494.116;5486.03;-2441.624;5408.561;9.48778;-6.084808;5505.313;5495.779;0.2031359;0.09759206;0;
9922.617;9916.725;-2687.702;9344.02;13.89888;-4.002284;9943.423;9930.837;-0.1868722;-0.5521794;0;
19534.5;19522.24;-1840.176;18624.96;16.63158;-4.333177;19563.97;19549.02;-0.5115212;-0.3567226;0;
20616.38;20591.45;-1077.834;20357.8;11.92582;2.90515;20621.89;20616.89;-0.1861705;0.4882113;0;
17269.52;17242.87;119.0542;17400.14;13.3877;5.045685;17255.16;17259.85;-0.2509508;0.4227534;0;
17684.64;17660.26;1609.31;17744.1;6.876539;0.351932;17672.55;17679.29;-0.5755353;0.1624593;0;
12874.22;12847.49;1904.044;13443.54;5.530458;0.5525271;12850.45;12862.25;-0.05521827;0.2272634;0;
3138.293;3117.218;1147.261;4022.578;4.787967;-2.060362;3105.558;3117.906;0.2696739;0.03213297;0;
2096.599;2088.101;349.5396;2304.96;1.434253;-2.862026;2088.073;2090.538;-0.3153031;-0.03286666;0;
5929.127;5923.449;-726.4897;5732.857;13.22083;-4.332775;5940.599;5934.317;-0.1850516;0.2920031;0;
5360.453;5352.469;-2103.911;5283.445;14.81514;-6.002934;5369.602;5360.764;0.07500368;0.2917097;0;
9611.739;9606.199;-2351.671;9044.306;11.92084;-0.3034748;9630.687;9618.672;-0.2499084;-0.09838749;0;
19360.8;19349.96;-1488.616;18445.99;14.11869;0.902523;19388.41;19374.35;-0.3146246;-0.2931907;0;
20525.63;20502.86;-726.5648;20263.9;1.779643;0.4997185;20531.16;20525.54;-0.1843738;-0.09799403;0;
17235.58;17211.03;483.8384;17360.24;-1.70477;2.307634;17223.18;17227.13;-0.1192212;-0.03292822;0;
17781.73;17758.02;1996.123;17833.49;0.0382551;-0.7757781;17770.47;17777.16;0.2057353;0.09703956;0;
12807.98;12781.42;2269.542;13389.67;-5.051998;-1.109913;12784.3;12796.04;0.2704959;0.1619094;0;
2956.744;2936.889;1500.678;3857.688;2.120374;4.115749;2925.15;2937.695;-0.05461258;-0.03315533;0;
1984.948;1977.918;708.8795;2205.516;-0.8958666;5.585238;1978.497;1978.911;0.01040963;-0.1630567;0;
5692.026;5687.315;-387.8757;5512.948;4.262597;3.704103;5705.26;5696.865;0.07536651;-0.2278602;0;
5169.442;5162.861;-1766.137;5091.868;9.884393;3.968313;5180.101;5171.152;0.1402581;0.09720547;0;
9652.491;9649.104;-1993.903;9069.999;-31.3187;5.839848;9674.821;9660.51;0.3350192;0.2270425;0;
19295.75;19286.81;-1134.081;18384.51;-41.13385;6.637653;19328.49;19309.45;0.1397806;0.09687967;0;
20369.81;20348.01;-363.203;20111.54;-23.34265;6.162225;20379.47;20369.25;-0.05526191;0.3566517;0;
17142.4;17118.05;851.489;17261.38;-25.93116;6.825741;17132.05;17133.9;-0.1851411;0.6161627;0;
17580.57;17557.62;2337.386;17640.39;-13.64759;6.350124;17570.48;17576.21;-0.3798571;0.2907069;0;
12646.75;12620.77;2601.872;13229.82;-10.35233;6.678536;12625.12;12635.71;-0.05463867;0.03054538;0;
2922.236;2902.152;1814.683;3811.125;-4.179007;8.61433;2893.819;2906.144;0.1403183;-0.03445266;0;
1939.917;1932.347;995.3334;2147.692;1.51862;9.275504;1936.391;1936.397;-0.1846594;-0.3592547;0;
5739.557;5733.806;-104.708;5546.762;-7.190444;10.87377;5755.962;5745.973;-0.3144086;-0.3588938;0;
5068.437;5060.255;-1516.268;5003.958;-5.039764;11.13078;5081.952;5072.223;-0.1191906;0.1612056;0;
9290.22;9284.982;-1769.835;8730.742;-16.89104;14.40164;9313.778;9299.937;0.01086381;0.6807824;0;
19158.67;19148.06;-885.9377;18237.56;-20.62512;15.99476;19192.51;19175.44;0.3356896;0.4851963;0;
20388.1;20365.45;-116.1216;20122.59;-14.91097;10.41922;20398.92;20392.48;0.3353523;0.0949047;0;
17062.9;17038.15;1092.294;17188.15;-17.17316;9.537976;17053.79;17057.97;0.1401133;0.2897114;0;
17552.63;17529.21;2584.227;17606.72;-5.233186;9.796325;17545.58;17550.33;0.07500518;0.1594856;0;
12563.62;12537.73;2822.072;13149.51;-2.213817;9.116652;12545.58;12554.13;-0.2499069;-0.1655114;0;
2774.156;2754.04;2023.73;3672.245;-0.4029317;8.303696;2747.956;2759.184;-0.1846884;-0.2303124;0;
1829.967;1821.365;1198.486;2039.624;4.018103;7.223626;1827.343;1827.253;0.1403338;-0.3600157;0;
5586.551;5580.144;72.50293;5388.702;-6.301062;10.43155;5602.796;5592.711;0.2701275;-0.09978459;0;
5170.894;5162.807;-1315.435;5076.629;-7.567529;10.35408;5184.374;5174.049;0.3997908;0.2251524;0;
9646.196;9640.99;-1545.372;9061.272;-5.081678;9.740833;9670.032;9655.22;-0.05538233;0.2898935;0;
19202.32;19191.62;-696.1201;18294.02;-6.750535;9.195182;19234.44;19217.83;-0.5100981;0.1596675;0;
20218.38;20195.7;62.54211;19965.85;-3.930713;11.19543;20224.98;20221.01;0.1400879;-0.03539494;0;
17017.04;16992.51;1291.205;17139.95;-3.926764;13.79639;17003.64;17008.61;0.1399471;0.09457532;0;
17518.43;17494.98;2786.812;17572.38;-5.463059;-0.4844675;17508.17;17512.25;-0.3149649;0.02951294;0;
12497.4;12471.48;3017.894;13078.66;-5.592268;-2.895305;12476.47;12485.24;0.140123;-0.3603208;0;
2706.699;2687.177;2205.581;3597.34;-5.987814;3.135885;2677.356;2690.673;0.2699169;-0.4898934;0;
1787.003;1779.306;1393.209;1993.092;-6.116496;1.257334;1781.428;1784.798;0.139711;-0.4894011;0;
5501.09;5495.462;290.3008;5311.17;-7.382172;17.19752;5515.635;5507.32;0.2695053;-0.03413801;0;
4818.965;4811.844;-1127.091;4746.99;-8.312759;21.53413;4831.434;4821.628;-0.05560222;0.09583099;0;
9264.011;9260.333;-1354.656;8685.8;-4.620711;17.09162;9286.774;9273.044;-0.185481;-0.229102;0;
19139.98;19131.13;-448.8746;18215.21;-2.807407;19.55281;19172.47;19155.07;0.139542;0.2258996;0;
20234.88;20213.22;298.8258;19966.15;-9.56974;9.887869;20243.84;20236.33;-0.1204675;0.2906399;0;
16964.49;16940.05;1477.745;17076.9;-10.63185;7.064651;16953.27;16955.88;-0.4451832;-0.3593255;0;
17501.11;17477.68;2970.041;17556.81;-4.123458;6.588672;17491.77;17495.69;-0.05493183;-0.2939971;0;
12444.93;12418.78;3222.584;13042.18;-2.646422;3.366993;12424.48;12433.27;0.2049927;0.1610697;0;
2633.849;2613.601;2432.429;3532.533;-2.30897;5.44008;2604.803;2615.583;-0.12005;0.2258752;0;
1688.614;1680.38;1616.488;1893.368;-1.033853;5.233665;1682.586;1682.735;-0.05496198;0.1606809;0;
5420.791;5414.626;502.8913;5226.852;0.8431962;3.620816;5433.884;5425.975;0.2049626;-0.1643173;0;
5036.347;5027.689;-877.0144;4947.05;2.114171;4.822871;5047.678;5039.339;-0.12008;-0.2940869;0;
9524.777;9517.878;-1100.052;8941.382;1.643532;4.148195;9546.654;9532.14;-0.3148614;0.2909147;0;
19020.43;19007.98;-248.8113;18120.4;1.709229;4.478942;19051.4;19033.28;-0.119643;0.3555897;0;
19986.95;19962.39;501.1556;19742.06;2.71189;13.51689;19994.71;19987.67;-0.1195228;-0.09953895;0;
16796.71;16770.05;1726.755;16916.45;3.37875;16.71837;16785.1;16787.93;0.07549933;0.03049575;0;
17345.23;17320.48;3232.73;17393.76;-2.920308;17.70632;17336.01;17340.03;0.1403908;-0.2943716;0;
12300.14;12272.85;3470.767;12884.35;-5.931484;20.83672;12278.82;12287.51;-0.2495543;-0.2291085;0;
2446.294;2424.713;2660.341;3340.637;2.714664;15.25632;2415.929;2426.489;-0.1843362;0.4207952;0;
1479.446;1470.193;1840.673;1685.61;3.984734;13.83435;1473.974;1473.528;0.1406857;0.355405;0;
5197.777;5190.22;738.595;5008.808;-4.995226;18.10724;5210.863;5201.548;0.3354464;0.1601459;0;
4548.128;4538.268;-657.1647;4480.288;-7.602176;16.6824;4558.453;4548.46;0.2051746;0.2249523;0;
8852.705;8846.353;-898.3828;8282.998;-2.570695;17.13452;8875.075;8860.032;-0.1198682;0.02982422;0;
18647.13;18635.73;-18.48443;17726.55;-2.902905;16.11268;18678.16;18661.32;-0.2496825;-0.1651078;0;
19810.18;19787.1;742.1206;19551.31;-7.120522;9.532285;19817.5;19812.17;-0.2494316;-0.2299092;0;
16615.93;16591.44;1953.609;16732.45;-7.715604;6.910373;16604.51;16607.93;-0.3141483;-0.03477617;0;
17498.78;17474.63;3495.339;17521.29;-10.85568;2.884575;17488.74;17493.22;0.01100407;0.2251281;0;
12587.03;12560.09;3755.101;13161.37;-11.51534;0.6043791;12566.01;12575.11;0.4007971;0.4847713;0;
2399;2379.771;2917.216;3315.712;-11.10162;-2.142528;2370.378;2383.092;0.4003943;0.1594475;0;
1253.852;1248.198;2090.386;1479.177;-11.02312;-3.948854;1249.621;1253.201;0.07515531;-0.1655494;0;
4928.494;4925.907;990.0565;4754.981;-6.993556;-1.399595;4944.32;4936.59;0.01011245;-0.1004158;0;
4292.734;4289.025;-403.7382;4234.712;-5.914803;-2.469916;4306.982;4297.761;0.140037;0.1595545;0;
8737.872;8736.29;-636.0593;8171.476;-3.496986;6.842949;8762.476;8751.015;-0.1199731;0.2243616;0;
18473.38;18465.93;230.2697;17566.91;-3.895614;10.31919;18506.46;18492.7;-0.1848199;-0.2306353;0;
19497.61;19478.29;976.6318;19247.91;3.877833;2.404953;19507.41;19502.85;-0.1196668;-0.03550153;0;
16306.11;16284.57;2182.95;16416.86;7.62498;2.603485;16296.6;16300.79;-0.3144486;0.5492402;0;
17056.53;17035.94;3702.991;17083.02;-11.40535;-0.2122917;17048.28;17053.83;-0.1192306;0.483721;0;
12004.92;11981.48;3962.638;12591.1;-15.14493;-1.819669;11983.68;11994.67;0.6604972;0.02846356;0;
1927.23;1909.751;3156.81;2844.343;-14.99599;-0.9470623;1896.958;1910.555;0.7248009;-0.1664671;0;
886.6906;881.2852;2335.58;1104.421;-18.86569;-1.682923;882.5604;884.4629;0.2043339;-0.03636511;0;
4626.856;4623.706;1235.066;4438.072;-13.01958;-0.7434708;4643.658;4635.063;-0.1856755;-0.1662633;0;
4165.812;4160.978;-140.3589;4082.789;-13.87716;-0.2738433;4180.035;4170.7;-0.3803909;-0.1011289;0;
8618.823;8616.367;-386.5627;8040.82;-8.6383;2.405627;8643.401;8630.577;-0.05517198;0.2887768;0;
18188.35;18180.52;454.122;17289.71;-5.950303;4.747612;18222.02;18206.65;0.5295895;-0.03635006;0;
19136.21;19115.9;1188.328;18899.21;-12.64311;3.001286;19144.93;19140.69;0.5940247;-0.2312156;0;
15765.04;15742.38;2365.198;15899.66;-12.22826;3.802065;15753.57;15759.4;0.008721784;-0.1660159;0;
16369.83;16349.06;3874.718;16422.03;-16.03339;8.152014;16360.81;16367.5;-0.381091;-0.1008817;0;
11445.47;11421.85;4146.342;12038.1;-18.3618;8.813652;11424.46;11436.33;-0.0558714;-0.03581303;0;
1437.246;1419.209;3334.613;2352.807;-12.04769;14.09633;1407.951;1421.06;0.3989561;-0.1657117;0;
350.9726;345.572;2519.233;575.1476;-11.49972;16.56041;346.2571;348.2331;0.1386859;-0.2305126;0;
4143.776;4140.692;1438.087;3957.619;-13.49692;9.510804;4157.868;4151.346;-0.1862902;-0.1003463;0;
3790.787;3785.895;78.70002;3702.581;-12.61271;8.630469;3802.867;3795.539;-0.1211356;-0.03527809;0;
8231.557;8229.105;-160.8212;7654.685;-17.95867;7.282139;8253.369;8242.551;-0.2509486;-0.2301447;0;
17694.53;17686.46;658.335;16796.02;-20.95473;5.198473;17723.19;17709.07;-0.3156638;-0.3598481;0;
18595.22;18575.41;1378.374;18350.92;-7.805509;7.135633;18599.99;18595.38;-0.05547725;-0.2945192;0;
15270.76;15249.16;2563.018;15397.7;-4.180344;6.458633;15256.6;15263.18;-0.1203888;-0.3591906;0;
15901.22;15881.51;4060.376;15949.76;-15.83142;6.653092;15888.69;15896.45;-0.05530054;0.2258764;0;
10922.61;10900.24;4310.293;11512.39;-15.48072;7.249254;10897.48;10910.29;0.2046244;0.4855188;0;
913.4095;897.3098;3490.934;1824.062;-18.74672;6.438174;880.4957;895.8543;0.1394514;0.1601943;0;
-140.354;-143.4442;2663.216;82.85343;-21.33985;8.039295;-146.6856;-144.5858;0.464148;0.289968;0;
3634.39;3633.239;1558.438;3449.578;-7.922795;3.945381;3648.741;3639.657;0.5286489;-0.0351601;0;
3234.187;3231.289;171.162;3150.573;-5.168168;2.601758;3245.901;3237.076;0.008379076;-0.1000921;0;
7624.292;7624.645;-92.25262;7058.004;-5.162974;14.25393;7645.176;7634.236;-0.121564;0.3547799;0;
17089.24;17083.91;714.8407;16199.5;-1.607813;16.85182;17117.73;17105.8;0.07346015;-0.1653154;0;
17953.38;17935.68;1422.173;17721.51;-6.36162;15.56233;17958.29;17956.93;0.1383537;-0.3600513;0;
14529.24;14509.5;2599.745;14673.29;-5.016057;17.4221;14515.9;14523.35;-0.1866221;-0.03485279;0;
15203.67;15185.2;4113.433;15253.25;-6.417537;14.3235;15192.78;15201.6;-0.3163692;0.1600843;0;
10299.79;10277.46;4373.573;10887.8;-7.817608;14.57704;10276.35;10291.53;-0.05618196;-0.03497862;0;
191.4515;174.5841;3542.219;1117.575;3.778173;11.01229;159.7312;176.7696;-0.2510275;-0.1648782;0;
-917.3086;-920.7908;2706.016;-681.3946;6.185274;9.192812;-922.5104;-917.7329;-0.3157426;0.1601242;0;
2896.759;2895.717;1599.165;2718.207;4.169327;12.80053;2912.552;2906.705;-0.05555601;-0.09990604;0;
2476.121;2473.33;209.9114;2403.257;5.304214;11.71594;2490.648;2481.996;-0.1854349;-0.2947077;0;
6862.989;6862.887;-44.82779;6307.878;0.14132;17.53156;6888.809;6876.542;-0.4451179;0.03042515;0;
16328.83;16322.17;777.2728;15448.63;-2.605488;20.12628;16362.31;16348.56;-0.1848013;0.1603293;0;
17198.23;17178.89;1491.695;16970.58;3.62642;12.13521;17207.44;17203.25;0.3351231;-0.2946032;0;
13806.14;13784.39;2655.954;13952.98;5.766231;11.92207;13796.79;13801.79;0.2048517;-0.5541766;0;
14349.24;14328.76;4133.822;14414.41;-9.979698;10.30262;14342.27;14348.58;0.2046459;0.161021;0;
9362.761;9340.302;4378.106;9966.776;-12.78271;8.014851;9343.987;9356.478;0.5942443;0.3557613;0;
-582.2781;-598.5927;3554.181;345.1554;-10.29162;16.8483;-609.0903;-595.3637;0.2688105;-0.2293023;0;
-1711.625;-1715.492;2691.823;-1473.527;-15.10405;18.50594;-1712.548;-1712.391;-0.3161657;-0.2940392;0;
1938.074;1936.209;1548.129;1764.389;9.091355;12.52599;1957.141;1948.115;-0.1859133;0.1610276;0;
1565.875;1562.388;158.9274;1485.818;15.57895;11.70961;1582.424;1573.845;-0.1207592;0.2258332;0;
6002.071;6001.836;-84.01651;5434.027;-0.6453484;12.16672;6029.099;6016.655;-0.3805072;-0.1641978;0;
15426.99;15420.57;737.0615;14541.92;0.7618197;11.01579;15461.55;15446.12;-0.4450922;-0.3589348;0;
16291.73;16272.33;1445.433;16062.1;-11.02794;11.0717;16301.89;16296.72;-0.249743;0.09619721;0;
12925.04;12903.91;2618.515;13064.46;-16.50922;11.06058;12917.02;12920.72;0.140312;0.2910026;0;
13602.65;13582.97;4115.193;13657.09;-2.360084;4.083483;13595.82;13600.89;0.5299751;-0.2290286;0;
8652.087;8629.368;4341.661;9250.703;0.3216045;1.33308;8632.456;8643.587;0.4644752;-0.09886376;0;
-1525.433;-1542.007;3471.921;-593.7734;-9.323285;6.355338;-1551.854;-1539.797;0.3340738;0.550909;0;
-2692.813;-2696.376;2601.212;-2459.551;-9.84978;6.214986;-2693.407;-2694.293;-0.1210332;-0.03435064;0;
1116.604;1116.355;1470.978;935.9022;-1.333417;5.271102;1136.126;1124.308;-0.5107157;-0.3591528;0;
667.0829;665.3347;66.79847;600.255;-1.399426;5.332789;684.8978;672.5927;-0.1203984;0.09597945;0;
5024.16;5024.912;-194.9809;4470.956;10.92684;5.327431;5052.077;5038.535;0.1395919;-0.1639864;0;
14526.71;14521.71;629.7069;13645.91;15.13542;5.991785;14561.97;14546.5;-0.1853851;-0.5536256;0;
15415.16;15397.3;1343.465;15186.17;3.264842;2.033893;15426.02;15419.44;-0.0552641;-0.6180367;0;
12003.75;11985.03;2508.404;12146.87;2.725698;0.6252081;11996.11;11999.59;0.2046608;-0.682383;0;
12558.53;12541.89;3985.733;12624.67;-8.19538;4.643556;12552.15;12558.5;0.1394878;-0.3568607;0;
7585.465;7564.724;4213.456;8187.955;-13.6795;4.504924;7566.346;7577.817;-0.1854891;-0.1616001;0;
-2390.208;-2405.182;3370.175;-1469.735;-8.842986;5.170227;-2417.305;-2403.971;-0.5751067;-0.09647035;0;
-3498.374;-3500.027;2495.008;-3267.885;-9.838478;6.102671;-3500.643;-3497.88;-0.2496921;0.03356127;0;
190.8513;191.5115;1338.331;14.9692;-11.36981;1.072941;208.0122;201.5896;-0.05453923;-0.1613745;0;
-188.0875;-188.8648;-63.24716;-264.9052;-10.62145;-0.06672503;-174.5047;-180.6709;-0.3793211;-0.1612123;0;
4284.853;4287.825;-310.9966;3722.107;-5.520564;1.674776;4307.855;4298.009;-0.6388094;-0.2260177;0;
13676.45;13673.8;509.0602;12803.24;-2.969422;1.13723;13707.55;13695.53;-0.3133308;-0.1608232;0;
14440.63;14425.3;1218.536;14223.65;4.267231;2.877644;14446.96;14445.94;0.07678811;0.2941098;0;
11106.1;11089.04;2401.122;11247.66;8.013988;3.611564;11093.18;11101.42;-0.05322373;0.4887163;0;
11819.83;11804.53;3902.579;11868.04;9.479803;1.732413;11810.17;11818.02;-0.378007;0.3582905;0;
6812.711;6794.991;4120.64;7410.04;12.01587;1.931621;6791.572;6802.973;-0.3126598;0.2929632;0;
-3379.952;-3391.782;3244.313;-2444.581;9.190761;2.59951;-3411.127;-3396.427;0.07745842;0.2926688;0;
-4546.78;-4546.854;2389.543;-4310.467;10.05218;2.529915;-4554.686;-4550.433;0.1423479;0.3573421;0;
-749.4305;-747.0687;1285.134;-929.0517;2.071478;7.015107;-737.2756;-742.9595;0.2071722;0.09711364;0;
-1135.108;-1134.31;-102.1173;-1213.287;-1.346855;9.821342;-1123.59;-1130.33;0.1419967;-0.4227227;0;
3229.214;3232.635;-340.3636;2666.17;5.352304;1.371746;3250.716;3240.609;0.01191937;-0.5522326;0;
12630.68;12628.72;503.3981;11753.3;4.141477;-0.5050328;12658.47;12646.87;0.07687473;-0.1618737;0;
13436.58;13422.38;1210.849;13216.93;8.960087;8.872841;13440.54;13438.51;-0.1181045;0.03319099;0;
9959.379;9943.635;2358.867;10111.96;11.16091;9.533755;9945.657;9951.691;-0.4428226;-0.09677704;0;
10648.77;10635.29;3848.872;10702.99;2.308437;9.457192;10637.87;10645.03;-0.1825083;-0.1616471;0;
5782.324;5765.796;4074.576;6378.658;0.2300124;9.916571;5758.944;5772.211;-0.05239018;0.03341731;0;
-4480.956;-4491.531;3168.779;-3533.21;4.248269;6.088579;-4512.87;-4496.805;-0.3771743;-0.03158361;0;
-5823.838;-5821.098;2268.328;-5567.792;3.708137;4.809907;-5829.796;-5825.492;-0.05195856;-0.09651922;0;
-2253.028;-2247.417;1121.499;-2404.066;0.1544377;0.4511838;-2239.303;-2243.748;0.3378977;-0.09642223;0;
-2896.94;-2893.146;-307.0669;-2939.692;-0.7163736;-2.362431;-2885.477;-2889.792;-0.1821806;0.163544;0;
1445.165;1451.579;-573.4993;899.9579;-3.998183;-2.694972;1467.424;1458.614;-0.7017362;0.09841236;0;
10988.85;10989.14;257.4408;10109.86;-5.668129;-4.433759;11019.02;11007.79;-0.5061291;-0.55136;0;
11888.42;11876.39;963.2335;11667.85;-4.122192;-4.496287;11895.82;11894.15;-0.1807838;-0.4858386;0;
8465.685;8452.488;2114.499;8619.592;-5.323499;-4.625735;8453.9;8461.792;-0.05066749;0.09935566;0;
9145.582;9134.336;3596.566;9203.883;-0.3616573;-6.362582;9134.934;9144.255;-0.1805513;0.1642232;0;
4143.715;4130.168;3801.41;4752.43;1.313645;-6.892052;4123.27;4137.016;-0.2453372;0.09909081;0;
-6350.426;-6357.462;2878.896;-5380.66;-4.783243;-1.325666;-6378.909;-6362.053;0.4045827;0.4238279;0;
-7863.969;-7858.191;1976.83;-7584.424;-5.180579;1.08693;-7868.591;-7864.152;0.4041762;0.4883694;0;
-4296.293;-4287.836;835.8535;-4436.507;-4.170019;-2.062238;-4280.078;-4286.732;-0.1159686;0.09807467;0;
-4996.185;-4989.485;-616.6005;-5030.155;-3.563593;-0.9884391;-4982.86;-4989.569;0.2089846;0.09797612;0;
-720.0619;-710.4326;-907.5844;-1255.776;-4.229598;0.5530396;-697.2546;-708.455;0.4036766;0.162845;0;
8830.049;8834.297;-75.84007;7964.289;-2.818828;1.423262;8863.141;8848.516;0.01346697;-0.097188;0;
9574.61;9566.048;601.3645;9375.573;-1.476825;4.703996;9583.493;9579.753;-0.0515139;0.2277464;0;
6000.282;5989.416;1715.169;6170.196;-0.2025433;6.440703;5987.604;5994.924;-0.3762988;0.6822889;0;
6571.775;6562.356;3176.835;6648.503;4.352988;7.840873;6561.296;6569.358;-0.4408881;0.2917993;0;
1445.62;1432.9;3355.864;2071.245;3.477958;9.775499;1423.907;1434.648;0.144261;-0.03333061;0;
-8937.708;-8943.949;2421.147;-7969.884;21.22433;9.631711;-8969.487;-8955.072;0.01418136;-0.1632318;0;
-10355.54;-10348.72;1505.111;-10081.37;28.03453;10.96157;-10362.24;-10358.61;0.01416711;-0.4879045;0;
-6803.792;-6794.322;352.2402;-6949;3.089199;12.22323;-6789.149;-6796.741;0.2740223;-0.2275449;0;
-7298.171;-7290.055;-1064.527;-7345.939;-0.9323933;13.01474;-7286.261;-7293.533;-0.2459918;-0.09738155;0;
-3039.507;-3029.181;-1358.902;-3570.483;1.078276;15.54702;-3018.019;-3029.781;-0.6355487;0.09761833;0;
6129.815;6134.821;-592.9525;5288.715;-2.071616;16.40205;6159.652;6144.278;-0.5049754;0.422357;0;
6794.631;6788.575;72.46535;6608.485;-3.408705;17.18937;6801.324;6796.71;0.08023805;-0.09780618;0;
3196.421;3188.997;1179.367;3382.401;-5.146592;17.23908;3183.68;3190.191;0.3400268;-0.2926099;0;
3551.842;3546.362;2604.184;3651.178;-1.591447;18.36047;3540.176;3549.24;-0.1150863;-0.09741389;0;
-1467.518;-1475.554;2808.214;-841.672;-1.456126;18.87788;-1489.918;-1477.738;-0.05000328;-0.292218;0;
-11667.42;-11669.04;1911.716;-10705.06;7.453945;13.03152;-11698.32;-11685.31;0.2099163;-0.03205504;0;
-13099.4;-13087.85;1000.409;-12817.61;12.26923;10.67402;-13105.91;-13103.47;0.1447381;0.3577812;0;
-9453.131;-9438.711;-133.6208;-9593.936;3.750432;12.20391;-9438.301;-9445.452;0.20956;0.09755237;0;
-9931.262;-9918.388;-1546.026;-9969.539;3.813036;10.58405;-9919.321;-9926.152;-0.1154873;-0.09744769;0;
-5734.138;-5718.465;-1850.944;-6254.446;6.422149;9.032931;-5712.338;-5722.974;-0.3102733;-0.03238244;0;
3579.008;3590.042;-1069.32;2727.358;5.142899;7.349282;3611.155;3596.657;0.07984254;0.1625521;0;
4285.118;4284.459;-400.4248;4097.177;7.213836;8.011726;4292.62;4287.944;0.2746643;0.2923235;0;
580.4844;577.5153;702.0798;780.0383;5.93379;8.07066;567.4268;572.9384;0.209421;0.03216038;0;
1031.112;1029.957;2152.458;1126.767;6.329969;1.632311;1021.503;1028.446;0.3391453;-0.2277413;0;
-3864.964;-3868.553;2379.835;-3246.886;7.596406;-0.3786956;-3885.495;-3873.936;0.5986739;-0.09757778;0;
-14056.99;-14054.14;1498.167;-13093.64;-9.022994;2.30088;-14086.74;-14071.23;0.4681376;0.03245495;0;
-15442.91;-15426.04;607.078;-15157.44;-14.17149;1.561756;-15447.4;-15442.02;-0.2469735;0.03242234;0;
-11829.89;-11809.97;-523.6202;-11960.15;-5.717158;4.105538;-11813.13;-11819.28;-0.6365294;-0.09754492;0;
-12343.11;-12325.93;-1931.011;-12377.33;-7.520075;5.708881;-12327.87;-12335.61;-0.1811184;-0.2923489;0;
-8013.691;-7993.815;-2207.993;-8539.625;0.9939477;2.421103;-7988.16;-7998.828;0.3388023;-0.2270878;0;
1337.946;1352.523;-1415.828;489.9216;5.81572;3.423414;1370.135;1357.698;0.4034292;-0.3567944;0;
1990.398;1991.905;-758.0791;1804.768;-8.122574;2.884111;1997.255;1995.263;0.01321978;-0.4214032;0;
-1628.909;-1628.965;342.3799;-1436.667;-10.39159;2.747247;-1640.487;-1633.919;-0.05176084;-0.2910451;0;
-1115.28;-1113.149;1798.335;-1013.873;3.953445;10.0455;-1123.16;-1117.411;0.5329972;-0.2257853;0;
-6064.233;-6064.667;2029.536;-5427.822;7.231027;12.11176;-6082.163;-6072.797;0.7273637;-0.09562373;0;
-16261.07;-16255.32;1144.878;-15288.32;-0.2783275;13.17132;-16286.39;-16274.66;0.2718615;0.2293091;0;
-17648.53;-17630.38;241.8995;-17363.9;-0.076977;15.43538;-17650.33;-17648.01;-0.1182158;0.4239807;0;
-14068.15;-14047.58;-906.9225;-14200.44;1.263247;12.74067;-14051.3;-14057.11;-0.05312963;0.29362;0;
-14543.11;-14524.41;-2324.892;-14579.1;0.8598361;12.92882;-14526.87;-14534.36;0.01189109;0.09842294;0;
-10174.62;-10153.38;-2592.42;-10700.83;5.346951;11.64316;-10148.03;-10159.67;-0.1180555;0.1632914;0;
-801.076;-784.7894;-1783.158;-1647.75;7.417683;9.62209;-766.6094;-780.6673;0.01199777;-0.1617094;0;
-117.4268;-113.5253;-1114.733;-299.9585;2.320015;14.56904;-105.8583;-110.1571;-0.117949;-0.2265143;0;
-3767.162;-3765.638;-6.138067;-3567.421;1.714471;14.48741;-3776.469;-3769.332;-0.1827978;-0.03138465;0;
-3291.614;-3288.03;1452.291;-3184.09;6.53552;11.65957;-3299.163;-3291.908;0.0122879;-0.2262551;0;
-8234.164;-8232.614;1671.471;-7594.703;6.796396;11.98277;-8250.576;-8241.423;0.0772429;-0.6158319;0;
-18388.09;-18379.42;774.5853;-17410.91;9.402512;5.205579;-18412.58;-18399.03;0.1421326;-0.4852784;0;
-19740.46;-19718.84;-133.3932;-19452.98;10.86596;3.793829;-19740.81;-19737.43;0.07702247;0.09991533;0;
-16157.48;-16133.6;-1282.15;-16291.32;6.635479;4.660795;-16137.4;-16144.7;0.2068798;0.489619;0;
-16520.18;-16497.07;-2690.31;-16567.71;6.29402;3.584385;-16501.37;-16509.44;0.3366066;0.1642903;0;
-12064.43;-12039.32;-2959.751;-12601.71;5.684483;10.54676;-12036.37;-12049.4;-0.0535357;-0.09574416;0;
-2832.259;-2814.041;-2166.831;-3673.652;5.142908;11.94281;-2798.035;-2812.961;-0.443286;0.2941561;0;
-2239.335;-2232.442;-1501.174;-2421.151;5.338811;14.67711;-2229.508;-2232.925;-0.3129058;0.4237952;0;
-5895.996;-5890.421;-407.5273;-5700.912;5.333447;16.67173;-5905.794;-5899.15;-0.2476241;0.2284674;0;
-5486.836;-5479.269;1020.477;-5374.189;7.405168;13.57388;-5493.814;-5486.489;-0.3123426;0.09830312;0;
-10341.16;-10335.94;1247.493;-9711.325;8.736898;13.22533;-10358.41;-10346.91;0.07777525;0.03323699;0;
-20367.45;-20355.58;377.5202;-19407;9.532402;9.662066;-20393.95;-20378.21;0.5324684;0.09817095;0;
-21731.35;-21706.03;-524.4684;-21441.69;10.59455;7.575887;-21733.65;-21729.27;0.4669661;-0.09682973;0;
-18185.72;-18157.87;-1686.295;-18313.02;10.784;6.161633;-18167.09;-18174.55;0.01172553;-0.09673244;0;
-18613.47;-18587.49;-3111.508;-18656.84;9.635065;4.614956;-18596.05;-18603.88;-0.2481556;0.0982668;0;
-14116.93;-14088.97;-3373.186;-14654.16;14.38081;1.864019;-14090.68;-14101.25;-0.377841;-0.1617013;0;
-4708.745;-4686.629;-2560.578;-5558.529;13.22728;0.3215384;-4675.563;-4689.304;-0.05262459;-0.1615388;0;
-4022.543;-4011.757;-1876.254;-4206.465;12.41068;3.201481;-4012.696;-4016.928;0.1423303;0.09849285;0;
-7602.075;-7592.799;-742.0632;-7409.407;13.26887;3.265247;-7612.759;-7605.961;-0.5074861;0.1633612;0;
-7093.813;-7082.797;720.3227;-6994.292;-6.235644;6.075128;-7103.487;-7095.696;-0.1821395;0.09822974;0;
-12024.08;-12016.32;941.5498;-11392.71;-11.38694;7.14075;-12044.71;-12033.14;0.4027496;0.09813104;0;
-22134.69;-22121.41;64.3567;-21168.99;-13.38523;8.942115;-22164.01;-22149.65;0.3373776;0.03306508;0;
-23420.45;-23394.28;-830.1334;-23144.1;-20.00322;11.07646;-23426.84;-23422.12;0.3370386;-0.03193548;0;
-19845.11;-19816.31;-1992.683;-19978.51;-0.2235171;3.898402;-19833.82;-19837.06;0.1417979;0.1629986;0;
-20217.13;-20189.55;-3400.566;-20261.38;3.862544;2.554826;-20207.6;-20212.05;-0.05324661;-0.2919365;0;
-15580.01;-15549.27;-3631.156;-16124.65;-5.986974;5.298437;-15559.62;-15568.16;0.01177423;-0.4865452;0;
-6163.514;-6138.776;-2809.513;-7015.678;-5.043929;4.623406;-6136.462;-6147.216;-0.05320494;-0.0962523;0;
-5469.104;-5456.697;-2110.352;-5658.838;-2.359544;7.16399;-5465.693;-5466.94;0.1417505;-0.2910576;0;
-8991.43;-8981.596;-946.7844;-8802.788;0.4558664;7.826621;-9007.387;-8998.669;0.2715428;-0.3557325;0;
-8508.758;-8498.028;527.9574;-8407.544;-10.12716;7.282893;-8523.45;-8514.179;-0.05356676;-0.2904077;0;
-13359.98;-13351.2;753.532;-12745.38;-12.52886;8.213336;-13385.03;-13372.33;-0.1184803;-0.03024654;0;
-23329.26;-23314.02;-112.7901;-22384.66;-3.339244;5.927663;-23362.72;-23347.22;0.01157346;0.2946206;0;
-24584.21;-24556.43;-995.5767;-24315.06;-3.670681;5.184895;-24592.99;-24589.13;-0.3782422;0.1643898;0;
-20976.15;-20945.24;-2147.872;-21119.19;8.857962;7.79202;-20963.62;-20971.38;-0.2479275;0.03428998;0;
-21299.56;-21270.09;-3553.381;-21356.68;15.74891;7.650224;-21288.85;-21297.48;0.1421257;0.09922288;0;
-16629.24;-16598.24;-3781.538;-17184;-1.749335;7.977452;-16609.86;-16620.36;-0.2478212;0.1640905;0;
-7161.627;-7137.372;-2952.653;-8019.393;-3.757309;8.103402;-7136.519;-7147.533;0.2071992;0.0989583;0;
-6419.55;-6407.313;-2260.72;-6611.851;8.370255;3.607525;-6418.018;-6419.401;0.7267298;0.03389151;0;
-9859.555;-9848.955;-1108.026;-9684.503;9.701015;1.460447;-9874.703;-9870.088;-0.3134779;0.2287595;0;
-9269.471;-9258.476;367.3147;-9187.485;9.557546;3.468467;-9282.043;-9278.4;-0.3781303;0.09859496;0;
-14131.52;-14122.91;586.0543;-13518.32;11.08916;2.192306;-14154.73;-14144.38;0.4018578;0.03352853;0;
-24164.24;-24147.42;-292.2809;-23215.64;9.202007;-0.2212821;-24193.46;-24180.24;-0.2482194;0.09846219;0;
-25356;-25326.18;-1185.382;-25093.04;9.393831;-1.359648;-25360.14;-25359.4;-0.7027414;0.09836326;0;
-21674.43;-21642.23;-2359.787;-21817.18;9.451741;-5.91306;-21659.41;-21667.1;-0.3771986;0.2931665;0;
-22041.8;-22011;-3789.165;-22093.11;8.370518;-8.184477;-22029.14;-22035.48;-0.4417869;0.09796985;0;
-17350;-17316.98;-4015.336;-17908.04;11.30887;-7.037543;-17327.82;-17337.31;-0.3114083;-0.09703063;0;
-7778.74;-7751.822;-3169.225;-8647.157;10.02471;-7.499352;-7748.751;-7762.511;0.01374129;0.03300155;0;
-7011.431;-6996.721;-2469.578;-7213.153;12.15809;-9.63521;-7005.585;-7010.835;0.07869483;-0.2918683;0;
-10373.88;-10361.12;-1298.621;-10207.65;12.95015;-10.22837;-10387.59;-10382.03;0.01364841;-0.3565424;0;
-9590.751;-9576.568;206.3027;-9525.478;0.7460044;-7.73979;-9601.732;-9594.114;0.07860204;0.2934893;0;
-14345.09;-14333.61;432.9502;-13751.18;-2.067784;-7.330115;-14367.43;-14354.67;0.4683271;0.3581617;0;
-24416.98;-24399.14;-455.3511;-23478.16;-4.611302;-5.447289;-24447.83;-24432.33;0.4028892;-0.03200221;0;
-25695.11;-25664.57;-1358.596;-25431.29;-7.620779;-4.102218;-25701.87;-25696.97;-0.05228703;0.2278993;0;
-22176.01;-22143.01;-2540.76;-22308.76;-1.785972;-7.44712;-22163.75;-22168.23;0.0777002;0.03276829;0;
-22721.95;-22690.22;-3978.983;-22765.29;-1.180965;-8.511364;-22711.22;-22717.57;-0.05231256;0.03273537;0;
-17974.52;-17939.71;-4218.238;-18543.28;0.8963264;-4.55088;-17952.06;-17963.31;-0.5070314;0.4874739;0;
-8158.542;-8130.291;-3360.616;-9047.818;2.301945;-3.541625;-8127.769;-8141.19;-0.3116199;0.1621474;0;
-7205.444;-7190.402;-2615.268;-7424.757;2.701774;-10.16919;-7199.876;-7202.165;-0.1813721;-0.03291761;0;
-10502.54;-10490.08;-1422.989;-10352.04;1.962125;-11.49863;-10517.06;-10510.26;-0.3111245;-0.09785187;0;
-9785.657;-9772.424;68.25496;-9722.543;6.381759;-9.410609;-9798.104;-9791.307;-0.3757793;-0.1627209;0;
-14651.47;-14640.87;292.1675;-14047.41;7.513446;-9.803051;-14676.3;-14663.73;-0.440369;0.4221487;0;
-24660.96;-24643.22;-572.9725;-23722.64;-4.416821;-9.726217;-24695.42;-24679.39;0.1447795;0.4866919;0;
-25735.16;-25704.79;-1430.872;-25487.28;-6.422115;-10.92214;-25744.25;-25739.68;0.5344381;-0.1634706;0;
-21968.33;-21935.99;-2562.521;-22131.72;-16.32865;-5.887565;-21955.55;-21961.73;0.1440971;-0.3582084;0;
-22253.23;-22222.36;-3954.87;-22331.37;-22.67525;-5.21182;-22241.87;-22248.98;-0.4407538;-0.03301173;0;
-17417.73;-17384.61;-4146.984;-18006.09;-9.791746;-8.756618;-17397.41;-17408.67;-0.5702456;0.2918582;0;
-7718.125;-7691.973;-3266.789;-8616.681;-9.648186;-8.144972;-7691.147;-7705.762;-0.0499339;0.1616302;0;
-6854.956;-6841.355;-2522.754;-7079.666;-6.490659;-18.117;-6852.399;-6854.881;0.5348223;0.03153311;0;
-10230.96;-10219.72;-1318.667;-10074.08;-1.795088;-21.11297;-10248.02;-10239.16;0.01454623;-0.09843325;0;
-9605.396;-9593.07;200.9261;-9537.061;-12.97907;-16.20212;-9620.41;-9611.498;-0.5052071;-0.423171;0;
-14271.43;-14261.49;483.2385;-13685.51;-13.36817;-16.05188;-14297.29;-14283.24;-0.0499281;-0.3577785;0;
-23946.81;-23930.76;-313.753;-23038.4;-5.115713;-14.16022;-23979.9;-23962.82;0.3399261;-0.357419;0;
-24919.96;-24891.31;-1126.81;-24687.22;-3.369261;-12.8064;-24926.75;-24921.75;0.2096499;-0.1621578;0;
-21200.91;-21169.13;-2221.752;-21359.95;-0.8876287;-9.511428;-21187.38;-21192.23;0.2094392;0.2278091;0;
-21498.57;-21468.57;-3581.554;-21570.03;0.5197827;-9.03299;-21486.09;-21492.65;0.07929409;-0.1622238;0;
-16545.6;-16513.66;-3738.406;-17136.82;4.873517;-2.258821;-16520.8;-16533;-0.2456223;-0.09709347;0;
-6681.801;-6656.331;-2824.388;-7588.299;7.212169;-0.5149949;-6649.028;-6663.656;0.07946122;0.09790613;0;
-5733.311;-5720.547;-2058.246;-5964.299;3.052712;-6.743768;-5724.84;-5728.927;0.1443487;-0.1620616;0;
-9043.54;-9033.35;-836.2912;-8893.269;2.914947;-6.603026;-9054.692;-9048.749;-0.1156657;0.09797059;0;
-8290.951;-8279.835;709.179;-8234.253;1.640196;-21.60026;-8300.375;-8292.157;0.2092872;0.0329048;0;
-12870.97;-12862.46;1013.157;-12291;0.8342649;-27.47287;-12890.82;-12877.7;0.2740443;-0.3569323;0;
-22609.26;-22594.48;205.3258;-21697.01;-1.778542;-22.08676;-22636.58;-22621.7;0.07886691;0.03323038;0;
-23576.45;-23549.56;-617.6232;-23354.92;-4.32235;-25.07874;-23578.63;-23575.11;0.01382032;-0.0967377;0;
-19651.97;-19622.4;-1696.179;-19838.56;1.107977;-18.15448;-19633.66;-19640.04;0.07877377;-0.7463139;0;
-19884.07;-19855.96;-3064.099;-19971.39;0.5036509;-16.05982;-19867.25;-19875.18;0.01372728;-0.4856946;0;
-15010.43;-14980.42;-3246.708;-15609.07;1.307428;-19.86159;-14984.26;-14995.12;-0.1162212;-0.09540256;0;
-5090.612;-5067.589;-2332.122;-6008.545;2.511563;-18.76997;-5058.778;-5069.94;0.2087323;-0.160274;0;
-4076.504;-4066.248;-1570.754;-4320.634;-9.682098;-17.6124;-4068.315;-4070.346;0.4034246;0.1647237;0;
-7378.872;-7370.874;-362.6574;-7237.856;-14.093;-16.12114;-7390.056;-7383.589;0.4030192;0.4893949;0;
-6661.72;-6652.575;1170.343;-6601.962;-7.112614;-17.04264;-6672.299;-6664.777;0.3376469;0.3589685;0;
-11218.79;-11211.78;1466.955;-10641.58;-7.64133;-15.7529;-11239.89;-11229.1;-0.2473984;0.09873842;0;
-20691.01;-20677.69;695.4615;-19799.68;-12.188;-14.53138;-20720.64;-20706.39;-0.4420519;0.03367186;0;
-21451.35;-21426.18;-89.09328;-21246.08;-12.10938;-13.04322;-21457.06;-21451.57;0.07813105;-0.09629666;0;
-17531.88;-17504.77;-1158.31;-17727.46;-14.9776;-9.547058;-17516.53;-17521.26;0.2079872;-0.2261346;0;
-17674.84;-17649.72;-2505.593;-17778.64;-15.09628;-7.929936;-17661.38;-17667.82;0.3377129;-0.09597268;0;
-12716.38;-12690.13;-2686.702;-13328.91;-11.26271;-1.625694;-12693.09;-12704.84;0.2074389;0.03405844;0;
-2901.997;-2882.647;-1797.354;-3821.166;-10.44809;0.9881514;-2870.614;-2886.345;0.01232844;0.1639589;0;
-1971.36;-1964.586;-1045.269;-2217.412;-1.997499;2.326817;-1963.434;-1969.904;0.2721854;0.03385947;0;
-5335.063;-5330.856;142.7468;-5197.779;1.487132;4.735865;-5347.384;-5343.104;0.2719119;-0.1610766;0;
-4713.449;-4708.372;1651.345;-4658.574;1.552987;-1.565167;-4725.571;-4718.046;-0.053198;0.0339873;0;
-9291.94;-9289.461;1952.44;-8726.472;4.297117;-2.970236;-9314.576;-9302.811;0.1417575;0.4237572;0;
-18880.15;-18871.49;1166.934;-17992.67;-0.6636938;-0.3549175;-18909.39;-18897.01;0.2065824;0.3583641;0;
-19764.63;-19743.8;363.1652;-19559.7;-1.734754;-0.7564585;-19768.7;-19767.61;-0.05349456;0.2280693;0;
-15812.88;-15789.35;-695.9488;-16012.22;0.3440702;-3.30105;-15797.88;-15805.2;-0.2483428;-0.03202924;0;
-16071.57;-16049.56;-2056.065;-16167.3;-0.6616296;-4.637331;-16058.59;-16065.83;-0.378028;-0.4867684;0;
-11175.03;-11151.3;-2236.408;-11789.96;-0.7946866;-2.020398;-11150.19;-11162.39;-0.3126808;-0.421312;0;
-1133.718;-1116.817;-1303.347;-2073.525;-0.9949589;-2.889146;-1099.785;-1115.817;0.2073721;-0.1610193;0;
-113.5909;-110.2623;-531.4875;-366.018;-3.137413;-0.005976467;-104.9296;-110.4507;0.1421964;-0.09589016;0;
-3474.912;-3473.336;682.093;-3338.125;-3.134261;0.9986515;-3487.374;-3482.082;-0.2477505;-0.09579381;0;
-2697.622;-2693.799;2233.253;-2654.238;-2.527899;-5.767445;-2706.885;-2701.349;0.01236779;-0.03073021;0;
-7187.435;-7186.957;2543.976;-6633.507;-1.654703;-6.833316;-7206.465;-7197.499;0.14229;0.1642027;0;
-16706.83;-16700.7;1779.459;-15829.03;-1.92146;-8.90286;-16734.68;-16722.66;0.2720818;-0.160799;0;
-17477.46;-17459.5;1014.742;-17282.67;-2.656463;-10.03262;-17482.17;-17480.91;0.3367757;-0.6803762;0;
-13482.68;-13462.99;-25.06762;-13696.25;10.60907;-10.49142;-13468.58;-13477.22;0.27147;-0.2249211;0;
-13619.59;-13601.6;-1342.224;-13734.09;16.09077;-11.41858;-13607.63;-13615.67;0.5310665;0.2300763;0;
-8694.215;-8673.997;-1487.083;-9314.439;2.276847;-5.847708;-8671.365;-8683.456;0.2056962;0.2298451;0;
1179.656;1193.825;-570.5801;244.401;0.5322707;-4.703122;1210.26;1195.183;-0.05437981;0.3595488;0;
2149.608;2151.019;203.1983;1894.201;8.971829;0.1912965;2155.318;2151.5;-0.1192925;0.2942202;0;
-1235.039;-1236.191;1426.692;-1105.008;9.431329;4.611856;-1249.325;-1243.519;-0.379042;0.3588919;0;
-451.1916;-450.5303;2974.198;-419.1796;7.212026;-6.243769;-463.8384;-457.5385;-0.2487265;0.3585313;0;
-4837.596;-4839.871;3292.798;-4295.279;7.13743;-7.979052;-4861.974;-4850.745;0.01139282;0.163269;0;
-14440.66;-14437.9;2498.793;-13562.9;4.652012;0.5355541;-14474.13;-14459.1;0.5311201;0.2280723;0;
-15326.1;-15311.32;1676.101;-15129.29;3.240818;0.4010501;-15335.05;-15330;0.4006518;0.4227452;0;
-11390.23;-11372.63;578.4675;-11595.57;6.251671;0.4676301;-11377.84;-11383.73;0.01044512;0.03251632;0;
-11837.21;-11820.5;-831.6552;-11927.19;6.914975;-0.6044447;-11826.3;-11833.41;0.3352713;-0.3573204;0;
-7053.499;-7034.429;-1038.996;-7667.148;1.885161;-1.876513;-7033.231;-7043.104;0.07506509;-0.03212465;0;
3086.651;3098.487;-124.755;2130.853;0.2756763;-3.348252;3113.833;3102.689;-0.249847;0.422679;0;
4137.77;4135.726;610.4697;3872.461;5.767756;-10.17696;4140.437;4138.862;0.07524071;0.09741762;0;
751.3121;746.584;1783.704;873.3876;6.632617;-12.71203;734.5484;741.5334;0.3350345;-0.617321;0;
1612.062;1608.588;3300.835;1634.315;3.879286;-19.2634;1596.814;1606.228;0.2047631;-0.4867661;0;
-2962.822;-2968.791;3563.104;-2405.704;4.076458;-22.05727;-2989.299;-2976.021;-0.1852466;-0.1614403;0;
-12749.3;-12748.92;2713.105;-11858.38;2.733192;-22.70493;-12784.15;-12770.54;-0.05512583;-0.0963107;0;
-13755.66;-13743.07;1830.572;-13553.42;1.792441;-24.42361;-13766.31;-13761.61;0.2697663;0.1636554;0;
-10020.15;-10005.45;664.7236;-10216.66;5.139542;-14.68679;-10011.04;-10014.07;0.00962584;-0.1613457;0;
-10400.79;-10387.57;-772.0975;-10499.77;6.072383;-10.92111;-10393;-10397.65;-0.1852859;-0.421053;0;
-5483.495;-5467.104;-1002.049;-6106.333;2.38161;-10.97712;-5464.345;-5472.893;-0.250067;0.1640762;0;
4550.005;4560.102;-132.0107;3598.615;2.245495;-7.817954;4577.6;4566.563;0.07502095;0.293846;0;
5541.745;5538.338;586.9482;5272.53;2.712729;-2.585552;5544.7;5543.23;0.2698476;0.03368139;0;
2130.451;2124.549;1742.246;2252.123;2.106791;1.636849;2113.288;2121.44;-0.2501623;-0.2911892;0;
2755.558;2750.786;3196.545;2794.524;4.783991;-1.981752;2739.599;2748.992;-0.3148783;-0.4208313;0;
-1990.389;-1997.655;3403.727;-1429.225;4.578114;-1.108983;-2017.202;-2004.07;-0.0546925;0.229265;0;
-11765.44;-11766.17;2528.183;-10881.19;5.176726;0.4997219;-11799.66;-11783.67;-0.05463754;0.488904;0;
-12789.23;-12777.43;1615.85;-12583.12;4.769383;-0.7064731;-12799.42;-12792.1;-0.11955;-0.1612607;0;
-8922.406;-8907.938;431.727;-9124.831;1.482061;6.99703;-8912.104;-8915.25;-0.3792992;-0.09613129;0;
-9207.73;-9194.838;-1012.231;-9310.783;0.007679237;8.530607;-9199.531;-9203.954;-0.3139508;0.4237041;0;
-4550.065;-4534.062;-1262.213;-5151.482;-5.886827;1.689898;-4531.473;-4538.796;-0.1837006;0.1634089;0;
5273.696;5283.999;-420.5233;4347.172;-9.364511;0.6164732;5302.202;5291.887;-0.3784181;-0.4864286;0;
6168.195;6165.431;249.7188;5921.261;-8.082305;-2.666188;6172.31;6172.313;0.01176622;-0.4209726;0;
2505.085;2500.138;1368.843;2653.076;-8.944839;-4.806902;2488.206;2497.892;0.3365911;0.03422182;0;
2970.52;2967.452;2823.298;3028.845;-15.09779;-7.548311;2956.345;2965.208;0.1413509;0.1641221;0;
-1822.245;-1827.996;3014.926;-1243.74;-17.62822;-10.82283;-1846.963;-1833.985;-0.05369318;0.09898988;0;
-11699.39;-11698.6;2115.753;-10792.75;-10.97907;-6.056227;-11731.95;-11715.33;-0.1835739;-0.03104429;0;
-12786.51;-12773.18;1191.185;-12559.61;-10.49953;-6.92092;-12794.22;-12787.45;0.1414472;0.0989216;0;
-9126.625;-9110.927;-17.6552;-9297.996;-12.29764;-8.320607;-9115.546;-9117.91;-0.0535969;0.03385485;0;
-9678.953;-9664.396;-1483.713;-9749.766;-13.15594;-8.714084;-9670.447;-9673.776;-0.7681838;0.09878819;0;
-5093.06;-5075.986;-1739.031;-5676.886;-9.726467;-13.99686;-5073.755;-5081.11;-0.7024446;0.2286236;0;
4581.51;4591.82;-882.9626;3678.556;-8.176453;-15.65737;4608.229;4598.57;-0.1170327;-0.09644283;0;
5270.371;5268.301;-182.3959;5052.667;-17.8128;-18.65574;5273.075;5272.67;0.4028236;0.03358876;0;
1489.285;1485.781;943.2529;1670.038;-17.9296;-20.24459;1472.684;1481.588;0.2075168;0.228457;0;
1718.922;1717.483;2382.8;1820.283;-24.34097;-21.02804;1703.213;1713.857;0.142341;-0.03164189;0;
-3259.99;-3263.677;2573.121;-2648.613;-27.3316;-21.47573;-3286.366;-3270.423;0.4020673;-0.5513488;0;
-13183.51;-13181.5;1673.143;-12248.5;-14.04127;-19.17679;-13216.98;-13198.3;0.2717287;-0.6807295;0;
-14455.43;-14440;735.6823;-14194.05;-12.3532;-18.15284;-14463.56;-14456.9;0.2064883;0.1645299;0;
-10878.44;-10859.65;-480.04;-11032.96;-1.355099;-12.84307;-10865.99;-10869.73;0.01137877;0.4892013;0;
-11346.21;-11329.22;-1950.068;-11406.31;5.879931;-9.815997;-11335.33;-11341.26;0.141302;-0.03102897;0;
-6863.211;-6843.459;-2226.125;-7420.691;-4.240034;-10.81082;-6842.503;-6852.517;0.7258661;0.09893691;0;
2693.01;2707.12;-1405.175;1816.532;-2.427112;-10.19717;2720.131;2710.565;0.1404307;0.2287722;0;
3345.85;3347.077;-735.9428;3148.661;-1.956159;-4.962376;3347.644;3348.707;-0.4444165;-0.1612618;0;
-529.2536;-531.2761;368.5856;-332.192;-3.02592;-3.3498;-547.8261;-538.5803;-0.2490679;-0.2910344;0;
-297.0883;-297.4221;1797.747;-188.2429;4.947723;-9.910639;-312.831;-303.532;-0.3787523;-0.1608073;0;
-5221.97;-5223.772;1982.909;-4604.677;6.282898;-11.57519;-5247.567;-5233.999;0.01143229;0.164191;0;
-15180.4;-15175.36;1066.032;-14247.23;2.057026;-11.89848;-15214.41;-15197.29;0.4012249;0.2939607;0;
-16394.88;-16376.72;109.0668;-16150.89;0.513742;-13.22618;-16403.7;-16397.19;-0.1838844;-0.09613872;0;
-12808.63;-12787.28;-1126.516;-12966.57;4.666412;-15.89209;-12797.09;-12800.11;-0.05376492;-0.2909442;0;
-13523.49;-13503.35;-2644.245;-13568.1;5.130237;-17.41673;-13515.39;-13518.41;0.5959625;-0.09574978;0;
-9120.233;-9097.704;-2968.674;-9677.326;0.5033821;-15.52376;-9102.085;-9110.192;0.1405923;-0.03068623;0;
668.7332;685.2429;-2153.349;-229.7523;2.244189;-15.57515;695.7031;683.9801;-0.5741897;0.09927931;0;
1521.57;1525.132;-1468.966;1296.961;-11.55582;-13.21509;1523.463;1522.309;-0.4436781;0.03421219;0;
-2273.24;-2272.617;-366.1684;-2098.573;-16.36698;-11.86222;-2292.151;-2283.621;0.4663105;-0.03078953;0;
-2021.769;-2019.46;1031.997;-1930.048;1.265613;-11.51538;-2038.724;-2029.453;0.5957766;0.03420875;0;
-6910.56;-6910.596;1174.763;-6310.656;1.800204;-9.896285;-6938.368;-6924.578;0.07543926;-0.0957603;0;
-16760.26;-16753.98;240.2389;-15842.96;11.51031;-11.7618;-16795.94;-16779.35;0.1403308;-0.1606314;0;
-17870.04;-17850.31;-707.4637;-17639.16;16.32152;-12.15188;-17879.76;-17873.37;-0.1846469;0.1643667;0;
-14122.42;-14099.5;-1935.948;-14306.79;6.057338;-7.116073;-14110.71;-14113.88;-0.4443308;0.3591036;0;
-14584.46;-14563.65;-3460.766;-14663.66;7.122978;-6.104179;-14575.26;-14579.24;-0.05408023;0.2937754;0;
-10110.14;-10087.04;-3808.394;-10690.89;-7.0177;-9.64808;-10091.2;-10099.06;0.1408761;-0.09632386;0;
-364.9093;-347.8913;-3017.712;-1284.619;-13.57473;-10.71005;-337.2742;-348.0869;0.07576723;-0.5509984;0;
565.5523;569.3723;-2358.822;320.7405;-1.571025;-10.56532;569.2967;567.3654;0.2705931;-0.09567342;0;
-3154.021;-3152.642;-1301.92;-2995.165;-1.167305;-12.29626;-3170.958;-3164.454;0.4652233;0.2292594;0;
-2830.014;-2826.823;73.38538;-2759.085;-6.994257;-11.01123;-2846.371;-2838.062;0.5297231;-0.03084031;0;
-7654.244;-7652.962;242.5391;-7072.956;-6.585087;-10.46437;-7681.673;-7666.532;0.3342889;-0.2257113;0;
-17484.7;-17476.21;-668.9653;-16581.32;-5.305673;-20.16613;-17519.41;-17500.76;-0.1208184;-0.5503212;0;
-18539.22;-18517.55;-1616.379;-18324.33;-5.702484;-22.35625;-18547.38;-18540.61;0.009237647;-0.3548663;0;
-14744.68;-14720.31;-2838.765;-14942.3;6.829177;-19.52056;-14731.99;-14734.51;0.3340651;0.03529436;0;
-15158.93;-15136.99;-4348.902;-15250.5;11.10922;-20.43871;-15149.22;-15151.55;0.07386003;0.03525889;0;
-10683.53;-10659.65;-4703.727;-11267.76;7.012223;-13.92095;-10664;-10670.72;0.1387532;0.1651582;0;
-1059.221;-1041.081;-3937.633;-1966.984;10.62152;-11.83055;-1031.368;-1041.337;0.0736464;0.1000249;0;
-130.6229;-125.5574;-3262.108;-371.4021;-1.579311;-12.01961;-125.9738;-127.6873;0.0735724;-0.09497768;0;
-3717.876;-3716.126;-2150.012;-3557.771;-5.195046;-10.80184;-3733.721;-3725.313;0.2034332;-0.09488224;0;
-3460.58;-3456.896;-750.1169;-3371.194;8.340482;-11.32685;-3475.785;-3464.137;0.3981308;-0.1597542;0;
-8415.298;-8412.805;-578.8551;-7813.385;9.270106;-11.71737;-8440.639;-8424.599;0.4626981;-0.02965904;0;
-18155.5;-18146.24;-1473.698;-17241.95;10.13145;-10.43292;-18186.72;-18168.92;-0.1224729;0.1003055;0;
-19098.59;-19077.06;-2399.252;-18875.73;11.46044;-9.350768;-19103.45;-19096.84;-0.3822192;-0.02973003;0;
-15314.04;-15290.09;-3591.771;-15498.54;11.51627;-21.26403;-15298.53;-15302.83;-0.05699847;-0.2895695;0;
-15648.89;-15626.12;-5050.771;-15730.57;12.91122;-24.92666;-15635.54;-15640.31;0.2029282;-0.2243112;0;
-11051.59;-11025.91;-5354.291;-11627.91;5.128715;-18.87328;-11028.55;-11036.06;-0.0571451;0.2306856;0;
-1401.737;-1382.42;-4571.427;-2299.47;2.042102;-20.52882;-1371.002;-1380.879;-0.3819244;0.4253558;0;
-468.3591;-462.4927;-3906.915;-700.5244;5.388953;-12.00161;-462.143;-462.2648;0.008263424;0.165059;0;
-4144.666;-4141.678;-2807.821;-3974.924;2.50315;-7.970634;-4158.883;-4150.196;-0.1216796;-0.09497619;0;
-3781.244;-3775.886;-1375.874;-3698.567;5.850513;-20.82304;-3792.136;-3783.458;-0.5113614;0.03505392;0;
-8451.033;-8447.617;-1140.484;-7860.726;6.380498;-23.21344;-8472.378;-8458.555;0.2687606;0.1649534;0;
-18282.85;-18273.87;-2010.651;-17356.71;-5.012767;-15.82218;-18313.13;-18295.67;0.3984252;0.03485296;0;
-19304.23;-19281.75;-2916.08;-19075.21;-7.017462;-17.41387;-19308.35;-19302.24;-0.2516485;-0.1600841;0;
-15435.08;-15409.06;-4085.998;-15624.51;-10.8288;-12.77461;-15418.98;-15422.04;-0.2513957;-0.1599232;0;
-15989.97;-15966.07;-5559.4;-16058.56;-14.03213;-10.41744;-15976.58;-15980.03;0.138661;-0.02982786;0;
-11438.81;-11412.28;-5846.635;-12018.01;-4.574533;-27.6882;-11414.44;-11423.79;0.3334236;0.1651042;0;
-1473.728;-1453.121;-4996.029;-2399.01;-2.225412;-31.88018;-1441.38;-1454.721;0.2681213;0.2948729;0;
-350.1866;-343.1552;-4260.532;-604.6565;-4.500352;-26.95852;-342.8577;-346.6907;0.1379172;0.2296093;0;
-3780.423;-3777.146;-3082.217;-3640.616;-2.687169;-28.07008;-3794.591;-3789.174;0.007843931;0.1644112;0;
-3288.682;-3284.285;-1598.801;-3220.48;2.405746;-27.3721;-3302.023;-3295.238;-0.1220986;0.1642461;0;
-8170.578;-8168.278;-1347.851;-7570.087;6.020651;-26.60779;-8195.275;-8182.719;0.2678281;-0.03082103;0;
-17981.12;-17972.29;-2174.456;-17064.89;3.402633;-23.76783;-18013.88;-17998.25;0.5274283;0.2940467;0;
-18893.62;-18871.65;-3054.546;-18676.68;4.336244;-22.33737;-18899.77;-18896.2;-0.3176771;0.6835552;0;
-15093.34;-15068.5;-4235.631;-15277.08;8.752516;-18.6979;-15078.97;-15084.65;-0.7721292;-0.161707;0;
-15593.33;-15569.69;-5693.641;-15663.12;9.07949;-17.27254;-15582.34;-15587.73;-0.4465167;-0.6812833;0;
-10946.83;-10920.5;-5959.533;-11534.42;12.08448;-14.57592;-10926.39;-10936.09;-0.251166;-0.03092531;0;
-1016.879;-997.0396;-5104.253;-1947.422;12.27341;-12.55179;-988.897;-1002.245;0.008955735;0.3589098;0;
75.84431;82.29528;-4362.713;-182.8511;8.777472;-22.11755;80.30966;76.22074;0.3337834;0.3585492;0;
-3294.413;-3291.217;-3168.084;-3159.359;7.161062;-24.7076;-3310.317;-3304.469;0.138546;0.0333522;0;
-2814.467;-2809.713;-1673.276;-2748.327;4.94404;-23.61105;-2829.293;-2822.514;-0.0564952;-0.1615833;0;
-7731.385;-7728.759;-1427.998;-7139.294;4.536931;-25.59675;-7756.816;-7744.578;0.008528904;-0.09645364;0;
-17496.46;-17487.9;-2261.831;-16590.74;-7.390346;-25.97293;-17530.17;-17514.41;-0.3812837;-0.3562261;0;
-18345.28;-18323.52;-3125.841;-18130.35;-11.80355;-26.75063;-18353.35;-18349.6;-0.3159333;-0.2259335;0;
-14325.27;-14300.84;-4263.846;-14527.84;-4.558021;-26.58978;-14312.21;-14318.4;0.07418824;-0.09577177;0;
-14582.61;-14560.43;-5687.593;-14681;-6.495824;-26.4291;-14571.66;-14578.69;-0.250723;-0.09567554;0;
-9956.682;-9932.834;-5953.023;-10546.79;4.227973;-26.60349;-9935.905;-9948.017;-0.1855037;0.03435528;0;
-177.8377;-160.8854;-5122.457;-1095.72;8.041142;-27.17961;-149.273;-164.7462;0.269454;-0.03064658;0;
854.947;859.8882;-4389.987;606.0887;-1.009269;-22.86545;858.6829;854.657;0.3341506;-0.03061579;0;
-2541.206;-2538.83;-3182.15;-2396.667;-0.5397399;-21.63684;-2558.9;-2551.49;0.008978174;-0.2254871;0;
-2186.579;-2183.644;-1699.571;-2110.933;-5.227271;-25.49999;-2201.944;-2194.042;-0.1209655;-0.4851298;0;
-7131.208;-7130.4;-1478.692;-6538.21;-7.499194;-25.3404;-7156.99;-7144.473;0.009090699;-0.4846424;0;
-16725.75;-16718.1;-2318.502;-15832.4;-4.142756;-28.06118;-16759.97;-16743.46;0.1390162;-0.2892534;0;
-17473.4;-17452.86;-3194.512;-17275.29;-3.60273;-28.16695;-17480.97;-17475.64;0.2688113;0.1008413;0;
-13417.53;-13394.04;-4355.78;-13635.29;-9.962123;-30.01411;-13404.42;-13408.83;0.008671778;0.2306747;0;
-13573.34;-13551.34;-5791.523;-13683.21;-12.63143;-31.52456;-13562.61;-13568.87;-0.381141;-0.02942649;0;
-8938.584;-8914.02;-6055.693;-9528.481;2.920326;-22.45037;-8916.503;-8928.185;0.009046037;0.1655051;0;
794.166;811.9908;-5213.216;-113.1036;8.208677;-20.68632;823.8776;810.333;0.1389716;0.3602408;0;
1802.86;1806.987;-4470.692;1565.729;-2.382142;-17.65136;1807.118;1803.582;0.07386465;-0.02992519;0;
-1665.896;-1664.585;-3261.181;-1515.016;-1.37537;-14.01667;-1682.32;-1676.92;0.1387578;0.03507222;0;
-1236.062;-1233.69;-1761.375;-1165.855;-1.909852;-20.16483;-1252.095;-1243.577;-0.2511857;0.229939;0;
-6101.53;-6101.316;-1532.438;-5508.219;-5.256835;-18.87195;-6128.448;-6114.003;-0.2509333;-0.09512874;0;
-15809.11;-15801.12;-2381.345;-14903.58;9.484204;-22.87184;-15840.94;-15826.07;-0.05577914;-0.3549025;0;
-16533.17;-16512.25;-3229.525;-16332.45;10.61375;-25.39415;-16537.69;-16534.49;-0.0557231;-0.2895786;0;
-12426.73;-12403.9;-4348.778;-12643.13;6.4499;-12.44123;-12410.45;-12416.75;-0.05566711;-0.1593529;0;
-12702.6;-12681.73;-5756.636;-12806.09;9.323807;-10.55327;-12689.93;-12695.91;0.2042582;-0.09422547;0;
-8096.398;-8072.894;-5977.894;-8688.722;-18.14832;-11.41345;-8076.305;-8084.025;0.2690203;0.1007713;0;
1637.161;1654.364;-5101.356;723.2819;-26.77027;-9.995337;1665.386;1654.269;-0.05608673;0.295572;0;
2546.621;2550.5;-4347.857;2306.072;-13.88265;-14.00421;2551.642;2548.906;-0.05603037;-0.09452903;0;
-900.8939;-900.0168;-3112.419;-750.7726;-17.61975;-14.59292;-917.1797;-909.8553;0.008993272;0.03550063;0;
-423.2908;-421.2901;-1582.872;-346.4086;-5.61295;-19.13304;-438.4983;-429.4321;-0.1859178;0.4902364;0;
-5380.749;-5380.999;-1334.968;-4777.208;-0.248676;-21.6591;-5406.436;-5391.881;0.07413839;-0.02999497;0;
-15073.5;-15066.94;-2165.302;-14168.47;-13.17552;-20.96751;-15105.59;-15089.18;0.009096552;-0.2898342;0;
-15767.93;-15748.36;-3028.098;-15568.71;-12.29163;-22.55397;-15773.2;-15768.83;-0.250782;0.03529374;0;
-11741.67;-11719.14;-4177.413;-11952.31;-8.795676;-21.86148;-11726.09;-11730.69;-0.1205953;-0.09467641;0;
-11964.28;-11943.06;-5589.504;-12067.99;-8.184602;-22.17443;-11950.82;-11955.47;-0.1204741;0.0353534;0;
-7357.633;-7334.84;-5832.294;-7944.521;-3.219885;-21.08048;-7335.186;-7343.833;-0.1203531;0.1652526;0;
2290.039;2305.188;-4972.363;1389.149;-1.943852;-20.32249;2319.148;2307.136;-0.05526479;0.1001192;0;
3309.037;3310.865;-4192.413;3068.971;2.679802;-22.71339;3313.505;3310.625;0.3995622;0.03505123;0;
-91.45532;-92.56507;-2953.945;57.52446;5.89229;-23.3604;-107.1694;-100.2388;0.5290953;-0.09491867;0;
319.3676;319.6958;-1447.951;396.7961;-1.347299;-18.98316;305.7932;314.7784;0.008824968;-0.1597906;0;
-4622.438;-4623.891;-1220.579;-4020.226;-1.680738;-17.08856;-4646.525;-4631.552;-0.05615124;-0.2895648;0;
-14421.58;-14416.32;-2083.918;-13508.35;-1.009464;-24.37235;-14451.21;-14434.16;0.1388072;-0.4841758;0;
-15227.68;-15209.58;-2963.724;-15023.61;-2.749762;-25.55355;-15229.6;-15225.43;0.2686024;-0.1588526;0;
-11249.68;-11228.39;-4126.754;-11451.05;4.151877;-21.50902;-11231.99;-11236.85;0.1383978;0.2311111;0;
-11739.07;-11719.04;-5585.81;-11812.92;5.554224;-22.15718;-11723.38;-11728.81;0.07329144;0.1659115;0;
-7198.204;-7175.951;-5842.971;-7779.318;1.663878;-17.11131;-7171.95;-7182.271;0.2681198;-0.02915725;0;
2730.76;2746.494;-4965.444;1804.623;2.39914;-15.55357;2764.047;2751.706;-0.0569863;-0.22403;0;
3801.227;3803.14;-4210.395;3551.555;-3.029254;-19.02094;3809.18;3806.909;0.0080383;-0.1588375;0;
455.3999;454.6246;-2985.871;595.7832;-5.83925;-18.33206;442.5433;450.394;0.3978343;0.1011915;0;
1075.38;1076.48;-1464.009;1133.164;1.132843;-23.0693;1063.536;1074.065;0.2674998;0.03612242;0;
-4013.643;-4015.418;-1262.326;-3414.876;0.3274213;-24.72063;-4037.406;-4021.641;-0.05760565;-0.1588159;0;
-14041.47;-14037.97;-2154.14;-13126.62;-0.9457054;-22.48542;-14072.83;-14056.08;-0.2524498;-0.09368899;0;
-14872.13;-14855.85;-3043.902;-14666.56;-1.748062;-23.86947;-14875.41;-14872.67;0.007673237;-0.1585622;0;
-10930.22;-10910.52;-4226.404;-11132.44;-7.774526;-20.22847;-10912.38;-10918.61;-0.3171712;-0.5482069;0;
-11294.74;-11276.37;-5676.364;-11390.05;-10.17859;-20.07417;-11280.13;-11285.36;-0.6416892;-0.4177214;0;
-6662.679;-6642.115;-5932.904;-7258.022;-15.12485;-20.12099;-6638.097;-6648.373;-0.2512404;-0.1574323;0;
3097.239;3110.941;-5083.522;2177.937;-18.12377;-18.56022;3129.948;3116.34;-0.3809226;-0.02733942;0;
4098.872;4098.942;-4326.699;3852.344;-18.23928;-25.70856;4106.248;4103.835;-0.4455072;0.03765539;0;
685.779;683.4758;-3111.303;830.8021;-18.75681;-25.8167;671.9088;679.6186;-0.3151249;-0.4171538;0;
1158.727;1158.05;-1622.487;1226.83;-20.4129;-27.3313;1146.932;1154.946;-0.2498409;-0.2218326;0;
-3896.584;-3900.072;-1421.3;-3294.318;-20.45877;-28.44255;-3919.862;-3906.92;-0.1846225;0.1681943;0;
-13828.42;-13825.04;-2302.241;-12915.45;-13.94148;-17.496;-13859.21;-13842.9;-0.05450231;-0.2217788;0;
-14606.16;-14588.85;-3186.513;-14404.56;-12.11881;-14.33028;-14610.27;-14605.04;0.2054218;-0.4814253;0;
-10554.33;-10534.63;-4343.229;-10759.88;-5.408824;-11.36869;-10538.6;-10543.5;0.2052154;-0.2860395;0;
-10868.19;-10851.22;-5774.424;-10959.78;-1.383925;-7.807297;-10855.41;-10861.58;0.3349439;-0.09085008;0;
-6332.665;-6313.217;-6032.927;-6922.82;-5.468371;-6.057896;-6310.279;-6319.975;0.2046727;0.2340779;0;
3363.422;3376.602;-5178.104;2442.058;-4.123706;-2.970716;3393.75;3381.128;0.1394997;0.2338427;0;
4326.306;4326.418;-4417.5;4080.779;-6.79888;-9.397909;4332.241;4328.69;0.2692942;-0.02626162;0;
823.8427;821.3304;-3190.019;980.1724;-7.327912;-11.53186;808.3449;815.2918;0.07412156;0.3635688;0;
1234.121;1232.86;-1667.952;1315.331;-4.573883;-4.085349;1220.2;1229.077;-0.0558876;0.4281709;0;
-3846.316;-3849.449;-1440.171;-3237.297;-3.363838;-3.679347;-3870.468;-3857.914;0.07410324;0.03793657;0;
-13759.59;-13754.91;-2294.107;-12838.93;-4.834326;-7.292667;-13790.9;-13775.99;0.07402878;-0.02706889;0;
-14522.56;-14503.46;-3145.06;-14305.23;-4.895842;-6.950425;-14528.45;-14522.51;0.008987054;0.1678603;0;
-10468.44;-10446.54;-4277.923;-10667.46;2.87861;-14.71328;-10454.24;-10457.08;-0.1209567;0.1676917;0;
-10691.49;-10671.71;-5680.886;-10790.51;4.148515;-19.05226;-10679.11;-10682.77;0.009099562;-0.0923462;0;
-6128.036;-6106.4;-5930.268;-6715.434;10.10522;-6.976496;-6107.237;-6114.139;-0.1858116;-0.09225341;0;
3407.894;3422.918;-5093.883;2507.338;13.71239;-6.165691;3435.606;3424.651;-0.3805269;-0.02719337;0;
4288.775;4290.416;-4333.332;4055.477;5.795354;-8.503837;4292.784;4289.523;-0.1852425;-0.09213339;0;
787.5988;786.7384;-3128.019;941.4023;7.061352;-5.682131;771.4257;778.101;-0.05512173;0.1678286;0;
1159.183;1160.26;-1646.556;1241.243;-2.925102;-19.20661;1145.275;1154.005;0.4646724;-0.02724211;0;
-3868.455;-3869.941;-1402.742;-3253.152;-7.47749;-21.7326;-3893.281;-3880.25;0.7240748;-0.3520514;0;
-13761;-13756.49;-2242.285;-12833.57;5.390747;-14.00791;-13793.39;-13778.12;0.1386412;-0.416665;0;
-14520.82;-14502.78;-3105.253;-14311.52;4.782117;-14.06082;-14525.69;-14520.59;-0.1863348;-0.2863117;0;
-10419.81;-10398.36;-4234.096;-10630.79;11.54247;-6.142885;-10403.34;-10407.81;-0.2511149;0.1037801;0;
-10821.82;-10802.17;-5663.371;-10907.03;14.87977;-3.390473;-10807.68;-10813.89;-0.1209279;-0.02625892;0;
-6359.84;-6337.962;-5937.321;-6930.217;4.013829;-0.9087589;-6336.877;-6345.452;0.009128291;0.2336369;0;
3377.034;3392.081;-5081.532;2476.615;3.072767;1.905376;3406.502;3397.093;-0.05584822;0.6232061;0;
4308.483;4309.21;-4319.994;4078.695;-1.016158;-1.914504;4313.497;4313.467;0.07414258;0.4276779;0;
857.0745;855.3015;-3097.578;1010.2;-3.829152;-1.4437;843.5292;852.7454;0.1390354;0.3622808;0;
1435.047;1435.962;-1572.199;1505.81;-3.289441;-4.724352;1424.827;1434.596;0.2038631;0.1020475;0;
-3679.387;-3680.972;-1335.987;-3057.972;-5.16117;-5.322452;-3700.655;-3686.647;0.07372353;-0.1579245;0;
-13784.73;-13779.98;-2200.959;-12840.48;-2.878808;-7.728428;-13814.1;-13797.14;-0.2511873;-0.09279844;0;
-14593.34;-14574.82;-3077.369;-14367.46;-3.009637;-9.06026;-14597.35;-14592.4;-0.05603283;0.2321315;0;
-10512.63;-10491.31;-4237.067;-10703.02;-0.5283666;-3.491695;-10495.83;-10501.38;0.2688602;0.2318983;0;
-10772.03;-10753.54;-5676.99;-10862.27;0.9460328;-3.019367;-10757.27;-10762.51;0.3335574;-0.02820411;0;
-6183.409;-6163.379;-5949.677;-6774.342;-2.069028;3.74876;-6158.802;-6167.714;0.1383202;0.03679157;0;
3367.6;3380.926;-5136.761;2468.791;-2.134298;6.759225;3399.741;3388.245;-0.1866555;0.101722;0;
4148.697;4148.641;-4437.604;3927.201;-0.5919117;4.408031;4154.757;4154.017;0.07340141;-0.0932823;0;
638.2905;635.1113;-3273.135;797.7014;0.6814807;6.212141;622.4179;630.9239;0.3981644;-0.09318856;0;
1121.031;1118.917;-1784.593;1197.948;-4.074626;2.120062;1107.049;1114.984;0.07292757;-0.1580623;0;
-3919.344;-3923.548;-1545.169;-3307.366;-4.606395;1.783017;-3943.432;-3930.726;0.007886956;-0.4177728;0;
-13917.13;-13913.96;-2407.088;-12985.36;-0.2484864;-0.8310477;-13948.72;-13931.84;0.3327157;-0.09251633;0;
-14743.35;-14726.25;-3302.219;-14522.63;0.6897684;-3.375503;-14749.58;-14742.3;0.007544716;0.167446;0;
-10624.78;-10605.08;-4475.715;-10831.14;4.507468;3.459904;-10611.39;-10612.56;-0.3172996;-0.02762427;0;
-10828.66;-10811.5;-5925.706;-10933.42;5.909459;3.121634;-10816.81;-10820.47;0.2677253;0.2972402;0;
-6299.015;-6279.503;-6219.788;-6887.427;10.19043;3.721222;-6276.402;-6286.03;0.397391;0.1670069;0;
3257.608;3270.853;-5415.096;2350.01;12.59109;3.784466;3286.507;3274.796;-0.2526817;-0.2879324;0;
4126.084;4125.573;-4693.578;3888;5.813281;-0.5730441;4130.029;4128.325;-0.2524278;0.03719366;0;
553.4818;550.2222;-3508.954;715.4984;3.462915;-1.711178;537.9326;546.6004;0.3325319;0.03715629;0;
967.0924;965.5853;-2031.576;1047.675;8.282207;-9.948176;953.3704;962.9666;0.4621325;-0.09281573;0;
-4051.67;-4055.174;-1829.198;-3440.56;8.743376;-14.35893;-4076.029;-4062.663;-0.1880053;-0.1576898;0;
-14067.72;-14063.91;-2726.189;-13136.07;-1.982679;-10.72749;-14098.36;-14082.2;-0.1228491;-0.2224987;0;
-14872.92;-14855.19;-3636.522;-14661.88;-4.727353;-11.72145;-14876.8;-14870.68;-0.1227256;0.1675289;0;
-10727.37;-10707.12;-4823.363;-10940.07;-3.717249;-16.26439;-10709.94;-10713.54;-0.252537;0.2323279;0;
-10886.59;-10868.46;-6274.816;-10991.42;-5.924317;-17.45374;-10870.37;-10876;-0.05738123;0.1021598;0;
-6247.638;-6226.806;-6542.936;-6836.588;1.583724;-14.9579;-6223.215;-6231.24;-0.1872583;0.1670245;0;
3260.644;3275.615;-5727.893;2366.971;3.658238;-14.74192;3290.603;3281.617;0.3326686;0.231824;0;
4051.031;4052.494;-5005.654;3829.544;3.922982;-12.38276;4057.409;4055.742;0.4622691;0.2965584;0;
647.295;645.5703;-3785.953;801.8408;8.004877;-11.16463;633.1138;640.3812;-0.5127056;-0.09354363;0;
1184.562;1184.525;-2275.25;1256.619;0.09260358;-9.612864;1170.645;1180.841;-0.5771577;-0.353319;0;
-3923.468;-3926.097;-2066.131;-3305.695;-0.5770748;-7.258863;-3948.928;-3933.338;0.008128272;-0.2879966;0;
-13980.94;-13977.07;-2947.61;-13044.26;7.394108;-12.20818;-14013.77;-13995.83;-0.05684724;0.1020968;0;
-14782.2;-14764.12;-3840.604;-14564.88;6.314951;-11.861;-14787.67;-14780.58;-0.1867248;0.6867003;0;
-10632.3;-10611.33;-5018.495;-10841.83;17.42802;-9.035863;-10615.81;-10618.84;-0.05660249;0.1013042;0;
-10801.34;-10782.74;-6469.064;-10907.55;19.68768;-7.888134;-10787.42;-10792.24;-0.121513;-0.548471;0;
-6224.841;-6204.384;-6752.981;-6808.803;14.37661;-3.794311;-6203.166;-6210.348;-0.4462276;-0.02818117;0;
3337.142;3350.894;-5934.322;2441.673;17.57735;-1.714088;3366.042;3356.899;-0.1859098;0.1667492;0;
4181.05;4181.607;-5200.038;3951.71;-8.429203;3.780051;4187.62;4185.982;0.1391137;-0.3531571;0;
626.946;624.6292;-3999.008;786.9529;-16.12389;7.058417;613.7062;621.0661;-0.1858628;-0.4177696;0;
1081.4;1080.46;-2508.987;1160.099;0.3030048;6.984342;1069.048;1078.712;-0.3156107;-0.09251311;0;
-3896.966;-3899.936;-2300.413;-3282.709;0.3027003;8.919707;-3920.332;-3905.617;0.3343798;-0.1573875;0;
-13885.06;-13880.9;-3181.47;-12951.83;6.062196;8.575952;-13915.9;-13898.79;0.2690765;-0.2221967;0;
-14723.12;-14705.1;-4092.813;-14514.15;9.940871;8.96911;-14728.12;-14720.94;-0.510802;0.1028633;0;
-10586.02;-10565.18;-5291.003;-10803.86;13.41448;8.692166;-10570.66;-10572.13;-0.185452;0.3626293;0;
-10685.55;-10667.19;-6731.085;-10792.72;16.61618;8.080708;-10671.23;-10674.98;-0.055331;0.03742821;0;
-6029.801;-6009.59;-6986.44;-6615.411;21.22119;9.010227;-6005.254;-6012.938;-0.3151448;0.102358;0;
3468.799;3483.086;-6168.64;2574.308;24.41505;8.599277;3499.63;3490.643;-0.1199261;0.2321898;0;
4310.264;4311.917;-5462.762;4082.65;15.8167;6.045406;4317.076;4315.781;-0.1198056;-0.1578476;0;
856.7292;854.9454;-4285.768;1016.586;13.45628;3.427119;843.5448;849.9348;-0.1846526;-0.09272163;0;
1383.603;1382.696;-2795.99;1457.78;12.10359;8.84905;1371.057;1380.376;-0.05453232;-0.1575958;0;
-3491.587;-3494.93;-2563.046;-2885.814;8.876247;9.443005;-3515.74;-3500.371;0.2053918;-0.4822741;0;
-13557.67;-13554.27;-3441.497;-12621.18;8.465187;-0.1447995;-13589.64;-13572.16;0.1402181;-0.3518549;0;
-14516.94;-14499.92;-4352.329;-14300.96;7.452303;-1.819166;-14521.76;-14515.14;-0.1847595;-0.3515013;0;
-10292.25;-10272.15;-5521.991;-10508.55;0.4112412;-5.836192;-10275.36;-10277.33;-0.1196065;-0.2861808;0;
-10465.5;-10447.58;-6960.716;-10564.58;-2.804353;-8.576568;-10450.44;-10453.6;-0.5092903;-0.2209259;0;
-5946.751;-5927.005;-7221.837;-6530.269;6.911356;-6.156625;-5921.65;-5930.24;-0.96355;-0.3506386;0;
3666.208;3679.469;-6371.036;2762.438;8.980516;-8.226849;3697.78;3686.013;-0.4428431;-0.09041692;0;
4516.22;4516.287;-5630.16;4289.081;6.425898;1.359733;4521.586;4520.2;0.1423079;0.299478;0;
932.7306;929.549;-4432.602;1097.436;8.361824;4.707391;916.8526;925.5255;0.1421649;0.2991771;0;
1465.713;1463.721;-2926.871;1538.923;7.482766;-4.54074;1452.349;1461.638;-0.1828146;0.1039744;0;
-3429.363;-3433.601;-2709.788;-2821.589;8.614323;-4.201262;-3452.77;-3438.993;0.2071731;-0.09103207;0;
-13507.47;-13505.24;-3606.582;-12568.79;9.878465;-7.613109;-13539.26;-13523.28;0.4668343;-0.35081;0;
-14412.88;-14397.19;-4504.161;-14195.68;10.4044;-9.882818;-14418.46;-14413.39;0.01159386;-0.09058811;0;
-10296.11;-10277.07;-5680.385;-10502.89;14.54616;-3.509631;-10279.92;-10283.45;0.3364189;0.104405;0;
-10620.16;-10602.57;-7146.5;-10706.42;15.80434;-3.17119;-10606.58;-10611.04;0.3360809;-0.09060199;0;
-6083.485;-6063.692;-7420.116;-6666.966;16.12325;-3.234987;-6059.885;-6069.373;0.01090648;0.4292278;0;
3615.255;3628.75;-6566.304;2705.807;16.77761;-2.561968;3647.078;3635.1;0.3357322;0.2338945;0;
4535.596;4535.896;-5808.678;4309.281;14.6173;-2.291462;4542.773;4540.678;0.4653296;-0.2860793;0;
1144.366;1141.417;-4583.048;1299.524;13.32981;-0.8825178;1131.296;1138.386;0.07505795;0.1689796;0;
1858.294;1856.161;-3052.928;1915.658;13.78494;-4.431665;1846.487;1855.256;-0.05495214;0.2337771;0;
-3096.459;-3101.214;-2821.819;-2492.896;12.63201;-4.025315;-3120.123;-3106.177;0.2049724;0.03864018;0;
-13317.36;-13315.84;-3722.155;-12375.52;7.931243;-3.016526;-13349.09;-13333.2;0.2697338;-0.1563007;0;
-14382.78;-14367.3;-4641.669;-14152.37;4.975536;-2.544676;-14388.78;-14383.26;0.2694628;-0.3510456;0;
-10371.15;-10352.37;-5816.944;-10564.54;5.641098;2.146626;-10356.37;-10359.04;0.3991267;-0.0258562;0;
-10600.68;-10584.22;-7257.497;-10689.7;4.161561;3.08223;-10586.91;-10591.3;0.07388896;0.2990065;0;
-5956.509;-5937.417;-7530.907;-6541.319;3.621516;10.58098;-5931.914;-5941.704;-0.3809567;0.1687714;0;
3686.413;3698.895;-6703.689;2785.1;5.292817;13.71842;3718.042;3705.982;-0.1856719;-0.1562349;0;
4514.854;4513.143;-5961.198;4289.107;-2.415661;7.609434;4521.213;4519.348;0.07438407;-0.2860126;0;
1016.823;1011.928;-4746.098;1174.61;-2.011092;6.597044;1002.499;1009.693;0.07430933;-0.1557906;0;
1541.474;1538.458;-3238.99;1613.584;9.645227;5.585671;1528.477;1535.289;-0.1206674;-0.02569933;0;
-3473.117;-3478.067;-3006.944;-2858.509;16.66911;3.369744;-3497.97;-3486.292;-0.05557877;0.1692285;0;
-13614.75;-13613.01;-3883.668;-12663.49;11.69489;1.088938;-13647.42;-13631.06;0.3342811;0.2340258;0;
-14661.94;-14646.24;-4792.245;-14422.78;11.0809;0.01611706;-14667.65;-14661.75;0.4638799;-0.1560134;0;
-10523.16;-10504.13;-5948.439;-10724.23;47.50751;-8.490487;-10507.03;-10511.66;-0.05632492;-0.415726;0;
-10510.43;-10493.17;-7354.534;-10616.41;58.17704;-11.89802;-10496.19;-10501.5;-0.6409744;-0.2853736;0;
-5938.096;-5919.2;-7619.289;-6517.768;45.9948;-6.125659;-5916.314;-5923.682;-0.3154936;-0.4150215;0;
3408.395;3420.431;-6814.658;2534.422;50.63665;-6.990283;3436.026;3427.26;0.009660078;-0.4795718;0;
4105.243;4103.899;-6092.202;3900.375;30.62608;-0.4190532;4107.921;4107.91;-0.1852517;-0.2192206;0;
514.1084;509.7048;-4886.933;690.6295;22.8248;1.992692;496.4197;505.2786;-0.1200982;-0.2839677;0;
991.664;989.826;-3384.65;1080.864;30.77344;-0.7555491;977.4913;986.8411;-0.05501015;-0.218715;0;
-3882.133;-3886.218;-3148.085;-3268.911;25.24919;1.187654;-3907.099;-3893.448;0.2049145;-0.4133973;0;
-13902.32;-13900.53;-4017.858;-12960.35;30.9846;-5.779581;-13935.38;-13919.18;0.1397412;-0.7378185;0;
-14957.25;-14941.09;-4927.487;-14718.75;33.09692;-7.381364;-14963.54;-14958.17;-0.2502032;-0.2173385;0;
-10903.84;-10883.67;-6095.79;-11100.49;16.58659;-4.292793;-10888.89;-10893.23;0.1398522;-0.08718542;0;
-10951.3;-10932.74;-7513.449;-11058.57;14.49284;-4.824344;-10938.11;-10943.7;0.3346137;-0.3469672;0;
-6312.025;-6291.363;-7775.577;-6900.978;20.23906;-1.872308;-6289.009;-6298.591;0.07440815;0.0431855;0;
3125.139;3138.784;-6960.825;2239.459;19.14699;-0.4637851;3155.284;3142.683;-0.185536;0.1730768;0;
3789.726;3789.365;-6247.062;3580.221;29.04074;-0.1284654;3793.979;3790.698;-0.3802516;0.1079356;0;
140.6255;138.0778;-5067.312;310.953;29.48105;1.61322;124.7591;129.8517;0.009934552;-0.0221076;0;
655.4129;655.3665;-3562.099;727.8683;27.57542;1.209701;642.9982;647.7109;-0.05504277;-0.2819547;0;
-4237.068;-4239.957;-3299.681;-3634.546;22.72494;1.476418;-4261.152;-4251.228;-0.3148568;0.1081326;0;
-14381.49;-14378.13;-4163.555;-13439.15;30.67271;6.297583;-14415.14;-14399.95;0.07526359;0.3678933;0;
-15481.48;-15463.69;-5066.54;-15244.11;33.92442;7.362982;-15488.23;-15483.64;-0.1197141;0.432491;0;
-11389.97;-11368.95;-6206.343;-11591.37;-15.00599;5.480062;-11374.36;-11381.89;-0.3144958;0.3021218;0;
-11437.25;-11418.56;-7608.086;-11544.46;-26.91363;4.938692;-11425.33;-11432.36;0.1405916;-0.2828879;0;
-6834.533;-6814.148;-7872.992;-7420.957;-26.81924;4.73278;-6815.008;-6823.996;-0.1843864;-0.2176363;0;
2563.021;2576.638;-7056.8;1675.119;-37.10742;4.326128;2589.866;2577.202;-0.5090378;0.1074191;0;
3187.942;3187.803;-6339.847;2980.404;-8.13448;-0.4338245;3188.961;3187.929;-0.1836896;-0.2175256;0;
-521.0858;-524.098;-5153.352;-338.3618;-1.763295;-1.304167;-541.7443;-532.1563;-0.183505;-0.02240497;0;
-132.6946;-133.8922;-3639.932;-40.64003;0.8504453;-3.379266;-150.8962;-143.0668;-0.1833207;0.3674216;0;
-5092.88;-5097.138;-3378.591;-4474.901;10.02662;-4.313632;-5121.652;-5111.426;-0.05320178;-0.02275164;0;
-15127.4;-15124.88;-4234.14;-14188.52;7.87309;1.250164;-15162.24;-15151.27;0.01181902;-0.2176308;0;
-16273.18;-16255.95;-5148.767;-16031.99;12.28581;3.12443;-16280.71;-16278.69;0.1417418;0.1074246;0;
-12461.4;-12441.31;-6342.334;-12633.8;16.76144;4.460827;-12449.3;-12453.5;-0.1832373;0.1073167;0;
-12600.11;-12581.98;-7784.421;-12688.35;19.95978;5.126174;-12589.66;-12596.13;-0.4429226;-0.2176279;0;
-7948.75;-7928.231;-8088.037;-8530.464;13.24094;13.96253;-7928.279;-7938.087;-0.3125428;-0.2823766;0;
1394.169;1407.953;-7325.82;518.5005;11.15153;17.29764;1421.554;1410.07;-0.0523594;-0.2171255;0;
1919.441;1920.218;-6645.11;1726.684;18.374;9.309416;1922.435;1918.459;0.5323992;-0.2169073;0;
-1801.556;-1803.216;-5487.262;-1614.997;18.69033;8.831182;-1819.616;-1813.906;0.4019296;-0.08675469;0;
-1287.94;-1288.037;-4003.491;-1205.235;17.53345;4.803453;-1303.422;-1295.656;0.01172173;-0.1516349;0;
-6274.826;-6277.172;-3784.795;-5655.443;17.91797;2.454346;-6299.538;-6288.531;0.01170995;-0.4763192;0;
-16651.37;-16645.9;-4709.057;-15677.03;13.61306;0.9112728;-16683.95;-16669.71;0.01169819;-0.2809386;0;
-18040.71;-18020.57;-5679.116;-17759.38;10.3842;-2.170797;-18048.06;-18043.29;-0.05328091;0.1091478;0;
-14306.64;-14282.58;-6910.007;-14458.41;19.14768;1.783316;-14292.52;-14298.32;0.206642;-0.2157986;0;
-14679.29;-14656.75;-8402.061;-14744.07;19.53058;0.1739342;-14666.18;-14671.85;0.2714017;-0.1506144;0;
-10125;-10100.46;-8726.919;-10688.19;13.48273;3.254974;-10101.33;-10110.42;-0.1186751;0.239341;0;
-678.9487;-660.275;-7965.498;-1550.667;14.27347;4.390292;-647.6116;-660.9772;-0.1835231;0.1091658;0;
-288.5873;-283.6755;-7319.845;-467.9335;1.665849;-5.728238;-284.2057;-287.0631;-0.05340406;-0.0208786;0;
-4231.378;-4229.844;-6191.242;-4021.333;-1.081515;-7.397055;-4249.396;-4240.975;-0.2482524;0.1090771;0;
-3908.005;-3904.443;-4730.189;-3791.625;2.804338;-10.40379;-3923.569;-3913.875;-0.1830356;0.1739348;0;
-9147.599;-9146.039;-4560.55;-8486.172;1.261279;-12.2688;-9173.017;-9159.273;-0.1178844;0.17376;0;
-19603.15;-19593.88;-5528.854;-18608.71;13.65124;-12.25647;-19635.79;-19619.65;-0.1827333;-0.08628393;0;
-21006.61;-20982.7;-6542.911;-20719.07;15.98205;-14.05264;-21013.98;-21007.54;-0.247517;-0.2161319;0;
-17415.39;-17387.82;-7836.246;-17550.46;24.7399;-6.134713;-17402.26;-17404.8;0.01260107;-0.2808821;0;
-17781.04;-17754.65;-9371.534;-17836.48;31.07903;-5.257832;-17768.89;-17773.14;0.1425231;0.1092042;0;
-13268.19;-13240.04;-9731.088;-13817.16;14.9719;-2.171394;-13246.37;-13254.92;0.0124452;0.3039965;0;
-4198.437;-4176.692;-9041.121;-5027.534;13.1482;0.6440095;-4170.02;-4180.316;-0.1824693;-0.02114567;0;
-4057.974;-4048.371;-8478.689;-4198.333;12.06326;-8.86797;-4054.573;-4055.114;-0.0523513;-0.1510591;0;
-8135.876;-8128.281;-7437.595;-7895.067;7.898926;-9.662854;-8153.749;-8145.638;0.3375053;-0.1509073;0;
-8075.603;-8066.172;-6067.432;-7924.147;11.90948;-13.73898;-8092.458;-8082.855;0.1422642;-0.02082101;0;
-13351.18;-13343.25;-5937.741;-12672.04;10.28992;-16.27047;-13377.85;-13363.45;-0.1827155;0.2390693;0;
-23698.08;-23682.02;-6909.096;-22691.43;9.275203;-13.10598;-23731.04;-23714.31;-0.1175645;0.04392704;0;
-25165.21;-25134.64;-7937.946;-24855.65;9.466954;-14.23152;-25172.43;-25164.87;-0.4422831;-0.08605178;0;
-21697.28;-21662.8;-9253.71;-21811.54;5.639049;-6.380403;-21683.79;-21683.48;-0.506806;-0.02099798;0;
-22216.89;-22183.26;-10816.34;-22244.98;5.700731;-3.426804;-22204.76;-22206.07;0.07840928;0.1739252;0;
-17864.43;-17828.68;-11201.8;-18383.19;5.627654;-3.892241;-17842.84;-17849.84;0.1432978;0.0438157;0;
-8841.386;-8812.446;-10518.26;-9651.315;6.090514;-0.003442196;-8812.914;-8822.249;-0.1167155;-0.5409344;0;
-8781.527;-8765.985;-9955.033;-8898.865;6.754956;-6.902498;-8779.353;-8777.684;-0.0516309;-0.2805215;0;
-13035.47;-13021.5;-8920.92;-12759.63;4.872158;-7.163494;-13055.6;-13043.68;-0.05157902;0.3044665;0;
-13072.53;-13054.71;-7565.133;-12893.9;21.07689;-0.5251076;-13089.3;-13077.4;0.07840749;0.2391932;0;
-18383.66;-18367.41;-7464.267;-17686.65;26.41434;-0.52458;-18408.78;-18394.45;0.2732307;0.04405081;0;
-28827.68;-28803.89;-8477.972;-27798.63;11.5847;8.585443;-28859.08;-28843.12;0.2079888;0.04400655;0;
-30439.1;-30400.47;-9557.5;-30108.15;12.04157;11.72489;-30443.8;-30438.57;-0.1820242;0.173897;0;
-27138.01;-27095.51;-10929.61;-27227.05;3.12184;6.957445;-27121.74;-27124.85;-0.2468086;0.04378759;0;
-27851.83;-27809.91;-12541.47;-27844.96;-2.239931;8.089164;-27837.52;-27840.54;0.2082108;-0.02122374;0;
-23553.31;-23509.37;-12952.65;-24049.72;12.09593;2.253643;-23529.42;-23537.9;0.07806686;0.1087323;0;
-14448.36;-14411.56;-12274.69;-15247.56;12.5523;0.3758559;-14418.16;-14430.09;-0.376783;0.04365567;0;
-14362.44;-14338.67;-11712.1;-14467.37;12.60703;0.7103929;-14359.82;-14360.28;-0.311437;0.1735465;0;
-18571.67;-18550.29;-10669.63;-18291.09;14.47037;-1.768628;-18590.66;-18580.66;0.0137126;0.1733721;0;
-18539.2;-18515.04;-9307.872;-18357.89;7.020119;4.328413;-18554.68;-18545.06;0.3385355;-0.02170412;0;
-23934.76;-23911.58;-9227.961;-23224.55;4.735889;4.993893;-23960.46;-23946.89;0.5980647;-0.2815517;0;
-34577.35;-34547.39;-10264.82;-33525.93;11.02777;1.438901;-34611.68;-34593.55;0.2076598;-0.3462361;0;
-36262.96;-36218.5;-11345.18;-35903.03;13.16014;1.169524;-36271.33;-36262.78;-0.4422223;-0.02105151;0;
-33010.61;-32961.98;-12721.55;-33069.27;1.089504;-1.242976;-32997.07;-32999.25;-0.3118433;0.1089043;0;
-33854.68;-33807.79;-14340.79;-33825.46;-0.3181102;-2.715351;-33841.98;-33848.05;-0.2465626;-0.1510745;0;
-29482.82;-29433.22;-14733.42;-29971.14;2.428876;-4.25317;-29458.72;-29471.76;-0.6361189;-0.02098799;0;
-20230.55;-20187.22;-14034.81;-21025.47;0.7514958;-6.124357;-20199.04;-20213.25;-0.310643;-0.08593424;0;
-20183.48;-20153.47;-13479.13;-20274.31;16.15706;-5.046537;-20179.28;-20181.04;-0.1803962;-0.2807499;0;
-24411.44;-24383.21;-12442.79;-24120.43;20.56145;-4.840518;-24429.61;-24421.03;-0.2451823;0.04436889;0;
-24325.69;-24295.09;-11074.16;-24139.95;18.53106;-11.19885;-24342.28;-24332.4;-0.2449359;0.1092917;0;
-29715.4;-29686.33;-10994.85;-28994.56;21.79497;-12.7282;-29742.59;-29728.6;-0.4395919;-0.2806222;0;
-40276.57;-40239.68;-12030.65;-39226.45;10.58729;-11.84464;-40311.1;-40294.99;-0.3741828;-0.5402096;0;
-41833.54;-41781.32;-13104.39;-41487.7;5.218015;-14.37803;-41840.49;-41836.4;-0.3088395;-0.3447648;0;
-38493.07;-38436.97;-14478.46;-38564.58;17.87243;-4.115434;-38477.59;-38484.27;-0.2435618;0.110353;0;
-39156.42;-39101.37;-16082.22;-39145.21;18.59042;-2.101872;-39142.76;-39149.38;-0.04841505;-0.01969254;0;
-34704.01;-34645.33;-16464.89;-35203.3;3.367473;-10.47238;-34680.25;-34690.26;0.1465356;-0.08464009;0;
-25580.8;-25528.77;-15798.4;-26374.6;1.488079;-10.99772;-25550.19;-25562.63;0.2113557;0.1753143;0;
-25587.58;-25549.07;-15278.09;-25675.47;-6.149226;-19.89522;-25583.61;-25585.39;0.146176;0.1751382;0;
-29890.13;-29853.22;-14267.02;-29583.94;-10.16154;-24.69788;-29906.88;-29898.84;0.2109965;0.1099949;0;
-29995.12;-29955.53;-12934.66;-29791.44;1.502973;-20.18533;-30008.35;-30001.3;0.5356211;0.1748517;0;
-35363.49;-35325.38;-12874.68;-34644.59;2.707888;-22.04051;-35387.64;-35376;0.6650176;0.369578;0;
-45795.85;-45749.9;-13931.74;-44749.46;9.201901;-24.49667;-45828.09;-45811.25;0.4044801;0.04436993;0;
-47399.85;-47338.52;-15049.67;-47046.57;11.80462;-24.87395;-47403.86;-47398.71;-0.1806324;-0.3454787;0;
-44104.23;-44038.15;-16450.31;-44166.41;19.29485;-26.59045;-44087.21;-44091.69;-0.6352223;0.1746072;0;
-44801.07;-44736.53;-18067.33;-44775.01;25.63945;-26.02787;-44787.26;-44791.36;-0.439682;0.4992684;0;
-40389.41;-40322.27;-18452.76;-40873.09;6.188882;-26.53758;-40364.55;-40373.45;-0.04943617;-0.08593931;0;
-31212.23;-31150.5;-17759.59;-31992.43;3.435998;-26.10902;-31180.3;-31191.17;0.01558085;-0.02088561;0;
-31227.69;-31179.14;-17222.07;-31303.96;6.781448;-21.12617;-31222.31;-31222.83;-0.04940215;0.2390047;0;
-35559.27;-35513.43;-16209.35;-35248.28;3.760524;-20.16724;-35575.14;-35566.41;-0.1792872;-0.08607212;0;
-35571.18;-35522.13;-14860.71;-35363.35;12.79908;-13.91769;-35584.5;-35574.56;-0.179107;-0.02101829;0;
-40834.58;-40786.93;-14786.02;-40115.23;14.72957;-10.88953;-40857.67;-40844.34;-0.1139597;0.1739049;0;
-51185.23;-51130.98;-15828.1;-50145.36;11.43224;-16.639;-51216.42;-51200.35;-0.3087473;-0.1511066;0;
-52627.02;-52558.11;-16907.96;-52280.65;11.62183;-16.35435;-52631.84;-52625.44;0.2113017;-0.1509548;0;
-49178.47;-49105.75;-18272.4;-49244.71;14.15574;-20.82565;-49162.3;-49164.87;0.7308281;0.1740336;0;
-49841.61;-49770.86;-19884.72;-49819.7;13.80575;-23.68493;-49827.92;-49831.7;0.2103551;-0.02104327;0;
-45372.15;-45298.36;-20287.84;-45866.88;14.39509;-19.10641;-45347.17;-45355.7;-0.04972568;-0.1509568;0;
-36084.14;-36015.98;-19612.16;-36874.95;14.64905;-20.02497;-36052.29;-36062.09;0.08025897;-0.02087045;0;
-35936.44;-35881.35;-19052.51;-36019.18;5.859443;-22.01428;-35931.95;-35931.09;0.1451457;0.2390199;0;
-40034.35;-39981.68;-17997.88;-39734.67;3.77745;-23.19779;-40050.94;-40041.05;0.08003248;0.4986491;0;
-39952.8;-39897.41;-16650.03;-39750.28;1.026988;-23.71035;-39966.63;-39955.88;-0.2448846;0.3682134;0;
-45240.2;-45186.67;-16576.83;-44514.8;-0.9837756;-24.62428;-45263.47;-45250.27;0.01523078;0.3678434;0;
-55548.91;-55488.81;-17596.71;-54505.84;2.232394;-24.39859;-55579.35;-55563.71;0.08018282;0.04263706;0;
-56984.25;-56909.75;-18675.14;-56638.09;1.895358;-22.5656;-56988.98;-56981.27;-0.3097018;-0.5421118;0;
-53540.82;-53462.65;-20016.85;-53609.49;12.81179;-34.3986;-53524.12;-53526.19;-0.04952124;-0.2167304;0;
-54160.37;-54083.46;-21586;-54140.95;18.35765;-37.57915;-54145.38;-54148.57;0.01549586;0.1083241;0;
-49700.54;-49620.46;-21978.44;-50190.66;11.84247;-23.74322;-49675.69;-49681.57;-0.3093564;-0.4764909;0;
-40332.88;-40259.32;-21281.38;-41129.95;14.10775;-21.64295;-40300.09;-40309.74;-0.2440782;-0.6059468;0;
-40110.5;-40050.45;-20714.21;-40208.41;16.57182;-19.67876;-40103.02;-40103.85;0.01603638;-0.02063184;0;
-44348.55;-44290.84;-19693.34;-44047.15;17.15838;-17.11369;-44362.5;-44353.24;0.2109223;0.2392583;0;
-44328.98;-44268.88;-18335.29;-44122.02;23.37043;-15.68986;-44340.04;-44329.85;0.08077568;0.1090832;0;
-49519.96;-49461.55;-18215.82;-48797.41;24.75346;-13.32975;-49541.31;-49526.27;0.2755965;0.1089736;0;
-59750.57;-59685.31;-19195.98;-58706.09;25.73297;-18.00504;-59781.02;-59762.27;0.4702216;0.3037661;0;
-61124.46;-61044.84;-20233.51;-60774.97;27.6495;-18.05393;-61127.74;-61119.48;-0.1149569;0.3684282;0;
-57634.36;-57550.57;-21559.06;-57698.92;17.70873;-21.31789;-57614.77;-57616.45;0.01509328;0.04322129;0;
-58196.95;-58114.78;-23126.91;-58173.05;13.80617;-23.64081;-58180.16;-58183.34;0.4048822;-0.02178948;0;
-53686.77;-53601.5;-23501.85;-54175.57;22.76728;-17.72268;-53659.54;-53667.21;0.144606;-0.1517023;0;
-44352.28;-44273.05;-22790.86;-45145.96;23.01282;-17.50393;-44317.39;-44327.51;0.07949333;-0.08658249;0;
-44142.42;-44076.93;-22208.4;-44237.6;15.48761;-15.00803;-44135.39;-44134.61;0.2743155;0.3033086;0;
-48282.12;-48219.53;-21155.98;-47984.37;13.66338;-12.24671;-48297.49;-48285.9;-0.1157642;0.04313442;0;
-48253.22;-48188.73;-19772.5;-48046.69;13.31486;-19.26749;-48266.89;-48254.88;-0.2455826;-0.346713;0;
-53502.29;-53438.77;-19624.29;-52781.54;11.15803;-19.65003;-53526.35;-53511.66;0.01453356;-0.2164299;0;
-63665.86;-63594.94;-20573.52;-62627.68;13.49134;-16.08025;-63697.4;-63679.85;-0.3103178;-0.08627775;0;
-64975.82;-64890.98;-21592.92;-64626.19;13.47779;-17.13576;-64982.4;-64973.15;-0.4399406;0.108711;0;
-61467.89;-61379.2;-22892.15;-61533.27;8.239331;-8.477987;-61453.69;-61453.38;-0.1796292;-0.1512676;0;
-61980.34;-61892.86;-24429.24;-61959.42;6.75816;-5.924178;-61967.06;-61968.75;-0.2444161;-0.4759523;0;
-57414.98;-57324.81;-24782.91;-57904.61;9.631758;-12.7503;-57391.66;-57397.03;-0.4390725;-0.08567006;0;
-47971.66;-47888.21;-24063.95;-48773.48;11.09497;-12.53654;-47941.93;-47949.23;-0.5035986;0.1093181;0;
-47726;-47656.27;-23485.93;-47827.61;5.256675;-16.81079;-47723.16;-47721.27;-0.1782559;-0.08569382;0;
-51985.57;-51917.79;-22429.6;-51689.93;4.983949;-18.60238;-52003.81;-51993.09;-0.04814213;-0.2155424;0;
-51786.31;-51715.95;-21015.13;-51599.58;10.67139;-18.38274;-51800.91;-51789.67;-0.3079631;-0.2153258;0;
-56794.23;-56726.46;-20860.18;-56084.86;11.93347;-20.90956;-56819.69;-56803.89;0.08215037;-0.02020744;0;
-67153.15;-67079.64;-21846.9;-66100.84;16.61053;-12.3819;-67186.83;-67167.7;0.3419372;0.3046496;0;
-68566.99;-68478.78;-22870.92;-68216.2;18.00035;-10.22606;-68573.34;-68564.57;0.01675691;0.0444741;0;
-65090.28;-64998.03;-24174.02;-65151.76;24.41263;-16.91396;-65075.06;-65076.15;0.01674007;-0.08550528;0;
-65898.13;-65807.66;-25750.65;-65852.63;28.47394;-16.42808;-65884.39;-65886.13;-0.1132114;-0.02045202;0;
-61318.08;-61224.02;-26102.05;-61804.12;17.66168;-18.55497;-61292.65;-61298.95;-0.2430324;-0.2803008;0;
-51610.88;-51523.2;-25333.51;-52424.33;17.50924;-19.20615;-51578.32;-51587.18;-0.1778208;-0.5398886;0;
-51249.93;-51176.32;-24709.57;-51356.54;11.26236;-17.31133;-51244.86;-51242.61;-0.3075768;-0.4094114;0;
-55315.71;-55244.27;-23632.4;-55030.15;5.892405;-17.8298;-55333.13;-55321.14;-0.2423004;0.04577138;0;
-55127.69;-55054.39;-22219.76;-54934.6;21.49387;-11.78354;-55144.04;-55130.38;-0.1121223;0.1106927;0;
-60320.75;-60249.12;-22028.39;-59596.31;22.14186;-9.628312;-60346.39;-60327.99;0.3427618;0.2405162;0;
-70520.89;-70441.23;-22928.89;-69478.8;21.98589;-12.49884;-70552.13;-70531.47;0.08254799;0.04537249;0;
-71830.12;-71736.02;-23910.28;-71487.88;25.38005;-11.61557;-71834.87;-71825.13;-0.6971431;-0.3444771;0;
-68393.04;-68295.32;-25198.13;-68452.51;10.95261;-13.94824;-68377.63;-68377.72;-0.4365732;-0.149229;0;
-69066.48;-68969.66;-26737.65;-69030.75;9.803504;-15.3408;-69054.02;-69054.3;-0.04633047;0.04582298;0;
-64410.95;-64311.23;-27072.54;-64907.86;5.038231;-12.84708;-64387.51;-64392.75;0.2785528;-0.08415774;0;
-54693.95;-54601.03;-26307.8;-55509.83;-0.8613297;-14.37472;-54662.86;-54672.21;0.3432402;-0.2789752;0;
-54262.03;-54182.54;-25685.48;-54367.13;20.77417;-12.88671;-54258.67;-54257.24;-0.2418107;-0.2137275;0;
-58348.74;-58271.48;-24601.57;-58055.13;23.23154;-12.87376;-58367.18;-58355.38;-0.3065351;0.1762913;0;
-58224.83;-58145.43;-23176.68;-58027.43;23.47662;-20.69765;-58239.66;-58227.22;-0.1113251;0.2410815;0;
-63362.59;-63285.33;-22987.32;-62646.46;29.21283;-22.28438;-63387.75;-63370.54;-0.1112132;0.0459372;0;
-73472.37;-73388.06;-23892.29;-72435.41;5.53911;-28.22335;-73505.81;-73485.68;-0.1760688;-0.01907631;0;
-74653.79;-74554.95;-24849.88;-74317.39;0.5770517;-32.28082;-74659.59;-74651.53;-0.2408592;0.3057796;0;
-70964.06;-70861.67;-26093.59;-71045.57;8.346004;-23.87576;-70948.12;-70949.97;0.3440889;0.1755376;0;
-71492.98;-71392.38;-27598.13;-71474.4;4.854993;-23.65083;-71480.99;-71482.25;0.7985145;0.04542657;0;
-66965.61;-66862.89;-27909.42;-67455.98;17.10763;-24.4308;-66944.78;-66949.2;0.1480387;0.1103483;0;
-57373.3;-57277.39;-27112.11;-58181.1;21.10892;-23.33458;-57345.4;-57353.22;-0.3068814;-0.2145993;0;
-56933.25;-56850.31;-26448.34;-57038.41;9.634486;-25.32056;-56932.05;-56930.8;0.01826367;-0.279351;0;
-61075.52;-60995.29;-25338.53;-60771.38;8.419356;-24.15641;-61097.13;-61084.92;0.01824532;-0.1491356;0;
-61063.91;-60981.64;-23905.74;-60850.09;13.50111;-29.35668;-61083.19;-61070.24;-0.1117077;-0.01905112;0;
-66226.65;-66145.58;-23702.78;-65504.48;12.2821;-31.40366;-66253.77;-66238.43;0.08330657;0.1109027;0;
-76271.52;-76183.76;-24585.76;-75233.73;16.15452;-23.60227;-76305.15;-76286.2;0.01825553;0.04582393;0;
-77427.66;-77325.84;-25538.22;-77083.67;17.94695;-23.04269;-77434.87;-77425.12;-0.1116975;-0.01918945;0;
-73856.66;-73750.81;-26800.5;-73923.43;11.43121;-20.80916;-73842.55;-73842.65;-0.2415199;-0.01917017;0;
-74491.77;-74388.04;-28314.27;-74458.44;15.50556;-17.84106;-74480.37;-74481.88;-0.1763099;0.04581643;0;
-69990.8;-69884.7;-28609.69;-70464.65;-0.5849499;-27.40145;-69968.66;-69974.54;-0.1761328;-0.01919694;0;
-60487.5;-60387.22;-27803.52;-61274.43;-2.861538;-28.84754;-60458.01;-60465.88;-0.4358252;-0.2140797;0;
-60118.88;-60032.38;-27134.65;-60206.37;20.11514;-24.06283;-60116.75;-60115.12;-0.3054526;-0.1488972;0;
-64280.5;-64196.9;-26003.91;-63965.39;23.57853;-24.97641;-64298.43;-64288.86;-0.175211;0.04615441;0;
-64320.95;-64234.5;-24562.65;-64092.84;51.75356;-20.73151;-64335.27;-64324.53;-0.2400022;-0.2137613;0;
-69568.34;-69483.6;-24380.86;-68818.84;65.43293;-20.57671;-69593.52;-69576.63;-0.04485906;-0.4084486;0;
-79762.03;-79670.38;-25301.54;-78699.34;50.76515;-20.35509;-79794.11;-79774.46;0.02015335;-0.08320145;0;
-80985.95;-80878.99;-26273.37;-80634.19;52.99131;-19.79877;-80989.98;-80981.97;0.08510045;0.2417189;0;
-77388.06;-77277.4;-27544.94;-77444.64;55.95218;-25.67325;-77371.06;-77372.03;0.3448843;0.04657395;0;
-78159.09;-78050.51;-29094.97;-78102.11;55.3601;-26.11634;-78144.99;-78146.36;0.2795704;-0.1483749;0;
-73793.43;-73682.09;-29412.03;-74247.66;43.71752;-33.19011;-73768.6;-73775.93;0.01942014;0.04667624;0;
-64240.73;-64135.71;-28599.94;-65020.9;38.44868;-35.903;-64207.24;-64219.1;0.1493353;0.2415314;0;
-63803.25;-63711.86;-27928.21;-63887.73;34.32421;-30.10651;-63795.84;-63797.31;0.3440873;0.111354;0;
-67976.98;-67888.4;-26790.61;-67648.67;28.59629;-30.00928;-67991.81;-67982.45;0.01890483;-0.2785619;0;
-68172.63;-68081.95;-25356.24;-67923.03;34.12727;-23.14705;-68185.4;-68175.54;0.08385318;-0.6680861;0;
-73512.6;-73423.92;-25176.25;-72751.54;33.69083;-19.90867;-73536.25;-73521.75;0.4086056;-0.5374801;0;
-83584.02;-83487.45;-26062.37;-82516.68;34.92978;-19.01789;-83615.26;-83596.62;0.01839101;-0.2770707;0;
-84823.52;-84711.97;-27027.93;-84458.59;37.64037;-16.11857;-84827.56;-84819.68;-0.3064642;0.1130118;0;
-81354.11;-81239.27;-28307.93;-81396.28;31.37326;-18.84861;-81337.45;-81339.79;0.01868047;0.1778656;0;
-82048.29;-81934.82;-29812.34;-81983.38;29.66777;-19.03062;-82035.04;-82037.91;-0.04630564;-0.3420519;0;
-77681.31;-77564.77;-30101.29;-78120.72;41.96184;-16.80112;-77657.12;-77664.92;-0.1761938;-0.4066755;0;
-68298.22;-68188.01;-29286;-69053.52;43.79569;-17.18614;-68266.2;-68276.97;0.01888527;-0.2113649;0;
-67912.22;-67815.14;-28581.44;-67974.23;39.26371;-18.3745;-67908.04;-67907.02;0.08383363;-0.3410872;0;
-72122.61;-72027.57;-27429.19;-71773.24;39.69277;-18.55699;-72140.08;-72129.13;0.01878206;-0.01590776;0;
-72332;-72235.12;-25982.6;-72061.88;29.94097;-23.76289;-72346.83;-72336.35;0.2136652;-0.08085912;0;
-77610.6;-77515.31;-25768.33;-76837;26.22719;-25.94939;-77634.78;-77621.13;-0.04641885;-0.4705819;0;
-87715.78;-87612.72;-26631.21;-86638.33;27.54001;-20.89972;-87745.24;-87729.77;-0.2412742;-0.3401744;0;
-88962.94;-88845.61;-27574.87;-88585.75;26.10581;-19.94102;-88965.23;-88960.08;0.01883757;-0.01499588;0;
-85420.51;-85299.36;-28839.45;-85453.12;21.05574;-23.27007;-85402.37;-85405.62;0.1487533;0.1799212;0;
-86154.13;-86033.92;-30342.96;-86077.09;17.75303;-23.7155;-86139.55;-86141.86;0.08363651;0.04980574;0;
-81794.22;-81670.91;-30613.38;-82227.08;29.92535;-20.00773;-81770.68;-81777.08;0.4083892;0.1796904;0;
-72270.15;-72152.65;-29766.96;-73028.79;32.50823;-20.1216;-72237.73;-72248.94;-0.04679256;-0.08035954;0;
-71818.16;-71714.4;-29046.09;-71876.86;27.25065;-17.08721;-71810.83;-71810.68;-0.4365496;-0.6649848;0;
-75945.33;-75844.73;-27876.38;-75595.38;28.56342;-15.99831;-75960.23;-75949.44;0.2135625;-0.2095453;0;
-76081;-75978.2;-26418.03;-75814.37;21.83594;-20.47003;-76093.8;-76083.71;0.4732172;-0.01443272;0;
-81458.09;-81357.45;-26214.17;-80680.12;18.33137;-19.77963;-81480.95;-81467.11;0.2778397;-0.2742876;0;
-91478.51;-91370.73;-27078.6;-90405.09;26.6857;-27.39563;-91508.59;-91491.8;0.08265854;0.05082473;0;
-92520.65;-92398.41;-28018.06;-92151.32;26.72525;-29.17658;-92524.3;-92517.05;-0.2422612;-0.2740631;0;
-88961.08;-88835.22;-29279.79;-88994.43;19.6658;-24.52556;-88943.95;-88946.43;-0.2420178;-0.4037223;0;
-89558.04;-89432.87;-30758.21;-89495.05;17.90473;-24.70187;-89543.34;-89546.96;0.01809474;0.3113241;0;
-85022.84;-84894.33;-31019.65;-85469.32;16.27915;-15.96945;-84997.45;-85005.19;0.2129786;0.3759786;0;
-75538.92;-75417.03;-30182.2;-76300.7;15.72693;-13.0732;-75506.58;-75517.16;-0.3069741;0.0507641;0;
-74975.26;-74867.09;-29435.42;-75056.18;9.950349;-10.51477;-74969.94;-74969.58;-0.3716331;-0.01425425;0;
-78907.7;-78801.63;-28240.21;-78583.42;7.328383;-7.691047;-78922.55;-78913.2;0.2784138;-0.1441746;0;
-78994.98;-78886.61;-26778.15;-78740;16.02856;-11.16631;-79007.83;-78997.41;0.08323202;-0.01409506;0;
-84227.22;-84120.83;-26568.3;-83463.99;17.08418;-10.95414;-84251.42;-84235.74;-0.1117536;0.1808211;0;
-94088.71;-93975.59;-27431.38;-93031.91;16.39743;-15.163;-94119.01;-94102.38;-0.3065434;0.05070475;0;
-94971.49;-94844.3;-28355.59;-94631.91;16.3136;-17.22417;-94973.74;-94968.69;-0.43617;0.1156212;0;
-91126.07;-90995.23;-29597.15;-91201.79;20.38305;-17.67575;-91107.93;-91111.47;0.2139416;0.05053763;0;
-91610.19;-91481.23;-31094.33;-91569.66;23.04188;-19.19853;-91595.52;-91600.03;0.278694;-0.2093825;0;
-87031.08;-86899.91;-31373.3;-87497.75;8.952558;-18.97829;-87006.16;-87014.88;-0.2413248;-0.2741395;0;
-77313.38;-77188.68;-30524.94;-78108.85;6.196896;-19.29414;-77280.58;-77290.2;-0.1761149;-0.3388314;0;
-76562.88;-76451.52;-29778.72;-76670.55;9.606921;-16.39454;-76555.63;-76555.02;0.0839314;-0.3384909;0;
-80284.44;-80175.76;-28584.73;-79994.96;8.726612;-14.36864;-80298.38;-80288.87;-0.04608762;-0.3381508;0;
-80127.41;-80017.02;-27117.04;-79912.83;12.26782;-14.28722;-80140.33;-80128.17;-0.175976;-0.0129743;0;
-85327.64;-85218.87;-26910.04;-84589.73;13.12615;-12.26344;-85351.27;-85334.69;0.01910285;0.1169734;0;
-95160.83;-95045.16;-27767.78;-94125.72;15.12269;-10.17465;-95191.08;-95173.02;0.278953;-0.2079808;0;
-95920.24;-95790.92;-28674.09;-95602.48;14.16949;-8.690861;-95925.05;-95916.46;-0.04616398;0.05209753;0;
-91960.18;-91827.3;-29887.19;-92058.27;27.55184;-4.395342;-91945.3;-91945.56;-0.3059869;0.3119146;0;
-92263.55;-92132.59;-31350.66;-92254.13;33.08386;-2.582387;-92250.02;-92251.98;-0.1107775;0.3116011;0;
-87548.35;-87415.77;-31619.41;-88044.66;12.88888;-3.115655;-87524.63;-87531.2;-0.1106662;-0.01354868;0;
-77843.47;-77718.33;-30793.41;-78655.23;11.4694;-3.112525;-77813.83;-77823.12;-0.1755223;-0.4033391;0;
-77015.72;-76904.45;-30055.89;-77145.7;0.8079599;-2.573534;-77012.63;-77012.29;-0.1753459;0.1168049;0;
-80616.27;-80508.23;-28851.19;-80362.75;-7.834016;-2.771897;-80635.11;-80625.77;-0.3051044;0.1816549;0;
-80474.33;-80364.24;-27393.85;-80289.44;18.02902;-8.529522;-80491.59;-80479.91;-0.2398305;-0.1433644;0;
-85609.03;-85500.15;-27197.79;-84906.02;22.63261;-11.06624;-85636.11;-85618.77;0.02027982;-0.3381223;0;
-95311.47;-95196.54;-28064.97;-94322.62;11.29036;-11.12211;-95345.61;-95325.5;0.02025945;-0.6626193;0;
-95972.66;-95845.2;-28973.74;-95684.42;14.15843;-12.91941;-95980.78;-95969.97;-0.3045976;-0.2071821;0;
-91893.98;-91762.8;-30163.98;-92006.8;8.115982;-13.57626;-91880.48;-91879.8;0.02054515;-0.0120719;0;
-92197.7;-92068.5;-31633.2;-92204.83;5.62958;-14.56736;-92187.02;-92187.74;0.6052306;-0.1419944;0;
-87539.35;-87408.53;-31921.01;-88046.26;14.39881;-13.48099;-87519.91;-87524.1;0.2148184;-0.2068191;0;
-77776.06;-77651.5;-31086.55;-78601.74;10.83437;-12.66365;-77749.09;-77757.23;0.1496352;-0.2066113;0;
-76934.58;-76824.16;-30355.89;-77080.98;20.73647;-15.86605;-76932.95;-76932.98;0.08451751;-0.07646902;0;
-80530.21;-80423.88;-29156.04;-80281.58;20.44819;-16.18502;-80550.14;-80539.86;-0.1104694;-0.07639218;0;
-80143.91;-80035.84;-27655.64;-79968.84;10.04517;-10.34136;-80162.7;-80150.09;0.1495109;-0.2062501;0;
-85189.41;-85083.44;-27422.3;-84479.67;12.51332;-7.450768;-85218.76;-85202.66;0.01942601;-0.1410755;0;
-95182.3;-95069.98;-28284.67;-94155.82;-35.99343;-11.93108;-95219.16;-95201.35;-0.3054302;0.4437723;0;
-96054.33;-95927.97;-29184.69;-95739.21;-53.97556;-11.78512;-96064.51;-96057.09;-0.3700907;0.3133917;0;
-92158.1;-92028.37;-30374.94;-92248.88;-18.35424;-4.740256;-92146.55;-92148.02;-0.2397841;-0.2066619;0;
-92735.04;-92607.41;-31843.85;-92707.25;-20.07711;-3.395835;-92727.06;-92728.19;0.1502609;-0.1414869;0;
-88159.67;-88029.55;-32122.7;-88645.34;-9.608083;-1.583945;-88141.71;-88147.86;0.02017521;-0.07637741;0;
-78315.4;-78191.65;-31279.58;-79135.79;0.04711343;-0.3096772;-78288.68;-78297.7;-0.1747471;-0.2712027;0;
-77332.51;-77222.91;-30516.71;-77477.66;-18.50708;-2.25181;-77331.09;-77330.03;0.3451672;-0.3358975;0;
-80808.05;-80701.65;-29294.05;-80560;-16.41141;-1.713745;-80827.12;-80817.76;0.5397224;-0.140658;0;
-80532.85;-80424.56;-27796.35;-80344.22;-11.3047;-7.807287;-80550.66;-80538.84;0.6041474;-0.205484;0;
-85800.28;-85694.31;-27553.56;-85066.26;-12.164;-9.80893;-85829.96;-85812.84;0.538573;-0.2052775;0;
-95856.38;-95743.83;-28396.37;-94815.75;5.195949;-7.253784;-95892.87;-95874.7;-0.04667417;-0.07513658;0;
-96748.16;-96621.32;-29283.07;-96423.71;9.678706;-7.983246;-96756.88;-96749.88;-0.176562;-0.2049958;0;
-92901.14;-92770.84;-30468.28;-92979.13;4.712488;-5.965797;-92888.83;-92890.72;0.01851748;0.2499816;0;
-93510.69;-93381.43;-31940.35;-93468.01;7.721863;-5.959803;-93500.27;-93502.74;-0.3063378;0.3146978;0;
-89021.69;-88889.53;-32223.91;-89491.42;-5.883554;-0.5953021;-89000.56;-89007.41;-0.30603;0.1194796;0;
-79262.53;-79137.16;-31376.75;-80069.19;-10.02985;2.553433;-79234.72;-79243.77;0.08408153;0.2492942;0;
-78457.41;-78346.06;-30619.94;-78581.41;-4.661139;-4.884055;-78455.08;-78455.82;0.0190297;-0.07579304;0;
-82201.75;-82094.02;-29411.42;-81923.3;-8.005358;-4.946131;-82220.31;-82213.68;-0.5656955;-0.3355862;0;
-82050.09;-81940.72;-27912.32;-81834.3;1.178738;-2.931734;-82068.05;-82058.61;-0.4351924;-0.4651837;0;
-87374.59;-87266.76;-27670.23;-86617.63;3.923244;-3.19672;-87403.23;-87387.84;0.4098203;-0.5296836;0;
-97451.22;-97336.13;-28514.2;-96391.63;-5.725265;1.093278;-97486.17;-97467.86;0.2145065;-0.269282;0;
-98253.38;-98124.16;-29388.72;-97917.99;-4.782483;2.632787;-98260.47;-98252.61;-0.4353824;-0.1390768;0;
-94266.85;-94135.11;-30556.72;-94346.29;-9.063609;2.764107;-94253.3;-94255.63;0.1497611;-0.2039044;0;
-94724.2;-94594.87;-32000.18;-94691.08;-10.86316;4.100927;-94714.46;-94717.54;0.40948;-0.3336342;0;
-90264.38;-90132.3;-32254.44;-90726.5;-0.4707474;3.426978;-90244.34;-90251.38;-0.3705395;-0.2683316;0;
-80806.23;-80680.34;-31412.19;-81575.86;1.137316;3.423534;-80779.66;-80788.25;-0.4351346;-0.07315997;0;
-80180.12;-80067.57;-30665.71;-80268.79;7.231742;5.898463;-80179.96;-80178.12;0.02007404;0.1867829;0;
-83864.19;-83754.45;-29433.46;-83568.53;12.04725;6.294434;-83883.5;-83874.03;-0.1098808;0.3814973;0;
-83823.3;-83712.02;-27937.1;-83587.07;2.925463;6.020177;-83840.69;-83830.3;0.02016428;0.1862119;0;
-89290.16;-89180.98;-27722.59;-88518.34;2.320287;6.75094;-89318.59;-89302.55;0.215046;-0.07384457;0;
-99216.98;-99099.91;-28554.42;-98165.26;8.747341;2.792225;-99250.37;-99232.75;0.1498626;0.186099;0;
-99920.78;-99788.81;-29419.44;-99595.2;9.542835;1.985624;-99925.69;-99919.49;0.01977736;0.2508793;0;
-95980.88;-95846.01;-30597.21;-96064.78;8.930034;5.131766;-95965.53;-95967.78;0.01975749;-0.07420945;0;
-96346.8;-96214.44;-32025.89;-96323.27;10.06014;5.997387;-96335.59;-96337.74;0.08470497;-0.1391022;0;
-91810.06;-91675.18;-32266.95;-92277.28;7.16964;8.804523;-91789.16;-91796.14;-0.5000862;0.1858743;0;
-82385.44;-82256.47;-31431.46;-83154.84;6.827643;12.07772;-82357.02;-82367.1;-0.4346164;0.2506548;0;
-81740.28;-81624.91;-30682.8;-81831.79;8.896888;8.582591;-81738.45;-81738.58;-0.109343;0.05550094;0;
-85388.68;-85276.67;-29449.67;-85097.13;8.017292;8.774916;-85407.52;-85398.97;-0.04426576;0.05544517;0;
-85249.63;-85135.79;-27952.41;-85022.52;14.50695;21.62658;-85265.83;-85256.88;0.0857134;0.05538946;0;
-90606.83;-90494.88;-27729.26;-89842.29;15.63047;25.48973;-90634.54;-90620.57;0.2805293;0.0553338;0;
-100593.3;-100474.8;-28570.03;-99541.06;13.73973;23.1867;-100628.9;-100611.2;0.3452148;0.1852129;0;
-101294.2;-101161.8;-29436.15;-100973;15.26617;24.57005;-101301.9;-101295.3;-0.04493616;-0.07484258;0;
-97189.81;-97053.66;-30598;-97284.87;3.260759;22.60285;-97175.2;-97178.41;-0.3697277;-0.3346367;0;
-97517.35;-97383.39;-32040.61;-97498.33;-0.4262123;20.97267;-97505.71;-97509.11;-0.2394215;-0.2043658;0;
-93035.57;-92899.52;-32305.49;-93498.73;2.052463;22.55907;-93014.48;-93023.46;-0.1092463;0.1206762;0;
-83559.02;-83428.3;-31466.87;-84336.63;-2.035437;22.26847;-83530.86;-83544.02;0.2806675;-0.009379702;0;
-82829.82;-82712.26;-30712.77;-82944.6;9.554534;13.00269;-82828.61;-82831.33;0.2154182;-0.07433762;0;
-86395.88;-86281.38;-29475.67;-86124.37;12.49267;9.77457;-86414.6;-86406.42;-0.304537;0.1856065;0;
-86153.52;-86037.1;-27971.2;-85946.22;-1.586054;9.965697;-86169.51;-86159.43;-0.2392637;-0.07444942;0;
-91441.23;-91326.57;-27753.13;-90695.65;-2.924607;6.874468;-91468.91;-91454.27;0.02084613;-0.5941133;0;
-101339.1;-101217;-28594.34;-100300.5;-4.529259;14.77143;-101372.4;-101355.8;0.2806945;-0.4635817;0;
-101964.6;-101827.9;-29464.03;-101655.7;-7.070303;16.9669;-101969.4;-101963.2;0.08551048;-0.07331184;0;
-97852.51;-97712.18;-30637.51;-97955.98;-0.4317666;12.59608;-97836.3;-97838.88;-0.1094775;-0.2681402;0;
-98095.92;-97957.41;-32064.52;-98089.59;1.243607;15.32972;-98082.95;-98086.52;-0.1093675;-0.3328381;0;
-93460.57;-93319.77;-32302.98;-93944.54;-4.853212;7.812354;-93438.92;-93445.56;-0.4990616;0.3171698;0;
-83895.17;-83760.76;-31439.06;-84684.97;-6.589648;6.06307;-83866.18;-83875.09;-0.6284949;0.4467857;0;
-83135.84;-83015.46;-30657.07;-83248.9;4.401687;18.24751;-83132.77;-83132.36;0.08677743;0.05653275;0;
-86649.65;-86532.61;-29399.16;-86380.23;7.478723;19.03296;-86667.45;-86657.27;0.2815922;-0.07345874;0;
-86255.95;-86137.85;-27864.41;-86061.92;-2.642849;28.39121;-86271.77;-86260.25;-0.04352739;-0.1383523;0;
-91503.2;-91388.09;-27642.63;-90765.91;-4.448854;33.58723;-91530.73;-91514.83;0.08645102;-0.07324591;0;
-101513.5;-101390.8;-28508.85;-100474.9;0.7795526;19.01855;-101546.8;-101529;0.2812662;0.05676237;0;
-102063.1;-101926.3;-29366.97;-101758.3;1.716774;17.25788;-102067.9;-102061.2;-0.04385314;-0.07322935;0;
-97872.54;-97733.06;-30522.28;-97979.8;-7.059837;15.83402;-97857.5;-97860.09;-0.1087764;-0.1381231;0;
-98158.94;-98021.57;-31945.66;-98158.23;-9.932155;11.26339;-98147.2;-98150.85;0.0862349;-0.2029517;0;
-93451.66;-93311.87;-32171.77;-93949.73;-2.420087;17.74918;-93429.27;-93436.2;-0.1087538;-0.1377804;0;
-83848.7;-83714.98;-31312.71;-84647.9;-2.283933;16.79358;-83818.74;-83827.82;-0.3035465;0.1871948;0;
-83135.98;-83015.32;-30540.74;-83251.81;-2.751129;11.21737;-83132.41;-83132.46;-0.4331762;0.1220393;0;
-86604.38;-86486.38;-29274.24;-86341.01;-2.346223;10.4023;-86622.02;-86611.89;-0.3677736;0.5117208;0;
-86073.67;-85955.07;-27729.9;-85890.78;-1.606931;2.153131;-86089.9;-86077.4;-0.1075347;0.4462392;0;
-91237.04;-91121.75;-27497.48;-90508.95;1.006652;-1.198118;-91264.97;-91248.23;0.1524427;-0.3338172;0;
-101329.6;-101206.7;-28360.96;-100289.2;-1.271535;2.687974;-101363.1;-101345.6;-0.04261247;0.05632221;0;
-102084.1;-101946.9;-29241.14;-101768.5;4.62424;1.278693;-102088.9;-102082.6;-0.302439;0.316135;0;
-98040.47;-97900.59;-30412.9;-98135.88;-3.083565;4.358562;-98025.91;-98026.24;0.08766892;-0.07398672;0;
-98380.95;-98242.7;-31830.83;-98365.35;-1.271806;5.024012;-98370.91;-98370.27;0.2824829;-0.07391237;0;
-93710.55;-93569.68;-32048.38;-94195.53;18.75652;3.411373;-93689.59;-93694.32;-0.04263769;-0.3337075;0;
-84051.11;-83917.34;-31171.88;-84850.03;20.7474;4.278723;-84021.61;-84029.95;-0.1725295;-0.1384701;0;
-83292.09;-83171.88;-30379.13;-83407.42;59.30775;-2.155816;-83288.13;-83287.51;0.08751319;0.05657102;0;
-86745.09;-86627.91;-29097.33;-86479.94;73.5154;-4.765923;-86762.56;-86752.63;0.1523926;-0.4632245;0;
-86128.97;-86010.7;-27530.15;-85950.45;51.4721;0.4634129;-86144.71;-86133.82;-0.04266255;-0.1379224;0;
-91351.57;-91235.29;-27290.5;-90614.55;54.90301;0.06104963;-91377.73;-91362.29;0.4121517;0.3819549;0;
-101627.7;-101504.1;-28169.59;-100568.2;33.81544;-2.752234;-101660.5;-101642.4;0.4767049;0.3166038;0;
-102423.5;-102286.7;-29055.17;-102102.8;27.75324;-3.151305;-102429.4;-102421.8;-0.3033822;0.186351;0;
-98335.16;-98195.26;-30229.99;-98431.52;18.8841;-6.832139;-98320.73;-98321.33;-0.1081753;0.1211964;0;
-98696.9;-98557.7;-31662.07;-98677.73;8.549997;-8.566769;-98685.37;-98687.34;0.2167701;0.1210746;0;
-94046.64;-93905.15;-31887.75;-94529.52;35.3336;-4.003444;-94025.66;-94032.18;-0.3681538;0.05598562;0;
-84382.98;-84248.26;-31006.01;-85175.66;38.11114;-2.525858;-84354.18;-84362.85;-0.1728818;-0.20394;0;
-83690.47;-83569;-30212.62;-83794.38;41.4891;-7.479935;-83686.96;-83686.48;0.4769653;-0.5285718;0;
-87257.13;-87138.91;-28961.96;-86981.63;47.34191;-7.405436;-87275.47;-87265.2;0.671388;-0.2681713;0;
-86770.09;-86650.52;-27451.79;-86576.86;38.18466;-2.709311;-86786.75;-86774.56;0.4758114;0.1868695;0;
-92043.77;-91926.6;-27242.74;-91295.6;36.6734;-0.89805;-92071.79;-92054.8;-0.1093728;0.1866818;0;
-102164.4;-102040.2;-28106.82;-101111.6;42.39635;1.246245;-102199.2;-102180;-0.2391976;-0.1383425;0;
-102831;-102692.5;-28973.79;-102518.1;42.82324;3.053471;-102837.2;-102829.4;0.0858795;-0.07323617;0;
-98713.9;-98572.49;-30128.08;-98813.21;24.76192;5.26084;-98699.12;-98700.26;0.1507606;0.3166415;0;
-98934.15;-98795.73;-31527.21;-98922.1;19.44576;5.8584;-98922.13;-98923.2;-0.3691297;0.446258;0;
-94272.19;-94131.5;-31749.63;-94752.19;15.20568;8.665674;-94250.77;-94255.48;-0.4986934;0.1859402;0;
-84837.5;-84702.48;-30905.82;-85617.99;8.024083;9.058865;-84810.42;-84817.12;0.08651372;0.1207861;0;
-84232.02;-84110.28;-30137.01;-84328.25;24.49309;6.504411;-84230.36;-84226.87;0.3462962;0.185632;0;
-87776.96;-87659.1;-28864.76;-87493.51;27.28152;7.167705;-87795.33;-87783;0.2809809;-0.07442387;0;
-87375.02;-87256.05;-27318.77;-87170.18;16.80526;-5.097069;-87390.84;-87379.11;0.4106332;-0.07434909;0;
-92664.36;-92547.33;-27084.55;-91910.07;16.92209;-9.043818;-92691.19;-92674.54;0.3452533;0.0556603;0;
-102759.7;-102636;-27940.42;-101701.6;18.7811;-1.39886;-102794;-102774;0.02006964;-0.1392976;0;
-103439.1;-103301.8;-28808.3;-103115.5;19.43181;-1.129523;-103445.4;-103437.6;-0.3047872;0.2506464;0;
-99264.47;-99124.2;-29969.32;-99361.59;17.60363;1.34992;-99250.06;-99251.98;-0.2395136;0.6401986;0;
-99477.48;-99338.98;-31396.6;-99471.67;17.1838;3.090059;-99466.27;-99468.03;-0.1093383;0.3147186;0;
-94831.37;-94690.51;-31630.29;-95316.8;19.9132;5.096442;-94808.93;-94816.34;-0.1741958;0.05453299;0;
-85333.84;-85199.3;-30771.37;-86118.63;20.16063;5.024338;-85303.58;-85315.02;-0.2389881;-0.3353259;0;
-84714.64;-84594.02;-30009.72;-84815.7;21.94904;12.92303;-84711.38;-84711.93;-0.1737806;-0.4649236;0;
-88298.55;-88181.33;-28759.46;-88021.23;23.3335;15.0535;-88316.3;-88306.84;-0.3035407;0.2501843;0;
-87887.52;-87768.77;-27228.91;-87693.1;22.10461;2.51281;-87902.98;-87892.39;0.02160104;0.2499329;0;
-93103.73;-92987.94;-27001.12;-92365.69;23.95743;-0.6377907;-93130.89;-93115;0.541318;-0.07515492;0;
-103144.6;-103021.8;-27859.76;-102097.9;20.71915;-7.335321;-103178.6;-103160.9;0.5407741;0.4446594;0;
-103810;-103672.2;-28740.31;-103496.1;21.03312;-12.5525;-103815.6;-103809.9;0.08545939;0.5091799;0;
-99604.38;-99463.69;-29910.96;-99714.55;25.1642;-12.53988;-99589.89;-99593.13;-0.3044305;0.1838316;0;
-99844.56;-99706.36;-31342.82;-99843.42;25.07254;-14.80464;-99834.18;-99836.76;0.08567941;0.3785489;0;
-95216.51;-95075.73;-31598.4;-95707.75;33.2854;-16.3973;-95195.62;-95202.31;0.1505607;0.1832665;0;
-85620.67;-85486.03;-30772.43;-86418.64;33.72144;-16.71573;-85592.37;-85603.15;-0.3693294;-0.4665911;0;
-84969.87;-84849.16;-30045.64;-85076.31;39.04619;-12.88103;-84969.04;-84968.76;-0.3039909;-0.3361876;0;
-88574.6;-88457.14;-28834.92;-88301.32;42.28851;-10.79162;-88595.3;-88583.36;-0.1087834;0.378791;0;
-88083.12;-87964.3;-27325.88;-87903.38;21.0799;-8.168504;-88101.82;-88090.34;0.4110646;0.1835084;0;
-93231.35;-93116.2;-27089.05;-92507.95;15.90116;-6.552766;-93262.91;-93247.66;0.4756189;-0.1415128;0;
-103284.4;-103162.3;-27935.15;-102245.7;14.54601;0.2189112;-103323.3;-103304.2;0.1503043;0.1834662;0;
-103958.1;-103821.1;-28801.16;-103649.6;9.708623;3.366828;-103967;-103961.1;-0.1097161;0.05334711;0;
-99683.7;-99543.61;-29940.1;-99799.23;13.24884;-3.66958;-99670.29;-99675.91;-0.1745732;-0.01167384;0;
-99771.47;-99633.9;-31347.11;-99780.66;12.43124;-4.536671;-99761.58;-99764.91;-0.0444631;-0.1415968;0;
-95082.21;-94942.13;-31595.06;-95579.12;10.54372;-5.134959;-95062.52;-95067.88;-0.2393204;0.05344751;0;
-85556.04;-85422.03;-30758.19;-86348.98;7.720087;-6.268448;-85529.4;-85538.38;-0.1091453;0.4431979;0;
-84937.9;-84817.4;-30011.86;-85041.58;21.6438;-10.08012;-84936.22;-84937.06;0.2158011;0.3777852;0;
-88519.84;-88402.42;-28776.75;-88247.88;24.77086;-12.1464;-88537.45;-88529.34;0.2155842;0.4423729;0;
-87992.52;-87873.59;-27240;-87807.51;13.76028;-10.05778;-88008.55;-87997.42;0.5402043;0.1820591;0;
-93136.88;-93019.77;-26984.93;-92404.3;14.61809;-11.11934;-93163.71;-93148.09;0.6046289;-0.1429606;0;
-103194.7;-103070.4;-27811.79;-102157.2;3.149199;-6.620435;-103227.2;-103210.7;0.1492499;-0.2077843;0;
-103879.2;-103740.6;-28654.5;-103574.1;2.944963;-5.40809;-103884;-103877.7;-0.1757367;0.1172612;0;
-99669.54;-99527.32;-29793.65;-99783.59;-9.315506;-5.603604;-99652.73;-99655.39;0.01934188;0.4419801;0;
-99696.77;-99556.66;-31199.81;-99712.5;-17.3441;-3.521564;-99682.16;-99685.28;0.1492571;0.05173195;0;
-94902.36;-94760.76;-31440.82;-95403.8;25.07292;-11.48881;-94878.9;-94885.11;-0.1757296;-0.2081894;0;
-85503.42;-85368.47;-30603.88;-86286.88;34.96071;-13.35273;-85473.9;-85482.7;0.01934904;-0.1430129;0;
-84976.64;-84855;-29824.76;-85077.65;28.3615;-7.444997;-84972.95;-84972.95;0.0193296;-0.4027385;0;
-88440.53;-88322.08;-28543.86;-88174.91;36.50467;-7.571482;-88457.11;-88448.44;-0.4354612;-0.4023339;0;
-87889.02;-87769.72;-26995.1;-87701;26.08552;-5.085567;-87902.3;-87892.95;-0.3700563;-0.07709289;0;
-93092.84;-92976.3;-26745.46;-92355.37;25.92558;-3.070968;-93117.25;-93103.07;-0.2397498;0.182854;0;
-103161;-103037.4;-27589.3;-102118.5;29.98537;-9.833036;-103192.9;-103176.2;-0.04460687;0.05273553;0;
-103892.2;-103754;-28452.98;-103574.7;28.48137;-12.10052;-103894.7;-103890.3;0.15034;-0.1422195;0;
-99714.58;-99572.5;-29581.84;-99814.12;31.33314;-3.045844;-99696.18;-99700.34;-0.1096805;0.1827601;0;
-99827.3;-99686.97;-30974.49;-99821.89;29.82877;-1.837152;-99812.89;-99816.23;-0.2395049;-0.01232554;0;
-95147.15;-95004.91;-31213.23;-95630.05;33.81728;-8.600399;-95122.16;-95130.8;-0.1093296;-0.1422478;0;
-85644.49;-85509.71;-30362.69;-86428.38;35.25717;-10.13236;-85613.03;-85625.01;-0.0442524;-0.07713756;0;
-85095.26;-84974.64;-29604.95;-85198.21;26.7143;-11.19385;-85090.76;-85092.66;0.08572675;-0.1420274;0;
-88714.42;-88596.24;-28359.66;-88448.05;26.28629;-12.99108;-88729.82;-88722.42;-0.1742288;0.182952;0;
-88025.93;-87906.02;-26789.75;-87849.88;21.63818;-14.6526;-88038.56;-88029.64;-0.3039884;0.1827682;0;
-93098.02;-92981.22;-26516.3;-92361.76;19.40564;-15.97747;-93122.75;-93109.46;0.02115379;-0.1422522;0;
-103414.5;-103290.8;-27380.65;-102345.4;28.62954;-18.30576;-103446.6;-103431.9;0.08609987;-0.4019786;0;
-104368.3;-104229.7;-28267.89;-104027.2;31.07902;-20.16289;-104371.9;-104368.8;-0.173856;-0.3366073;0;
-100345.3;-100203.8;-29421.36;-100429.8;31.18249;-16.99449;-100328.1;-100334.1;-0.303616;0.248437;0;
-100648.7;-100509.8;-30833.58;-100626.6;32.75777;-16.97742;-100635.4;-100640;-0.5631803;-0.01168204;0;
-95941.91;-95800.96;-31062.21;-96425.08;41.03122;-16.0226;-95919.59;-95927.31;-0.4976471;-0.2715397;0;
-86321.09;-86186.77;-30206.13;-87111.8;44.87476;-14.19802;-86293.25;-86303.65;0.08755905;-0.01139746;0;
-85727.04;-85606.13;-29446.59;-85824.34;35.85371;-20.27902;-85725.41;-85726.09;0.1524384;-0.07635335;0;
-89254.21;-89136.02;-28191.3;-88980.94;32.60251;-20.7945;-89271.48;-89264.38;0.3471873;-0.141244;0;
-88583.73;-88464.05;-26647.33;-88402.02;39.40225;-19.03211;-88598.29;-88590.48;0.5417404;-0.3360041;0;
-93760.95;-93644.11;-26413.79;-93023.98;37.48763;-20.08472;-93787.48;-93774.27;0.2163594;-0.3356664;0;
-104045.7;-103922.2;-27288.86;-102983.3;31.95662;-9.749409;-104079.2;-104064.3;0.0862073;-0.01049246;0;
-104989.1;-104851.5;-28193.4;-104653.3;31.38865;-5.452766;-104995;-104991.1;-0.1087813;0.1194528;0;
-100871.2;-100730.5;-29363.35;-100973.2;11.79858;-14.4898;-100855.7;-100861.1;-0.4335088;0.3792021;0;
-100943;-100804.1;-30770.87;-100948;4.754131;-14.07334;-100929.8;-100935.8;-0.4980405;0.1839191;0;
-96259.68;-96117.99;-31011.82;-96749.62;14.66234;-10.50917;-96237.15;-96246.82;-0.5625074;-0.2060698;0;
-86814.72;-86679.48;-30185.9;-87597.83;13.10737;-10.16369;-86786.12;-86797.44;-0.6269096;-0.1408954;0;
-86341.68;-86220.45;-29464.32;-86430.2;18.31911;-4.794968;-86340.16;-86340.51;-0.1715082;-0.2057212;0;
-90073.57;-89954.36;-28237.91;-89788.87;20.10839;-2.512791;-90092.72;-90082.85;0.1535008;-0.01061243;0;
-89549.31;-89427.88;-26693.61;-89362.72;24.0403;-5.457455;-89565.45;-89553.97;0.08837923;0.2492676;0;
-94614.49;-94495.18;-26450.99;-93884.73;27.49974;-5.786886;-94641.48;-94625.08;0.2831925;0.2490171;0;
-104676.5;-104549.6;-27314.28;-103633.7;25.12758;-0.5565242;-104710.9;-104692.1;0.3478752;-0.2060045;0;
-105584.4;-105444;-28218.49;-105260;28.85338;0.9175985;-105590.4;-105583.9;-0.04227835;-0.4006995;0;
-101618.3;-101474.9;-29410.96;-101713.2;12.14527;-4.039938;-101602.5;-101605.7;-0.1072032;0.05447451;0;
-101630;-101487.4;-30818.09;-101640.2;5.100471;-4.169845;-101617.5;-101620.8;-0.1070955;0.05441977;0;
-96760.12;-96615.66;-31043.09;-97262.69;27.73533;-5.639219;-96737.84;-96745.68;0.08791414;-0.01060225;0;
-87365.41;-87228.37;-30222.61;-88149.84;28.17598;-6.437347;-87336.32;-87346.24;0.3476952;0.05437575;0;
-86889.6;-86766.54;-29489.62;-86980.96;27.20966;-3.885589;-86886.27;-86886.38;-0.04245824;-0.3354829;0;
-90506.09;-90386.3;-28250.63;-90218.64;29.92899;-3.747719;-90523.26;-90513.99;-0.302285;-0.4001132;0;
-90050.52;-89929.32;-26727.78;-89853.97;10.74253;-0.1939186;-90066.05;-90054.79;-0.2370139;-0.07487445;0;
-95100.17;-94981.22;-26493.96;-94375.84;6.042686;1.413806;-95126.74;-95110.81;0.02309365;-0.1397665;0;
-105043.3;-104916.9;-27359.02;-104009.1;3.759438;1.814283;-105077.8;-105059.4;-0.1718316;-0.5943975;0;
-105939.7;-105798.8;-28282.21;-105618.6;-2.540979;3.353006;-105947.3;-105939.6;-0.4964956;-0.2689635;0;
-101908.8;-101765;-29485.76;-102012.9;9.116849;0.1345782;-101894.4;-101895.4;0.08870932;0.05614342;0;
-101962.8;-101821;-30904.16;-101968.7;10.38049;-0.9372839;-101950.9;-101952;0.02365285;-0.4636517;0;
-97167.75;-97023.8;-31123.63;-97662.91;-0.213492;2.613692;-97145.98;-97152.27;-0.4961097;-0.3332511;0;
-87584.29;-87447.01;-30259.84;-88380.3;-1.95459;2.276151;-87555.27;-87564.27;-0.1058071;0.1218551;0;
-87044.98;-86921.4;-29507.36;-87140.13;1.262555;-0.6733238;-87042.76;-87041.1;0.1541686;0.1867;0;
-90785.97;-90665.41;-28277.22;-90498.09;0.7917958;-2.347159;-90805.24;-90794.49;0.1540137;0.4463818;0;
-90196.66;-90073.91;-26736.29;-90018.51;1.260491;-2.009947;-90213.19;-90202.45;0.02392423;0.3159986;0;
-95069.28;-94948.47;-26478.92;-94356.45;2.665744;-2.275799;-95096.45;-95080.94;0.08886753;-0.1390904;0;
-105044.6;-104917.9;-27326.43;-104007.5;-4.771674;-7.699008;-105080.5;-105060.4;-0.04115645;-0.2688853;0;
-105975.5;-105835.6;-28219.08;-105651.4;-6.039677;-8.294118;-105983.5;-105975;-0.1710498;-0.07371309;0;
-101978.4;-101834.4;-29404.46;-102076.7;-2.148843;-9.82633;-101963.1;-101966.1;0.4787955;0.05629566;0;
-101911.5;-101769;-30798.07;-101928.5;-2.682547;-10.4193;-101899.5;-101902.4;0.3483797;-0.3335649;0;
-96917.48;-96774.04;-30985.01;-97430.29;3.884232;-3.64374;-96897.03;-96903.02;-0.4315784;-0.4631644;0;
-87446.18;-87309.45;-30135.29;-88237.52;5.755363;-1.697635;-87418.88;-87427.8;-0.1712754;-0.2028297;0;
-86982.09;-86857.87;-29390.46;-87078.34;4.075617;5.270174;-86979.84;-86980.26;0.2836681;0.1871781;0;
-90607.14;-90485.73;-28137.17;-90327.98;4.741107;10.08753;-90625.85;-90615.93;0.4133177;0.3169248;0;
-90134.91;-90012.25;-26603.09;-89943.11;1.38744;5.053793;-90152.73;-90140.82;0.2829677;0.05673693;0;
-95167.99;-95047.88;-26350.26;-94443.59;0.2469704;5.85251;-95196.72;-95182.48;-0.1071206;-0.2681568;0;
-105051.7;-104924.8;-27188.88;-104025.1;-3.704417;11.13816;-105086.4;-105068.7;-0.1719803;-0.20292;0;
-105929;-105788.2;-28103.87;-105610.5;-6.514709;12.39952;-105935.8;-105926;-0.3017422;0.4469573;0;
-102061.1;-101916.8;-29311.57;-102149.3;-4.632154;10.17675;-102046.3;-102047.3;0.02339769;0.5114756;0;
-102149.9;-102007.5;-30715.8;-102154;-5.163363;9.89859;-102137.7;-102139.7;0.2182762;-0.3336138;0;
-97158.2;-97013.5;-30908.29;-97670.57;-7.167906;9.084848;-97136.73;-97141.48;-0.1717472;-0.2033439;0;
-87503.76;-87365.67;-30030.41;-88308.09;-6.758563;8.070976;-87474.8;-87483.37;0.1532621;0.1866645;0;
-86962.03;-86837.51;-29263.17;-87063.03;-9.699509;9.670457;-86958.22;-86958.05;0.2830428;-0.3332618;0;
-90611.09;-90489.13;-28015;-90331.92;-11.69852;10.26359;-90628.58;-90618.89;-0.3019477;-0.008090275;0;
-89961.35;-89837.92;-26465.71;-89784.48;-0.367258;7.105076;-89978.02;-89966.4;-0.1067423;0.4466892;0;
-94915.45;-94794.96;-26202.71;-94194.78;1.910287;7.097937;-94943.47;-94926.46;0.2182017;0.2513384;0;
-105050.8;-104923.6;-27055.59;-103999.5;-1.373186;8.765378;-105085.5;-105066;0.08804777;0.3810205;0;
-106071.5;-105929.8;-27957.88;-105734.5;0.5032275;9.091485;-106078.8;-106070.4;0.0879593;0.250703;0;
-102190.8;-102045.3;-29137.09;-102274.3;-10.1472;14.17293;-102176.8;-102178;0.2178056;-0.334255;0;
-102278.6;-102135.2;-30530.06;-102280.7;-13.75432;16.36913;-102267;-102269.1;0.3475214;-0.1390171;0;
-97260.99;-97115.73;-30725.21;-97771.49;-7.979728;15.95078;-97239.74;-97245.67;-0.1075991;-0.07391008;0;
-87662.63;-87523.76;-29867.53;-88459.34;-9.579301;17.27429;-87634.56;-87642.98;-0.6921971;-0.008868475;0;
-87208.55;-87083.12;-29124.51;-87304.5;-5.751282;18.12771;-87206.3;-87205.88;-0.1717629;0.5758466;0;
-90952.18;-90829.84;-27893.5;-90664.48;-3.468328;19.11424;-90969.93;-90960.98;0.2182138;0.3153985;0;
-90468.62;-90344.77;-26361.67;-90274.69;-12.10601;16.48282;-90483.66;-90473.31;-0.2367769;-0.1396898;0;
-95420.67;-95299.43;-26103.39;-94699.84;-12.36129;15.32755;-95447.48;-95431.87;0.02333041;-0.2694841;0;
-105297.8;-105169.4;-26941.45;-104271.4;-11.67928;19.53195;-105332.5;-105313.6;0.413111;-0.4641153;0;
-106153.5;-106010.6;-27827.57;-105837.1;-13.54258;20.18216;-106161.2;-106152.3;0.2827612;0.1210571;0;
-102325.3;-102179.5;-29005.38;-102413.4;0.8046442;16.41095;-102312.1;-102312.1;0.0875751;0.3808048;0;
-102398.2;-102254.8;-30397.8;-102406.7;5.425536;15.59067;-102387.4;-102388.7;-0.1723823;-0.1393166;0;
-97281.3;-97135.63;-30577.65;-97801.56;-2.617867;16.31182;-97260.84;-97267.5;0.02269297;-0.07420924;0;
-87723.13;-87584;-29719.78;-88522.91;-0.672854;15.15672;-87696.46;-87705.52;0.3475069;-0.009167328;0;
-87343.13;-87217.91;-28992.92;-87437.96;-3.351495;17.48577;-87342.82;-87340.95;0.1522557;-0.07412546;0;
-91059.11;-90937.15;-27764.24;-90775.63;-3.4145;18.00406;-91079.76;-91067.92;0.022168;-0.009083635;0;
-90496;-90372.26;-26230.72;-90314.45;0.6747673;12.15858;-90514.08;-90501.84;-0.04282161;-0.2039765;0;
-95393.09;-95271.29;-25974.23;-94680.52;1.008882;10.67286;-95420.87;-95405.11;0.2820581;-0.3337063;0;
-105362.7;-105234;-26822.66;-104332.3;9.715405;12.2696;-105397.4;-105378.6;0.541644;-0.4633056;0;
-106260.1;-106118;-27716.87;-105937.4;13.45669;12.25727;-106268.3;-106259.4;0.0213611;-0.3329054;0;
-102352;-102206.9;-28892.79;-102433.9;9.088909;9.699727;-102339.5;-102341.1;-0.04362771;-0.007734205;0;
-102550.5;-102406.6;-30309.5;-102547.5;9.348197;8.886186;-102540.7;-102543.4;0.02138347;0.05724091;0;
-97554.75;-97408.2;-30517.58;-98069.62;10.20946;11.15468;-97533.93;-97538.95;-0.4983768;-0.1377186;0;
-87892.47;-87753.41;-29659.84;-88699.08;7.988399;9.937776;-87864.7;-87871.26;-0.4329086;-0.07261291;0;
-87435.38;-87310.23;-28928.17;-87540.37;15.01395;16.29105;-87435;-87433.05;-0.04266959;0.05739474;0;
-91141.2;-91018.8;-27698.02;-90860.6;18.08032;18.28404;-91161.66;-91151.34;0.1522753;0.1872718;0;
-90657.38;-90533.73;-26168.56;-90464.95;-1.362655;7.883561;-90676.35;-90663.42;0.1521223;0.5119203;0;
-95600.2;-95479.05;-25902.52;-94880.82;-3.906881;5.866273;-95630.08;-95611.88;-0.04293258;0.5763733;0;
-105391.5;-105263.6;-26720.25;-104368.3;-4.706263;5.793396;-105427.7;-105407.3;-0.2377915;0.2509574;0;
-106214.4;-106072.5;-27605.73;-105897.8;-9.123139;4.983779;-106223.9;-106213.7;-0.3025199;0.1207706;0;
-102364.6;-102219.4;-28787.1;-102452.5;10.31083;1.294771;-102353.2;-102353.2;-0.1722812;-0.07425283;0;
-102407.9;-102264.5;-30192.27;-102419.3;13.11351;0.2887264;-102398.5;-102399.4;-0.2370754;-0.2690803;0;
-97280.88;-97134.58;-30406.37;-97805.44;17.78938;4.240368;-97260.38;-97265.54;-0.1069026;0.05602684;0;
-87701.17;-87561.68;-29570.22;-88501.13;23.46494;4.504039;-87673.74;-87681.98;-0.1067951;0.3158399;0;
-87279.81;-87155.04;-28846.23;-87378.1;8.16974;12.6042;-87278.73;-87277.41;-0.3015898;0.05565318;0;
-91038.65;-90916.44;-27634.56;-90756.69;6.821383;15.60577;-91058.16;-91047.27;-0.2363195;0.185532;0;
-90589.76;-90465.8;-26115.51;-90399.25;1.121102;16.59471;-90608.56;-90595.72;-0.4959514;0.3152802;0;
-95413.52;-95292.17;-25824.81;-94705.55;-4.438754;19.8602;-95444.35;-95426.93;-0.3655184;-0.139808;0;
-105228.4;-105100.4;-26623.82;-104212.5;5.211249;10.12796;-105266.1;-105247.4;-0.1052817;-0.2696022;0;
-106060;-105918.2;-27497.96;-105749.9;5.071315;7.371489;-106070;-106063;-0.300078;0.1204728;0;
-102048.8;-101904.3;-28662.7;-102150.5;-0.6272083;12.05276;-102037.7;-102040.1;-0.1048744;0.05538437;0;
-102097.7;-101955.5;-30064.43;-102111.5;-2.234169;10.03129;-102089.7;-102091.4;0.2200677;-0.2045406;0;
-96955.87;-96811.75;-30259.67;-97484.93;1.519121;10.89199;-96938.88;-96943.27;0.1548792;0.1854689;0;
-87215.79;-87078.85;-29394.44;-88039.83;1.718665;10.21121;-87192.21;-87200.03;-0.3650151;-0.009619458;0;
-86759.37;-86636.16;-28678.34;-86875.06;-4.17756;7.186721;-86762.27;-86761.55;-0.299681;-0.3994139;0;
-90510.7;-90389.98;-27476.39;-90236.32;-6.785331;7.64838;-90535.09;-90524.59;0.3502935;0.1856936;0;
