Fp1;Fp2;O1;O2;POLY3;POLY4;A1;A2;Video;Audio;event;
-24207.67;-19193.03;-221.1758;-28912.74;-3.243889;3.796892;-25773.46;-14828.4;-0.5348111;-0.1473459;0;13:29:32 Рука;
-7763.146;-5059.281;-1245.189;-14774.5;-9.603642;6.137419;-9292.475;-5071.133;-0.3393717;-0.6669366;0;
-4307.875;-612.4144;-2723.194;-11151.92;-17.56459;8.207723;-5849.661;-1121.505;0.2456753;-0.4063971;0;
1169.967;1171.711;-3304.164;-1278.043;7.503938;-1.445884;1271.641;684.2307;0.05052645;0.1787173;0;
17452.62;13300.34;-2590.264;21129.78;10.37679;-2.851011;18919.07;10970.14;0.1804104;0.3734398;0;
19372.38;15808.18;-1865.149;24899.29;4.137069;1.438639;20761.53;13727.11;0.1802291;0.2431299;0;
15187.88;11653.45;-859.9359;20504.36;7.147022;0.7673642;16461.84;9626.72;0.05011331;0.1129509;0;
14924.99;11185.3;679.4673;20719.23;-8.936063;9.139338;16342.89;9076.178;0.5698017;-0.2769667;0;
11980.91;8908.952;1259.961;16677.83;-13.28036;11.47443;12964.54;6928.945;0.3743271;-0.2766884;0;
-11907.04;-9325.136;561.8268;-11612.03;-9.650674;10.86006;-12690.88;-7057.146;-0.4056571;0.2433284;0;
-24610.4;-19651.27;-293.1833;-29358.3;-12.92253;12.38975;-26206.69;-15213.41;-0.4702168;0.1781165;0;
-7380.053;-4977.785;-1287.951;-14431;-9.158502;8.492417;-8905.197;-5065.056;0.3098637;0.04800288;0;
-4059.944;-472.7168;-2772.004;-11111.57;-9.283998;8.015003;-5678.397;-1095.413;0.5044544;-0.0170127;0;
545.8228;746.8954;-3398.559;-2511.489;-9.274669;5.327693;464.3951;265.8794;-0.0157912;-0.08196294;0;
17200.39;13091.55;-2664.23;20522.3;-6.920825;4.518545;18594.71;10783.56;-0.14571;-0.01691325;0;
19475.34;15881.99;-1914.428;25067.24;-12.87474;1.834748;20883.74;13792.44;-0.210531;0.3079405;0;
15156.11;11647.55;-911.8203;20445.57;-12.19222;0.2253755;16417.6;9630.37;-0.3402541;0.2426637;0;
15180.67;11443.07;672.7999;20933.87;-11.17559;6.454379;16598.97;9333.604;-0.3399122;-0.1473842;0;
12349.11;9224.402;1279.912;17108.51;-12.77195;7.184706;13342.47;7225.374;-0.2746033;0.242568;0;
-11499.34;-9037.566;570.7319;-11147.25;4.321163;11.19634;-12289.36;-6796.264;-0.01445803;0.3722589;0;
-24188.19;-19255.39;-279.3521;-28906.7;9.541734;13.12759;-25813.19;-14841.53;0.05052384;-0.08288653;0;
-7718.15;-5135.491;-1281.817;-14736.29;3.034436;12.31061;-9312.661;-5094.289;0.1154404;-0.2127379;0;
-4559.463;-887.3701;-2755.226;-11386.3;6.716058;13.77186;-6157.666;-1246.054;0.1802918;0.1123125;0;
809.1879;869.6075;-3344.597;-1781.605;-3.271025;6.25606;876.5352;492.3557;-0.2746608;0.2421344;0;
17392.21;13244.51;-2625.44;20943.58;-5.343843;3.905432;18844.08;10903.78;0.1803866;-0.0179783;0;
19389.88;15834.05;-1893.731;24916.65;2.899573;4.236423;20773.76;13755.61;0.505042;-0.5376989;0;
15235.1;11714.97;-882.8039;20515.2;2.026003;1.084029;16498.77;9691.556;-0.2750735;-0.7320607;0;
15040.82;11314.08;671.0837;20812.12;13.81296;5.905589;16447.76;9205.183;-0.2098298;-0.4064884;0;
12059.77;8966.857;1267.359;16806.27;18.21971;5.832672;13042.78;6970.942;-0.01471693;-0.3411126;0;
-11444.85;-8875.221;589.7697;-11132;11.30253;0.2673497;-12243.25;-6773.673;-0.4045062;-0.2758026;0;
-23955.18;-19030.04;-253.0246;-28697.14;12.89876;-0.7376019;-25580.54;-14690.42;-0.5340344;-0.01565605;0;
-6991.857;-4750.771;-1247.958;-14090.04;9.804344;-4.822759;-8580.349;-4910.25;-0.2736284;-0.2105424;0;
-3300.793;32.42855;-2719.463;-10359.55;8.991186;-7.363203;-4904.898;-984.0219;-0.2083862;-0.1453635;0;
1304.148;1292.575;-3332.453;-1515.78;11.12561;-3.202924;1377.641;540.7946;-0.1432094;-0.2751521;0;
17175.39;13028.53;-2616.9;20653.6;10.71229;-2.529876;18631.26;10762.07;0.1168038;-0.4048103;0;
19314.94;15760.16;-1886.417;24855.72;13.24614;-7.95283;20690.37;13671.5;0.05171911;0.05036787;0;
14988.23;11480.81;-894.8942;20285.46;13.50125;-8.614668;16252.83;9462.328;-0.07826754;-0.07961743;0;
14676.5;10936.88;658.3184;20456.52;15.56379;-5.256926;16082.9;8835.584;0.05174579;-0.2744395;0;
11801.4;8757.873;1272.504;16473.52;16.15136;-4.648859;12780.64;6794.961;0.1816285;-0.144229;0;
-12323.07;-9752.033;604.0609;-12070.61;18.21124;-1.094153;-13107.43;-7392.285;0.3113807;0.05081794;0;
-25266.43;-20247.77;-235.9991;-30031.01;20.87226;1.117322;-26899.51;-15784.18;-0.07873627;-0.01420047;0;
-8063.27;-5318.119;-1222.672;-15162.94;8.661123;0.1784994;-9676.027;-5402.955;-0.1436245;-0.2740556;0;
-4477.232;-665.3612;-2678.211;-11481.56;5.43724;1.517918;-6103.298;-1156.61;0.2463239;0.1809912;0;
515.3686;658.2361;-3264.787;-2370.533;11.92851;1.449409;540.076;321.9654;-0.1437277;0.2457767;0;
17125.28;13005.73;-2520.254;20524.53;9.505628;1.514936;18562.01;10708.5;-0.1435833;-0.1442743;0;
19256.17;15693.72;-1767.598;24807.17;19.40906;4.125687;20637.99;13596.09;0.4412671;0.05077266;0;
14955.03;11453.13;-750.0204;20237.82;22.53739;4.188525;16211.56;9463.348;0.5707584;0.115689;0;
14800.69;11059.93;817.4457;20575.55;9.58765;4.117333;16206.33;8930.711;0.4402502;-0.01436194;0;
11649.69;8629.583;1411.294;16300.54;8.305219;3.711298;12612.36;6736.477;-0.01496356;-0.07931485;0;
-12827.36;-10240.59;727.0005;-12612.87;2.737168;2.635903;-13638.03;-7729.228;-0.2098505;0.05069953;0;
-25858.42;-20752.03;-109.185;-30624.59;-2.288448;2.432306;-27490.14;-16224.13;-0.01473767;-0.01431875;0;
-8546.013;-5585.665;-1092.55;-15578.05;7.894281;-4.469258;-10130.62;-5604.481;-0.0796902;-0.07927171;0;
-4613.726;-749.496;-2550.094;-11623.42;8.75798;-7.746809;-6246.843;-1195.172;0.1152919;0.05074263;0;
576.6625;658.9089;-3152.852;-2500.62;3.122126;-2.447495;544.836;234.139;0.1801434;-0.0142757;0;
17049.74;12945.63;-2424.111;20345.47;4.525509;-2.712968;18462.94;10627.4;-0.01493964;-0.144196;0;
19199.13;15639.33;-1680.361;24766.06;-2.913778;-4.518781;20586.57;13566.72;-0.01492463;-0.01411647;0;
14913.72;11411.96;-673.8023;20177.88;-5.389097;-3.777428;16165.29;9405.674;0.1150251;-0.07906962;0;
14662.16;10935.56;888.09;20434.98;7.342343;-7.524555;16066.59;8826.541;0.4397462;-0.07899018;0;
11678.28;8636.705;1480.493;16279.81;9.344698;-8.253806;12640.22;6709.903;0.3093696;0.2459259;0;
-12469.18;-9884.448;798.3165;-12336.33;10.74183;-4.159676;-13286.88;-7471.433;0.04918941;0.1807115;0;
-25390.87;-20347.21;-47.15489;-30213.7;13.61142;-3.887565;-27043.29;-15845.03;-0.145762;0.05059519;0;
-8178.214;-5408.353;-1066.501;-15285.4;8.842323;0.3361443;-9803.38;-5482.633;-0.4054849;0.1155117;0;
-4436.998;-659.2877;-2545.436;-11437.55;9.23558;2.613226;-6084.113;-1234.194;-0.01527346;0.180363;0;
494.2029;596.119;-3140.172;-2527.045;9.091602;-2.47998;489.6525;139.2937;-0.08022545;0.3101164;0;
16864.48;12753.83;-2406.821;20149.83;9.618331;-2.812403;18291.34;10456.22;-0.6648509;0.3098048;0;
19113.11;15563.27;-1646.721;24665.12;7.064047;-1.804894;20494.53;13487.81;-0.01450946;-0.08031052;0;
14942.6;11439.98;-615.7399;20203.5;5.917873;-2.405866;16193.09;9439.158;0.3753092;-0.2101645;0;
14627.58;10909.07;937.0673;20406.78;13.88253;-2.470432;16031.67;8803.879;-0.01487199;0.2448181;0;
11531.54;8501.704;1511.462;16098.8;15.00766;-3.070796;12474.06;6562.545;0.2450123;0.1796047;0;
-12514.68;-9877.854;828.1918;-12476.47;17.73827;-2.933744;-13363.13;-7452.867;0.5696028;-0.3403145;0;
-25102.91;-20060.84;-4.409801;-29978.96;19.12696;-3.198728;-26761.37;-15532.3;0.5040631;-0.4699072;0;
-7787.333;-5261.654;-1006.121;-14915.41;17.83592;-2.927582;-9400.318;-5301.106;0.17872;-0.1445983;0;
-4625.547;-928.4181;-2497.766;-11706.43;18.88973;-2.187889;-6291.509;-1332.756;-0.1462963;0.245351;0;
82.18948;351.4188;-3117.381;-3034.821;8.488271;-5.065835;27.1868;49.13875;-0.01621464;-0.07973224;0;
16893.69;12809.29;-2384.178;20144.77;4.594975;-5.127728;18293.38;10507.47;0.1137363;0.05028256;0;
19246.18;15674.75;-1629.566;24809.22;7.134977;-5.189559;20631.33;13598.56;-0.01631263;0.4400361;0;
15016.86;11533.14;-617.3745;20268.03;4.248396;-6.992883;16266.72;9535.009;0.2435731;0.1147572;0;
14924;11204.16;959.8596;20647.15;5.114784;2.324588;16320.52;9109.73;0.5031977;0.04967457;0;
12099.54;9023.213;1557.688;16855.14;3.167261;3.929781;13087.61;7057.183;0.3077901;0.2445267;0;
-12080.28;-9543.963;830.3937;-11686.24;7.98685;-0.2939698;-12863.8;-7276.738;0.1125788;0.1143463;0;
-24960.38;-19980.21;-34.44386;-29761.31;11.92996;0.7110085;-26615.67;-15583.15;0.04749836;0.04926407;0;
-7831.945;-5237.946;-1043.714;-14955.68;-10.1188;-10.00667;-9449.749;-5275.95;0.04745063;-0.08072012;0;
-4834.641;-1021.831;-2548.971;-11863.1;-16.33792;-13.61363;-6535.339;-1355.461;-0.08253174;-0.4054757;0;
-34.05267;251.4003;-3163.443;-3220.24;2.433716;-9.514116;-162.9253;-9.305803;-0.1474161;-0.2101663;0;
16887.88;12794.22;-2422.51;20081.39;3.033507;-10.57622;18269.89;10486.41;-0.2772027;-0.1449877;0;
19316.26;15761.55;-1639.219;24864.61;4.571676;-9.49393;20708.54;13686.28;-0.1469895;0.05005996;0;
15251.12;11763.06;-581.2903;20481.76;8.117056;-8.747578;16491.23;9778.967;0.1779949;0.5047811;0;
15052.87;11338.7;989.1297;20792.01;-0.3975666;-7.868011;16452.14;9234.909;0.04788138;0.1794371;0;
11942.48;8895.699;1554.382;16664;0.8756306;-6.654473;12903.82;6953.351;-0.01713407;0.04932215;0;
-12219.39;-9635.086;825.3737;-11936.6;-3.412157;-4.90623;-13058.71;-7304.254;0.1777852;0.2441746;0;
-25029.74;-19996.85;-39.67745;-29828.07;-5.151017;-4.298515;-26672.94;-15540.24;-0.1472302;0.1139946;0;
-7843.638;-5294.432;-1047.256;-14925.69;6.509433;-0.4762296;-9431.607;-5301.592;-0.2770169;0.3087821;0;
-4441.479;-760.8096;-2527.272;-11457.54;7.909412;1.600659;-6106.891;-1284.016;0.04809814;0.2435045;0;
409.8916;629.6;-3123.025;-2638.356;11.11665;-7.912282;375.5367;151.5373;-0.08188488;-0.01660958;0;
16951.12;12853.45;-2380.447;20249.03;11.10548;-11.38738;18368.76;10553.53;-0.0818026;0.04837445;0;
19209.24;15659.52;-1607.723;24748.94;19.13227;-3.472138;20585;13606.98;-0.01675306;0.1132932;0;
15045.07;11561.42;-566.0367;20288.52;23.6674;-3.066751;16293.31;9562.646;-0.08170357;-0.01675534;0;
14783.53;11071.42;1007.616;20534.94;0.2676693;-11.2354;16180.28;8981.747;0.2432152;-0.4065425;0;
11787.26;8744.252;1597.12;16449.86;-2.94778;-12.49673;12755.43;6819.133;-0.08186585;-0.3411667;0;
-12341.27;-9763.563;891.3062;-12138.27;-9.911043;-13.9578;-13167.52;-7444.287;-0.2117183;0.04898014;0;
-25277.91;-20246.63;35.27791;-30112.87;-17.40317;-15.35035;-26941.92;-15757.3;0.2432658;-0.1459711;0;
-7662.411;-5211.136;-968.6904;-14880.28;4.450017;-9.909434;-9271.908;-5325.871;0.04811938;-0.3407264;0;
-3772.273;-277.5016;-2446.849;-10934.26;7.124864;-8.358931;-5437.827;-1121.38;-0.146831;-0.1454821;0;
590.3265;733.6753;-3062.486;-2414.391;3.701453;-8.886395;551.5511;171.2068;-0.08171611;0.04956615;0;
16682.27;12589.38;-2347.704;20025.96;4.300946;-8.140654;18096.49;10353.07;-0.1466013;0.04951634;0;
19104.7;15556.78;-1568.298;24617.19;10.59326;-3.041893;20481.07;13478.47;0.1783827;-0.3403375;0;
15032.33;11551.88;-516.8746;20262.7;14.53376;-1.029409;16276.03;9574.912;0.2431708;-0.5348975;0;
14682.92;10967.85;1034.959;20428.9;-3.565505;-3.90858;16081.37;8878.527;-0.1468776;-0.144556;0;
11533.45;8512.718;1625.059;16204.34;-5.303234;-3.301806;12481.44;6600.747;-0.01679535;0.180426;0;
-12509.58;-9909.877;950.8582;-12315.36;-12.93372;-6.78154;-13375.58;-7496.881;0.1131562;0.1802447;0;
-25133.56;-20069.87;109.4814;-29991.39;-19.01629;-8.04734;-26798.59;-15597.1;0.04807517;0.1150962;0;
-7822.64;-5247.878;-895.03;-14974.67;2.168938;-6.230777;-9414.997;-5315.136;0.5027983;-0.01495412;0;
-4443.615;-753.3773;-2377.479;-11485.26;5.649383;-6.693397;-6097.73;-1342.555;0.307391;0.05002825;0;
165.5513;451.134;-3005.304;-2827.515;5.376263;-6.284773;150.7277;-4.393914;-0.1476893;0.1799127;0;
16624.58;12554.25;-2293.703;19938.81;8.251248;-7.082253;18051.73;10286.95;-0.01760616;0.2446992;0;
19075.87;15520.48;-1503.669;24587.38;11.25707;-2.587342;20447.95;13461.39;0.04737887;0.2444534;0;
14991.87;11521.49;-442.4413;20229.24;14.12614;-1.178161;16241.39;9550.418;0.3072006;-0.08062898;0;
14669.7;10960.65;1117.594;20429.47;6.20772;-6.937388;16069.4;8857.134;-0.01794476;-0.27545;0;
11409.77;8401.937;1704.426;15973.13;6.268832;-7.667168;12355.43;6562.977;-0.4077308;-0.08027119;0;
-13126.97;-10483.14;1022.493;-13033.57;-1.97649;-7.860413;-13973.21;-7863.026;-0.2773864;0.2446462;0;
-25795.69;-20761.67;199.0037;-30657.21;-5.926619;-7.718549;-27459.53;-16159.4;-0.147173;0.179433;0;
-7735.053;-5368.646;-774.176;-14928.83;5.466191;-12.86836;-9333.58;-5457.101;0.5026483;-0.08061665;0;
-4290.196;-753.5062;-2248.157;-11476.87;6.466053;-15.4677;-5986.863;-1312.167;0.6320779;-0.08053565;0;
-75.7049;224.8221;-2868.897;-3363.052;10.54539;-6.744621;-210.2016;-161.3174;0.1766714;0.04947996;0;
16503.19;12443.45;-2144.44;19633.33;13.749;-7.005776;17879.65;10187.8;0.1115265;-0.0155371;0;
19003.77;15445;-1376.295;24554.17;12.93188;-4.386463;20400.35;13382.61;0.5012186;-0.08048883;0;
15044.62;11583.93;-332.2174;20258.77;14.3254;-3.444294;16286.36;9616.734;0.6306495;-0.3402773;0;
14915.97;11197.96;1229.332;20631.75;17.72726;-10.20593;16314.33;9119.926;-0.1495922;-0.4698701;0;
11623.66;8602.273;1799.309;16387.92;21.05835;-10.66455;12582.01;6696.881;-0.2144092;-0.4044306;0;
-12598.63;-10015.08;1102.288;-12252.16;6.97102;-22.91141;-13447.65;-7624.559;0.3055449;-0.07918754;0;
-25304.52;-20249.04;262.7271;-30084.16;2.141245;-27.97897;-26952.45;-15799.47;0.3052379;0.3106961;0;
-8073.989;-5432.816;-730.9125;-15199.04;18.48244;-23.26217;-9659.313;-5460.973;0.04506187;-0.01445282;0;
-4678.969;-948.2495;-2206.561;-11731.02;20.13881;-25.78409;-6330.76;-1430.04;0.04501659;-0.2743077;0;
66.8647;329.3428;-2837.494;-3031.802;15.2958;-19.93079;57.92425;-88.51116;-0.1499307;0.05080467;0;
16537.24;12469.03;-2140.804;19784.09;15.74895;-18.30323;17970.02;10190.94;-0.6045514;0.05075362;0;
18937.72;15391.2;-1379.754;24444.08;15.39833;-19.7584;20305.89;13345.77;-0.1491726;0.1806373;0;
14941.33;11475.71;-342.9502;20151.99;16.723;-17.72912;16187.76;9506.593;0.1108467;0.5702599;0;
14624.3;10915.33;1204.773;20364.61;8.266108;-21.73022;16022.32;8825.753;-0.2141014;0.4397522;0;
11385.39;8388.177;1790.923;15942.86;5.243691;-21.97632;12329.29;6541.388;0.1109504;0.1144736;0;
-13251.73;-10628.04;1112.089;-13153;13.47745;-19.60983;-14096.92;-8045.543;0.04587162;-0.01557611;0;
-26322.62;-21277.41;281.6073;-31195.96;11.99004;-19.52315;-28001.27;-16665.59;-0.2140438;-0.2754298;0;
-8240.215;-5667.725;-696.4654;-15461.55;20.01594;-18.2979;-9852.008;-5739.001;-0.1488614;-0.4050878;0;
-4433.954;-728.1661;-2180.238;-11664.57;22.94259;-18.07857;-6137.377;-1288.156;-0.2786465;-0.07984402;0;
-190.7851;133.5859;-2834.436;-3611.111;9.992439;-16.65382;-358.3463;-222.4593;-0.1484319;-0.07976379;0;
16349.5;12298.85;-2152.461;19406.79;8.7096;-15.90027;17707.14;10053.65;0.2415213;0.05025104;0;
18804.42;15251.69;-1410.108;24369.55;2.204115;-18.16166;20201.35;13185.57;0.5661154;0.3100699;0;
14683.59;11235.89;-384.8928;19903.55;-1.549144;-18.5453;15921.1;9290.62;0.4356118;0.4396931;0;
14517.66;10792.93;1159.249;20264.38;2.337179;-18.86158;15912.2;8683.132;0.04537009;0.5042186;0;
10919.09;7997.297;1735.107;15464.51;0.9956598;-19.78033;11856.98;6209.303;0.1102918;0.1139079;0;
-13822.85;-11092.48;1059.202;-13816.55;6.487016;-19.29164;-14664.28;-8393.178;-0.01975366;0.1137934;0;
-26521.01;-21295.57;230.3041;-31361.27;8.489253;-20.07599;-28149.29;-16700.14;-0.3445705;0.3735485;0;
-8635.34;-5723.614;-767.9257;-15800.26;8.279653;-19.11811;-10235.86;-5801.035;-0.3442243;-0.08159828;0;
-4476.499;-687.5009;-2250.877;-11651.7;10.14734;-18.42908;-6136.954;-1338.4;0.110893;-0.4713203;0;
257.1534;461.6126;-2897.852;-2894.294;8.730628;-21.89355;240.4629;-76.87587;0.3706509;-0.14601;0;
16323.77;12283.39;-2232.273;19553.89;8.989299;-21.46971;17746.73;10036.32;0.2403438;0.114006;0;
18664.92;15115.2;-1494.462;24186.47;10.85628;-23.7255;20036.35;13074.34;0.1101676;-0.0160432;0;
14681.27;11226.29;-452.0149;19904.36;12.25189;-24.77332;15925.79;9268.864;-0.01987776;0.1139076;0;
14491.7;10788.02;1100.909;20231.65;7.550528;-16.91161;15887.89;8700.925;-0.1497925;0.2437278;0;
11108.17;8121.201;1658.553;15653.78;7.074426;-15.622;12053.19;6314.081;-0.01970728;-0.08135378;0;
-13777.99;-11149.17;957.7381;-13713.6;10.81836;-11.92231;-14611.72;-8419.923;0.1752145;-0.2112067;0;
-26655.69;-21536.57;115.8234;-31496.7;10.80749;-8.829235;-28303.98;-16881.11;-0.1497982;-0.1460272;0;
-8657.224;-5844.256;-869.1729;-15835.19;15.01619;-14.17881;-10272.7;-5830.383;-0.5394517;-0.08091308;0;
-4682.627;-918.7626;-2329.128;-11878.71;15.06845;-13.15989;-6373.645;-1323.178;-0.408975;-0.01586444;0;
39.5032;240.9531;-2970.589;-3221.795;19.34022;-17.90233;-37.56307;-134.2109;-0.2786294;0.04911884;0;
16399.79;12344.61;-2285.26;19581.06;20.99475;-20.36265;17798.67;10073.42;-0.1484147;-0.01589786;0;
18760.88;15222.05;-1530.435;24292.24;14.94543;-10.16103;20138.99;13185.76;-0.01833094;-0.08084922;0;
14764.48;11312.17;-486.8587;19965.78;17.14122;-8.141388;16002.09;9368.577;-0.08327986;-0.5355394;0;
14574.83;10855.73;1081.467;20317.7;-5.717063;-11.14738;15969.66;8758.872;0.04673851;-0.7948706;0;
10971.78;8044.04;1646.908;15355.52;-15.82538;-10.2654;11887.31;6261.853;0.3065609;-0.2093659;0;
-13958.64;-11280.58;965.6265;-14139.51;15.60442;-8.51359;-14851.26;-8588.306;0.6960569;-0.01425347;0;
-27048.37;-21798.8;154.7821;-31907.99;18.73755;-7.634257;-28715.13;-17197.77;0.7603248;-0.2091412;0;
-9192.638;-6048.942;-824.1002;-16351.28;14.96768;-6.286928;-10807.62;-6093.934;0.1748548;-0.208931;0;
-4478.828;-600.022;-2261.58;-11606.54;20.51137;-4.87403;-6151.411;-1254.771;0.2396465;-0.1437538;0;
466.3452;589.9518;-2877.997;-2546.179;2.003959;-9.825747;448.2213;14.5085;0.109471;0.1162601;0;
16314.27;12272.14;-2197.571;19601.28;-1.815472;-11.89228;17736.78;10024.85;-0.4103777;0.1811106;0;
18573.76;15041.4;-1440.679;24064.52;12.72104;-4.043515;19936.71;13008.79;0.04480599;0.05099392;0;
14636.35;11180.67;-391.3211;19847.41;14.78436;-3.235718;15877.91;9219.773;0.5644997;-0.2089267;0;
14475.77;10768.81;1179.189;20209.5;13.02819;-4.639047;15867.84;8689.053;0.2390958;-0.2087168;0;
11045.91;8105.557;1754.027;15538.9;15.76177;-2.624959;11980.39;6311.809;0.3038229;0.1163297;0;
-13843.53;-11210.51;1064.017;-13823.8;12.73182;-11.73176;-14693.23;-8494.672;0.3684849;0.1162128;0;
-27177.32;-21881.84;212.5628;-32078.82;10.91037;-13.52851;-28852.06;-17261.9;0.1082453;-0.01383867;0;
-9557.979;-6216.484;-811.9172;-16700.19;25.63516;-8.491316;-11154.87;-6220.031;-0.3466348;0.311012;0;
-5465.114;-1241.689;-2289.015;-12662.54;26.54741;-9.889364;-7187.936;-1569.084;-0.2813192;0.6355361;0;
-766.9816;-282.1414;-2922.239;-4467.558;19.48716;-0.3011118;-993.9945;-544.9125;-0.02116716;0.5699303;0;
15917.76;11952.93;-2215.813;18756.78;14.71216;2.043532;17258.55;9698.955;-0.3459826;0.3744555;0;
18573.86;14992.1;-1444.379;24144.98;5.453973;-1.039675;19972.85;12948.2;-0.1507329;0.504014;0;
14445.22;11019.48;-404.3248;19642.73;-3.527464;0.5689602;15675.82;9086.698;0.3041899;0.3735729;0;
14464.26;10740.75;1175.319;20177.87;-10.82396;-8.808978;15865.09;8645.348;0.1089822;0.04836075;0;
10952.83;8021.504;1739.323;15362.24;-13.69347;-11.34542;11877.23;6273.552;0.4337094;0.1132795;0;
-14637.8;-12013.47;1021.622;-14752.71;-56.14567;-10.39632;-15503.61;-9193.715;0.5632083;-0.016769;0;
-28068.19;-22811.55;191.2939;-32918.87;-72.29888;-12.06038;-29730.14;-18100.09;-0.087031;-0.3415889;0;
-10044.72;-6545.212;-798.9632;-17153.07;-41.75034;-8.297342;-11676.53;-6425.746;0.04299114;-0.08137627;0;
-5413.718;-1236.582;-2254.272;-12506.1;-41.70839;-6.882364;-7086.22;-1442.509;0.1728826;0.3734769;0;
-111.3313;27.16677;-2848.301;-3361.19;-29.87749;-7.076397;-163.5448;-230.715;-0.4119972;-0.01670243;0;
16211;12173.6;-2133.328;19367.98;-20.73779;-5.461758;17615.61;9911.903;-0.2816485;-0.08165299;0;
18453.51;14924.54;-1368.662;23997.73;-24.1332;-1.839252;19828.25;12892.32;0.1084385;0.2432658;0;
14459.97;11003.57;-295.4191;19673.84;-17.41115;-0.2298747;15700.96;9074.492;-0.0216051;-0.1467827;0;
14413.49;10712.54;1295.484;20152.61;-19.00124;4.258091;15811.65;8621.551;-0.1515181;-0.01670055;0;
10872.57;7936.856;1848.373;15321.2;-16.16814;6.129334;11800.46;6201.038;-0.1513658;0.3731203;0;
-14642.16;-12014.61;1136.06;-14667.57;-15.9518;3.644868;-15491.89;-9146.264;-0.08624639;0.112876;0;
-27979.38;-22678.38;303.1494;-32867.66;-16.33693;3.775172;-29642.61;-17991.87;-0.1511271;0.2426973;0;
-10195.84;-6727.547;-687.4387;-17270.16;-7.68033;1.293071;-11794.58;-6470.966;0.04392681;0.5672901;0;
-6238.535;-1952.793;-2150.356;-13373.46;-5.328088;0.9568568;-7950.062;-1778.976;0.2387847;0.3068507;0;
-1005.643;-588.4218;-2776.536;-4740.529;-8.671637;-3.397934;-1218.828;-709.1783;0.04364273;-0.08326165;0;
15919.67;11950.76;-2077.877;18724.77;-8.461853;-4.801101;17260.88;9641.754;-0.1513031;-0.2131127;0;
18422.85;14855.77;-1314.734;24009.55;-5.975103;-2.652884;19822.11;12846.57;0.1087183;-0.08296385;0;
14462.29;11031.9;-248.9793;19658.81;-5.768029;-4.056798;15694.3;9095.967;0.108609;0.2419562;0;
14515.27;10802.67;1356.995;20218.83;-4.891577;7.06614;15912.76;8712.813;-0.08640214;0.1767458;0;
11000.24;8063.094;1922.003;15520.46;-3.949633;10.60901;11941.79;6342.698;-0.02134798;-0.1482685;0;
-14477.11;-11866.14;1193.562;-14427.97;-9.705464;5.976714;-15320.21;-9004.62;-0.2811959;-0.01818487;0;
-28039.55;-22746.39;349.1615;-32847.8;-11.70544;8.1141;-29712.44;-17986.6;-0.410848;-0.1481013;0;
-10216.44;-6659.457;-652.7484;-17311.6;-5.731836;2.814418;-11836.68;-6501.057;-0.02063116;-0.2129198;0;
-5519.362;-1286.681;-2110.328;-12694.71;-4.789047;2.208744;-7210.979;-1486.401;0.1093242;0.1121309;0;
-264.5488;-40.01403;-2719.151;-3741.804;-7.529925;3.814115;-411.3663;-323.1793;-0.08568762;0.3069202;0;
16003.13;11987.57;-2020.206;19055.95;-7.121194;3.140453;17373.4;9730.373;-0.2805035;0.3066118;0;
18346.93;14812.92;-1258.027;23913.6;-6.510826;8.160895;19736.13;12788.41;-0.150287;-0.018533;0;
14290.52;10852.51;-210.7886;19502.06;-6.102142;8.755542;15528.21;8923.859;-0.08516867;-0.2783837;0;
14380.54;10668.23;1385.184;20095.28;-4.48842;13.70336;15778.2;8588.9;-0.7347565;-0.083202;0;
10921.63;8013.572;1970.716;15386.87;-3.948047;16.10085;11854.18;6256.813;-0.6040835;0.04681629;0;
-15007.43;-12412.59;1245.693;-14953.21;-3.408216;10.52521;-15849.83;-9599.335;0.2410989;-0.08316544;0;
-28748.24;-23294.5;397.0855;-33557.67;-3.874283;10.44765;-30418.62;-18628.74;-0.01901273;-0.01811453;0;
-11052.43;-7111;-603.8418;-18050.01;-2.46387;7.289082;-12648.98;-6727.135;0.1759084;0.1118384;0;
-6633.412;-2192.402;-2067.562;-13754.83;-2.997258;5.473279;-8344.572;-1818.684;0.7604377;-0.1481434;0;
-964.6079;-639.7443;-2682.986;-4764.526;-4.467139;5.199848;-1208.176;-710.3185;0.2399349;-0.2779292;0;
15791.27;11847.5;-1988.263;18580.01;-4.127857;3.319162;17120.95;9528.546;-0.0851429;-0.08274792;0;
18225.25;14658.8;-1223.086;23817.83;-13.63553;6.463964;19628.34;12655.79;0.2397794;-0.2125995;0;
14348.73;10917.22;-165.9194;19544.7;-15.63058;6.189537;15581.76;8978.114;0.3045058;-0.01748382;0;
14560.25;10856.73;1449.279;20242.88;-13.53877;5.044608;15956.94;8785.029;-0.02063691;0.3723378;0;
11416.32;8460.522;2051.832;15957.69;-13.72624;4.168761;12366.78;6681.489;-0.3454529;0.04712697;0;
-14126.37;-11568.21;1314.202;-13975.71;-8.622234;3.293855;-14944.83;-8784.906;-0.2151711;-0.2777571;0;
-28063.51;-22755.65;458.9049;-32882.2;-7.206075;2.151835;-29731.87;-18085.82;-0.4748242;0.1123261;0;
-10734.83;-7041.56;-522.5631;-17726.06;-0.634751;-1.132429;-12327.65;-6710.03;-0.3444124;0.3071152;0;
-6723.462;-2330.005;-1985.896;-13765.46;0.7050574;-2.403906;-8436.229;-1931.062;0.110705;0.2418393;0;
-1210.161;-819.8908;-2612.491;-5032.438;5.79554;-6.621294;-1489.631;-828.3619;-0.2142429;0.1766289;0;
15740.94;11780.68;-1921.837;18471.9;7.7321;-7.619384;17052.3;9454.053;-0.2140277;-0.2783199;0;
18171.96;14606.16;-1150.761;23753.25;-7.146125;-6.473019;19575.76;12606.14;0.1759914;-0.08313826;0;
14309.3;10881.04;-84.57745;19486.35;-12.69865;-4.52407;15538.02;8943.116;0.3057493;0.3067493;0;
14460.97;10746.58;1517.765;20137.88;-15.02944;-2.711046;15856.84;8682.476;0.1755074;-0.0183956;0;
11369.59;8421.878;2127.589;15953.77;-19.10017;0.4398145;12313.54;6622.517;-0.019571;0.2414923;0;
-14055.09;-11536.9;1415.932;-13852.08;-30.33411;9.682835;-14886.82;-8804.449;0.3702527;0.4361516;0;
-28430.5;-23023.2;550.5377;-33255.75;-34.72426;14.29481;-30120.63;-18314.24;0.3049133;-0.01905802;0;
-11480.03;-7451.382;-445.1091;-18488.3;-29.26437;24.66255;-13083.07;-6947.526;-0.2151318;-0.3438756;0;
-7332.545;-2772.337;-1900.711;-14468.92;-26.35457;29.9293;-9077.027;-2097.402;-0.1499483;-0.148628;0;
-1497.732;-1138.793;-2512.836;-5540.19;-29.14113;32.04256;-1861.654;-974.092;-0.2797323;0.04642335;0;
15718.45;11768.04;-1811.631;18345.95;-28.10747;35.76128;16991.83;9434.718;-0.2144839;0.0463767;0;
18165.82;14603.84;-1063.093;23770.83;-1.889268;25.54419;19580.26;12596.53;0.04560103;0.1762648;0;
14010.13;10576.59;-44.69215;19197.17;7.489752;22.77234;15234.28;8649.933;-0.1493468;0.3060224;0;
14216.02;10512.49;1554.174;19886.05;8.621303;21.87868;15610.34;8435.267;-0.2141641;0.2407475;0;
11328.37;8364.425;2185.513;15898.53;16.1811;18.17276;12282.75;6597.335;0.3707572;0.305473;0;
-14800.43;-12325.15;1458.213;-14550.39;5.582271;17.81959;-15613.84;-9547.979;0.3054173;0.305166;0;
-29426.54;-24008.34;590.9328;-34195.2;3.700652;14.98852;-31100.51;-19321.95;-0.0197263;0.04499002;0;
-11742.37;-7728.821;-380.7666;-18731.87;6.4436;15.97808;-13328.19;-7130.545;-0.2146085;-0.2149246;0;
-7408.864;-2914.331;-1843.024;-14515.11;2.48501;15.15835;-9157.127;-2071.857;-0.1494255;0.1101281;0;
-1632.601;-1235.214;-2487.128;-5689.123;4.558618;13.93743;-2025.396;-1070.871;-0.2142427;0.4348542;0;
15591.76;11669.92;-1820.213;18204.8;3.482311;14.72722;16862.29;9317;-0.4089295;0.1745479;0;
17915.88;14347.03;-1090.125;23539.76;-7.908043;9.755809;19338.18;12349.66;-0.2136165;-0.0854969;0;
13900.09;10478.42;-64.29522;19094.06;-10.31099;9.210142;15128.34;8548.854;-0.08346723;0.04452369;0;
14187.09;10473.38;1528.937;19866.57;-15.32448;11.14327;15585.09;8398.788;-0.1483507;0.1094463;0;
11116.46;8180.874;2143.904;15640.59;-18.99277;10.32828;12071.25;6420.574;0.04670038;0.04436898;0;
-15106.91;-12643.35;1432.231;-14898.69;-6.247664;17.35099;-15902.43;-9832.274;-0.3431506;0.1092918;0;
-29967.08;-24411.01;572.5671;-34693.38;-4.164305;18.40528;-31628.46;-19694.84;-0.4077731;0.4340186;0;
-12963.89;-8596.619;-417.6982;-19786.22;-1.480804;19.99438;-14518.33;-7535.76;-0.08252669;0.5635172;0;
-8965.681;-4259.829;-1890.569;-16008.12;1.668516;22.45253;-10716.27;-2610.613;-0.01747643;0.2381143;0;
-2535.181;-2006.429;-2527.723;-6989.439;-0.6103361;13.18657;-3046.521;-1540.917;0.1774432;-0.02199435;0;
15405.85;11544.21;-1836.592;17696.07;0.595726;13.03936;16613;9138.265;0.04733018;-0.4117763;0;
17847.31;14245.67;-1092.182;23494.46;-3.49071;6.796963;19287.36;12267.02;-0.1476194;-0.4763299;0;
13631.72;10224.06;-63.91381;18832;-4.692651;3.173177;14854.25;8294.763;-0.2124384;-0.1510146;0;
13863.1;10134.36;1534.16;19563.95;-6.563946;14.75779;15268.73;8051.921;-0.5370617;-0.08589548;0;
10624.03;7750.649;2149.121;14951.96;-8.633455;14.87693;11532.78;6027.704;-0.146718;0.3039949;0;
-16395.06;-13818.19;1439.317;-16480.37;-4.873736;22.02891;-17266.58;-10967.7;0.5031028;0.2387221;0;
-31297.21;-25688.24;586.2988;-36048.62;-3.930834;25.48977;-32951.46;-20971.87;-0.01714139;-0.2162892;0;
-13120.52;-8693.582;-387.2387;-20017.64;-7.745277;17.42645;-14653.75;-7692.038;-0.4069282;-0.08613716;0;
-8338.737;-3679.909;-1837.058;-15477.6;-8.6755;17.34195;-10096.68;-2213.418;-0.14665;-0.2809526;0;
-2077.642;-1616.981;-2470.393;-6432.288;-1.901628;9.219836;-2582.684;-1300.637;-0.2114699;-0.215703;0;
15444.42;11601.63;-1788.377;17832.62;-0.8943636;4.521828;16663.3;9195.77;-0.1462901;0.1743178;0;
17739.88;14132.92;-1052.387;23381.34;0.3793327;8.670165;19180.39;12169.75;0.1137262;-0.02075939;0;
13476.32;10070.62;-36.87065;18676.39;2.656127;6.651966;14695.15;8134.215;0.113612;-0.08570587;0;
13627.14;9892.535;1545.527;19346.12;-4.245418;4.568871;15032.5;7814.308;-0.08140422;0.3041843;0;
10161.11;7303.767;2140.143;14277.77;-4.041057;4.631264;11058.26;5598.285;0.1135796;0.4987807;0;
-16928.46;-14337.56;1421.603;-17332.87;-10.40001;0.2058588;-17818.71;-11480.27;0.5682369;0.4333122;0;
-31682.04;-26058.81;568.509;-36461.23;-15.6135;-0.3302115;-33327.43;-21297.58;0.1778619;0.3679094;0;
-13259.4;-8626.816;-417.6606;-20166.13;3.826023;4.023889;-14795.83;-7786.148;-0.1471536;0.1076704;0;
-7839.219;-3147.336;-1865.044;-15017.05;6.636194;5.158556;-9553.344;-2069.897;0.04789631;-0.4771439;0;
-1443.662;-1246.018;-2501.568;-5503.256;0.8687495;10.37786;-1805.259;-1036.585;0.1128155;-0.1518277;0;
15600.38;11680.6;-1861.531;18227.6;4.083057;12.8458;16885.75;9328.481;0.2426369;0.2381289;0;
17768.57;14195.56;-1156.358;23382.92;-11.39374;13.77065;19186.34;12205.2;0.242393;-0.02197977;0;
13527.14;10102.27;-154.668;18729.42;-14.86589;15.36428;14749.05;8177.615;0.1771822;0.107977;0;
13591.71;9860.92;1407.171;19318.26;-6.946722;14.67914;15001.2;7776.751;0.1770041;0.04290116;0;
10224.57;7388.421;1992.213;14344.38;-7.609326;15.26711;11089.7;5687.358;0.04689158;-0.346946;0;
-16684.87;-14048.97;1262.701;-17069.94;-0.0332194;11.09895;-17608.88;-11151.5;-0.01812288;-0.28163;0;
-31662.88;-25997.09;398.9599;-36444.48;3.114646;9.681159;-33310.02;-21188.11;-0.1480394;0.108457;0;
-13488.17;-8820.694;-580.8549;-20380.79;2.911422;7.929997;-15019.12;-7863.052;-0.01795592;0.2382827;0;
-7896.938;-3188.923;-2032.073;-15113.81;4.917252;5.108807;-9621.61;-2039.824;0.04702947;-0.0218261;0;
-1376.542;-1182.241;-2656.653;-5514.863;8.127492;12.73954;-1786.782;-1016.117;-0.01798513;0.04316318;0;
15588.06;11662.47;-1975.825;18222.58;10.46385;14.4683;16835.29;9296.222;0.176935;0.1080872;0;
17744.26;14170.49;-1252.359;23377.43;5.295772;6.482915;19171.55;12187.09;0.3066919;-0.4767275;0;
13535.35;10112.03;-241.264;18727.55;4.955658;5.471718;14759.33;8184.308;-0.08342035;-0.4112812;0;
13521.08;9785.08;1337.466;19261.66;1.668149;5.600186;14929.03;7706.071;-0.3432059;0.1088708;0;
10160.3;7319.216;1940.912;14240.65;-2.017222;3.317139;11030.25;5614.469;-0.342861;0.1737288;0;
-16637.82;-14059.55;1236.003;-17070.06;8.568352;10.41381;-17565.52;-11161.29;-0.2125818;-0.02134782;0;
-31857.96;-26143.69;371.2574;-36602.98;9.697842;12.07792;-33501.69;-21338.73;-0.01746622;-0.08629372;0;
-14207.57;-9316.066;-631.9866;-21022.47;2.721873;1.616694;-15726.54;-8127.923;-0.1473833;0.108695;0;
-8754.071;-3928.362;-2072.846;-15900.71;2.518067;-0.7962548;-10476.48;-2305.32;-0.01730058;0.3684552;0;
-1822.896;-1601.692;-2663.715;-6005.807;-4.718132;2.218716;-2227.045;-1211.536;0.3075535;0.3031176;0;
15543.38;11654.12;-1956.268;18078.94;-8.464436;1.814589;16805.66;9264.025;0.04737511;0.2378457;0;
17755.3;14172.98;-1204.772;23391.34;-3.699532;-1.804251;19182.15;12198.07;-0.08260717;0.04270467;0;
13484.81;10061.31;-178.0149;18703.76;-5.10331;-3.075053;14710.55;8131.3;0.3072799;-0.3471423;0;
13565.44;9840.885;1411.552;19296.25;-2.284167;0.6789589;14976.02;7765.185;0.3069711;-0.2818261;0;
10314.53;7442.76;2020.546;14421.34;0.7986107;1.482072;11177.2;5726.575;0.176728;-0.2165756;0;
-16795.48;-14238.14;1294.286;-17151.57;-12.33036;3.356044;-17721.07;-11381.05;0.04661573;-0.1513907;0;
-32172.59;-26475.14;420.7366;-36917.22;-14.5278;6.232877;-33825.07;-21637.6;-0.3432352;0.3035329;0;
-13932.52;-9143.3;-559.35;-20798.38;-6.141429;1.06905;-15448.91;-8070.616;-0.01805356;-0.08657619;0;
-8296.582;-3487.904;-1999.689;-15491.97;-7.206985;0.93401;-10041.26;-2177.121;0.436736;-0.4762932;0;
-1823.745;-1485.076;-2618.336;-6138.894;4.321808;6.760465;-2337.955;-1229.096;-0.1484089;-0.08601061;0;
15441.39;11566.51;-1916.9;17921.76;7.59902;6.217808;16644.15;9201.74;-0.2132272;-0.02095685;0;
17709.81;14109.56;-1162.009;23372.04;-0.5802897;17.33048;19151.89;12123.8;0.2417585;-0.3457725;0;
13367.89;9956.932;-143.1341;18569.78;-0.7134284;22.00175;14585.81;8038.277;-0.4081579;-0.3454251;0;
13368.26;9616.702;1433.967;19113.01;-7.746285;8.181527;14778.13;7527.437;-0.7325844;-0.150176;0;
9960.554;7169.874;2041.939;13987.62;-10.41684;7.57046;10812.39;5479.43;0.1776944;-0.08505772;0;
-17075.88;-14436.13;1343.893;-17559.1;-15.09543;5.486444;-18027.7;-11508.6;0.1125486;0.1748971;0;
-32482.26;-26709.67;482.2563;-37204.55;-18.36279;3.136528;-34128.38;-21896.42;-0.1474339;0.3046561;0;
-15024.16;-9989.143;-518.007;-21827.54;-16.26726;9.630538;-16530.18;-8495.44;0.1125836;-0.2153888;0;
-9591.737;-4700.477;-1953.671;-16774.62;-17.92585;9.955775;-11309.19;-2615.043;-0.2773336;-0.5400091;0;
-2206.323;-1958.13;-2548.939;-6575.646;-7.056846;13.3619;-2656.9;-1467.709;-0.2770549;-0.3445644;0;
15393.83;11522.06;-1859.254;17798.49;-2.093263;14.35322;16629.7;9095.254;0.04806019;-0.1493162;0;
17527.86;13934.06;-1116.29;23171.73;-12.27256;16.34816;18958.67;11966.78;-0.3417921;0.04573585;0;
13300.35;9880.375;-80.12593;18510.67;-13.19726;17.40346;14519.39;7943.034;-0.211514;0.3055593;0;
13300.04;9557.557;1497.38;19044.26;-3.806879;11.75953;14716.66;7479.25;0.2434699;0.1103502;0;
9935.392;7111.194;2087.891;13902.88;-3.33454;10.07314;10742.88;5389.423;-0.01664411;-0.3445321;0;
-17264.92;-14710.55;1377.493;-17822.61;-0.7855936;5.709252;-18268.55;-11854.44;-0.01662739;-0.7339899;0;
-32973.78;-27120.6;521.7255;-37696.07;2.69782;3.091243;-34627.2;-22305.75;0.113324;-0.6033177;0;
-15429.25;-10218.92;-463.2726;-22159.82;-16.52765;1.212675;-16923.74;-8604.947;0.3081121;0.1119293;0;
-10030.59;-5028.183;-1907.144;-17217.53;-21.66861;0.2737567;-11799.33;-2753.191;0.1778679;0.1767841;0;
-2702.94;-2244.902;-2514.296;-7246.218;-10.5284;-2.606723;-3294.122;-1677.043;-0.3420496;0.3065412;0;
15283.53;11513.42;-1819.337;17592.85;-11.72327;-4.077729;16451.08;9063.416;-0.6015753;0.4361679;0;
17607.03;13971.93;-1090.999;23273.9;-6.754997;7.179257;19057.4;12005.51;-0.6009708;-0.01904181;0;
13212.77;9811.158;-90.74847;18418.08;-4.337312;10.58805;14425.38;7875.239;-0.2755302;0.110912;0;
13245.38;9486.989;1465.467;18984.1;-7.413436;8.902961;14658.37;7390.409;-0.4701554;0.3706699;0;
9751.79;6997.875;2057.29;13674.07;-5.329882;10.0326;10569.77;5312.056;-0.3397483;0.1753955;0;
-17814.13;-15126.9;1351.795;-18418.76;-10.68316;13.90753;-18806.53;-12248.94;0.2452992;0.1102519;0;
-33511.19;-27621.71;486.6833;-38232.05;-11.81053;15.30008;-35162.62;-22744.6;-0.2097187;-0.279663;0;
-15915.42;-10614.46;-504.995;-22656.46;-4.766062;9.122518;-17434.51;-8754.878;-0.3394427;-0.4093166;0;
-10345.53;-5282.403;-1932.457;-17516.82;-3.823268;8.175591;-12067.66;-2881.388;0.4405065;0.04586604;0;
-2578.833;-2217.946;-2525.748;-7066.944;-2.94877;1.938085;-3034.697;-1694.339;0.3750966;0.04581995;0;
15317.54;11486.74;-1832.494;17660.93;-2.34357;-1.546914;16547.67;9057.538;-0.2749538;0.04577392;0;
17441.61;13818.61;-1088.37;23108.24;-1.871725;2.071658;18872.85;11845.64;-0.2746775;0.24063;0;
13113.91;9705.023;-67.53893;18329.41;-2.070915;0.4619859;14334.19;7764.565;0.1154026;0.1104535;0;
13110.65;9352.725;1495.243;18867.95;-1.666693;3.810607;14530.3;7264.854;-0.07961542;-0.3444289;0;
9578.195;6827.139;2090.628;13453.78;-0.7279891;4.208676;10327.29;5108.182;-0.1445028;-0.1491808;0;
-18133.77;-15433.61;1382.633;-18793.74;-10.90769;3.668584;-19194.8;-12552.16;0.2454465;0.2407732;0;
-33494.2;-27640.71;543.3208;-38238.56;-13.84446;4.669641;-35146.67;-22861.57;0.05029783;-0.1492728;0;
-15837.33;-10714.23;-419.6164;-22521.03;-10.48165;-1.564341;-17333.9;-8775.062;-0.1446547;-0.01918815;0;
-11404.48;-6320.229;-1865.062;-18478.6;-12.47987;-3.304265;-13157.56;-3450.478;0.05039264;0.1757332;0;
-3631.224;-2958.831;-2451.049;-8233.138;-4.161939;-2.229279;-4221.478;-2201.481;0.3102114;-0.4091495;0;
15269.33;11546.52;-1721.888;17488.09;-1.143647;-3.164739;16427.62;9068.255;0.374867;-0.01893433;0;
17433.69;13771.86;-985.8711;23125.94;-7.439138;-4.032337;18889.01;11808.67;-0.01531371;0.3708888;0;
12966.21;9575.828;24.14355;18189.17;-6.292587;-4.832019;14179.53;7636.252;-0.01529832;-0.21419;0;
13027.66;9251.099;1603.232;18783.71;-6.218915;-3.085669;14452.7;7150.398;-0.01528295;-0.2789421;0;
9425.043;6718.181;2208.878;13185.16;-5.61043;-2.948602;10161.83;5021.045;0.04969975;-0.01879248;0;
-18562.25;-15852.49;1518.63;-19337.33;-4.734137;-1.873974;-19653.87;-12984.29;0.3095192;-0.08374093;0;
-34618.05;-28668.64;683.71;-39318.54;-5.600036;-0.5994152;-36257.95;-23781.3;-0.01562854;-0.2785588;0;
-17367.53;-11891.88;-291.6121;-23947.22;3.983784;-4.617728;-18837.71;-9450.33;0.04935451;-0.1483442;0;
-12311.35;-7062.355;-1713.417;-19325.73;6.994867;-5.14889;-14010.87;-3784.99;0.1792396;0.2416089;0;
-3871.449;-3243.971;-2288.655;-8676.453;1.494507;-2.397477;-4406.741;-2482.027;-0.2107445;0.3713008;0;
15034.91;11291.98;-1583.053;17049.43;2.69943;-1.993232;16203.08;8788.881;0.04933657;0.5008624;0;
17163.07;13504.07;-844.645;22841.38;-3.064059;-0.2496729;18611.27;11550.06;0.244189;0.1755224;0;
12726.12;9338.459;170.5064;17966.52;-5.539227;1.090176;13947.54;7389.169;-0.08089305;-0.4743274;0;
12744.15;8944.254;1745.012;18490.01;0.8293518;-2.259944;14163.94;6826.32;-0.3406811;-0.6037855;0;
8725.324;6124.976;2371.225;12210.28;0.292655;-3.99923;9448.621;4498.972;-0.08046944;-0.2133747;0;
-20161.43;-17307.67;1708.955;-21105.53;1.899951;5.71707;-21208.92;-14353.17;0.3094155;0.1116764;0;
-36428.3;-30327.05;897.5509;-41051.3;2.567627;8.390642;-38056.91;-25227.9;-0.01573215;-0.1483052;0;
-18804.27;-13186.99;-45.47114;-25302.3;0.2878719;-1.531079;-20276.2;-10093.04;-0.145651;-0.2131235;0;
-14276.86;-8719.325;-1451.406;-21193.98;1.225588;-1.931439;-15965.87;-4812.464;-0.1455047;0.1119274;0;
-5888.174;-4534.851;-2025.471;-11132.42;-4.670142;-4.809642;-6561.659;-3532.832;-0.3402605;0.1767822;0;
14327.88;10913.13;-1291.71;15814.21;-5.804525;-7.283178;15388.48;8440.342;0.04988545;0.3065393;0;
16992.4;13220.28;-520.4865;22708.44;-2.850956;-0.1757907;18464.01;11236.5;0.374672;0.3062313;0;
12362.74;9004.188;517.515;17620.12;-3.049162;-0.04164815;13580.67;7056.959;0.1144262;-0.08388049;0;
12717.63;8906.873;2139.18;18419.2;1.508253;0.9630767;14136.65;6777.396;-0.01562347;-0.2137309;0;
8979.962;6409.361;2791.076;12560.17;2.042601;1.029092;9708.628;4748.477;0.1143269;0.04635323;0;
-20365.28;-17436.89;2105.053;-21197.3;9.207845;1.429955;-21398.14;-14586.3;0.3091141;-0.1485954;0;
-36963.09;-30822.65;1284.287;-41567.97;13.21708;2.36628;-38566.73;-25719.68;0.1788688;-0.4083154;0;
-19858.3;-14248.89;324.478;-26316.24;2.085365;-7.013525;-21328.58;-10809.03;-0.1461477;-0.3429378;0;
-16367.04;-10735.66;-1113.688;-23189.63;1.480057;-9.015905;-18051.52;-6498.116;0.1138686;-0.08272386;0;
-7335.236;-5682.714;-1688.092;-12880.14;0.4068433;-10.81532;-8030.593;-4558.168;0.5035582;0.3071633;0;
14115.34;10812.46;-963.7902;15245.96;-1.66967;-12.81388;15152.01;8358.344;0.2431829;0.17692;0;
16824.88;12997.66;-204.1095;22530.68;4.69502;-7.911376;18293.81;10995.97;-0.01693087;-0.2130618;0;
12209.24;8860.346;839.2588;17493.4;5.560958;-7.166676;13422.71;6915.127;-0.2118159;0.04702162;0;
12614.67;8786.397;2444.858;18296.96;3.144473;-0.863201;14036.16;6633.161;-0.4714724;0.6316805;0;
8535.757;5993.718;3084.079;11901.31;1.400001;3.089537;9206.572;4394.618;-0.01622728;0.5660784;0;
-21566.66;-18614.05;2400.853;-22587.36;11.24423;0.7420914;-22670.58;-15718.41;0.1137237;0.2406729;0;
-38533.94;-32408.95;1584.256;-43104.92;14.31439;2.348936;-40155.46;-27106.71;-0.2112273;0.1754637;0;
-21181.89;-15610.42;645.1668;-27633.83;-0.2346771;5.025832;-22644.17;-11659.71;0.3736911;0.04535273;0;
-17580.37;-11908.65;-781.3272;-24410.41;-2.244173;5.489602;-19246.49;-7436.672;0.8930542;-0.1495949;0;
-8093.906;-6204.108;-1351.162;-13696.86;-5.590821;6.756762;-8851.615;-5057.127;0.4373856;-0.3443466;0;
14044.06;10842.44;-606.3651;15156.78;-9.403597;6.682989;15027.02;8437.049;-0.14776;-0.6038699;0;
16752.47;12887.55;141.9308;22475.18;-1.422569;2.992274;18227.89;10845.87;0.04729049;-0.4083611;0;
11921.55;8587.604;1150.937;17236.06;-0.2156905;1.381738;13143.11;6641.879;0.437047;-0.01814678;0;
12279.86;8419.32;2725.27;17956.1;-4.033867;-0.4951116;13699.71;6250.867;0.1117712;-0.08309589;0;
7667.565;5332.502;3342.626;10590.36;-4.699399;-1.432375;8163.346;3778.466;-0.08324317;0.0469223;0;
-22713.82;-19453.73;2682.566;-24145.38;4.213931;-4.913926;-23990.34;-16419.54;0.04677516;0.3067445;0;
-39071.35;-32949.61;1890.455;-43658.09;7.357529;-5.913733;-40667.64;-27645.51;-0.01823919;0.1765016;0;
-21092.68;-15532.24;950.2462;-27629.44;-2.630199;-3.697415;-22543.55;-11645.37;0.2416485;-0.2134798;0;
-16972.56;-11329;-462.4366;-23902.47;-4.904732;-3.760683;-18624.73;-6900.099;-0.1483984;-0.3432;0;
-7516.364;-5812.212;-1034.965;-13103.04;1.463209;1.333677;-8189.285;-4723.772;-0.9278573;-0.1479531;0;
13965.19;10690.59;-336.0573;15102.65;1.997602;1.935183;14990.08;8257.39;-0.3422189;0.0470976;0;
16529.68;12684.79;403.6275;22250.53;-8.252184;7.626666;18008.26;10649.31;0.437733;0.04705027;0;
11792.75;8444.543;1441.825;17121.79;-12.06229;10.36518;13013.32;6491.926;0.1124565;-0.01796434;0;
12073.68;8209.078;3009.775;17735.94;-5.820874;0.5085189;13497.45;6025.369;-0.1475259;0.04702105;0;
7482.909;5165.106;3618.506;10247.31;-6.28354;-0.7646068;8045.931;3624.065;0.04752437;-0.2128956;0;
-23297.71;-20019.65;2950.704;-24797.78;-9.626129;-5.251573;-24497.25;-17007.35;0.112444;-0.1477143;0;
-39977.02;-33830.41;2142.269;-44513.52;-9.616456;-8.059518;-41567.08;-28437.51;-0.08257105;-0.0176312;0;
-21643.39;-16112.49;1199.682;-28187.77;-14.02742;-5.908027;-23077.85;-11945.72;-0.1474554;-0.1475482;0;
-17607.45;-11887.81;-235.2711;-24516;-15.82199;-6.370971;-19244.11;-7304.765;0.1125621;0.04750212;0;
-8298.049;-6295.572;-818.6788;-13904.39;-11.18439;-5.828706;-9044.277;-5161.795;0.2423837;0.2423564;0;
13790.57;10640.13;-89.06631;14871.97;-11.2405;-6.023798;14758.99;8232.021;0.1122055;0.04721086;0;
16590.25;12698.7;648.7773;22326.3;-8.683612;2.220972;18072.21;10645.53;-0.08280932;0.1770981;0;
11649.26;8306.329;1656.15;16985.03;-6.933575;4.96498;12876.73;6350.567;-0.2776281;0.04698548;0;
11991.87;8115.762;3225.603;17668.7;-13.69176;2.682632;13412.83;5919.119;-0.4722512;-0.2778984;0;
7271.908;4999.139;3835.459;10066.85;-15.1509;3.751602;7758.591;3481.425;-0.341842;0.0472175;0;
-23859.55;-20525.17;3163.254;-25332.46;-10.58132;1.403491;-25126.32;-17519.85;-0.0166618;0.1121374;0;
-40559.14;-34425.16;2362.57;-45071.09;-9.498962;1.402081;-42137.71;-28912.26;-0.1465797;0.04705738;0;
-22593.91;-17126.21;1398.461;-29076.67;-12.03501;-5.56537;-24010.42;-12655.04;-0.4063018;0.3068795;0;
-19403.93;-13628.28;-54.37098;-26179.49;-10.54905;-9.176795;-21010.77;-8873.808;-0.01608952;0.3715385;0;
-9629.878;-7363.669;-612.2546;-15305.17;-13.15042;-0.9288565;-10364.22;-6134.139;0.3087634;0.1112958;0;
13687.63;10667.45;145.2613;14556.84;-13.87414;-0.124128;14636.06;8307.784;-0.471155;-0.2136528;0;
16744.71;12805.09;916.7275;22481.71;-3.142931;-4.611799;18237.55;10708.62;-0.6006163;-0.2784054;0;
11919.49;8582.184;1979.647;17275.04;-1.46581;-5.009001;13143.24;6626.793;-0.01530668;-0.6029624;0;
12385.16;8509.718;3580.977;18054.05;2.152985;-3.128507;13807.95;6309.884;0.2445781;-0.2775198;0;
7848.724;5465.24;4200.097;10811.41;4.159578;-3.25933;8468.187;3900.314;0.179365;0.04759572;0;
-22568.61;-19348.56;3537.614;-23927.76;-3.010921;-0.5098153;-23718.41;-16358.81;-0.2755866;-0.5371581;0;
-39387.06;-33255.42;2719.562;-43887.28;-5.017628;1.835039;-40971.41;-27876.3;-0.5351791;-0.6015857;0;
-21612.63;-16086.99;1745.724;-28083.92;-8.495211;-8.414949;-23043.08;-11870.83;-0.2098046;-0.730916;0;
-17672.23;-11974.21;314.6569;-24502.7;-10.49641;-11.42067;-19295.83;-7353.812;0.1802102;-0.7951489;0;
-8277.033;-6267.935;-235.1956;-13871.71;-18.52381;-0.2902672;-9003.791;-5135.831;0.1150618;0.1801602;0;
13907.46;10763.96;519.599;14940.69;-20.98345;1.116605;14882.43;8350.132;-0.1449232;0.3748812;0;
16802.62;12891.46;1290.627;22540.02;-20.62757;-1.094893;18287.81;10813.95;0.1800591;-0.1452342;0;
11950.42;8595.255;2343.581;17294.34;-22.01336;0.2458661;13174.36;6623.453;0.1149109;0.1797484;0;
12246.8;8364.12;3940.329;17936.16;-9.33159;-3.170449;13669.52;6161.589;-0.01513927;0.2445352;0;
7742.725;5370.389;4567.333;10704.49;-5.437448;-3.569161;8324.608;3788.134;0.2447453;0.1143548;0;
-22808.55;-19591.93;3906.418;-24154.16;-0.6765619;0.319374;-23992.88;-16600.36;0.1145647;0.2441746;0;
-39412.93;-33301.55;3108.735;-43939.27;4.280611;1.993565;-41001.85;-27990.14;-0.01548509;-0.08090752;0;
-21076.3;-15575.87;2166.24;-27592.69;3.070861;0.4509548;-22513.73;-11573.75;-0.1454042;-0.01585888;0;
-17225.41;-11515.74;727.3795;-24063.1;6.685098;1.991109;-18868.21;-7018.639;0.04964391;0.3089938;0;
-8209.89;-6178.155;156.5914;-13776.83;-2.297576;4.065518;-8960.803;-5062.566;0.1795287;-0.01615343;0;
13995.56;10841.74;906.7444;15078.96;-4.773514;5.13316;14966.63;8399.194;-0.3403904;-0.08110454;0;
16903.36;12988.98;1669.887;22645.56;1.996436;13.90258;18392.69;10914.81;-0.1451464;0.04891164;0;
11958.57;8602.403;2706.031;17311.73;0.185769;17.63954;13190.11;6622.811;0.3747382;0.1138299;0;
12287.88;8393.407;4276.646;17973.01;4.539839;16.68405;13714.59;6172.067;0.439329;0.6334542;0;
7472.167;5141.87;4859.272;10247.59;3.865692;18.74376;7979.341;3595.782;0.5688223;0.502883;0;
-23476.43;-20217.91;4162.082;-24967.07;4.732464;17.78716;-24724.88;-17258.77;0.1784467;0.1125737;0;
-40278.54;-34159.55;3330.191;-44776.06;6.803813;17.83627;-41860.46;-28642.26;-0.1465694;0.2423953;0;
-22724.13;-17263.11;2341.371;-29165.72;-11.62248;17.21551;-24127.35;-12739.71;-0.1464221;0.1771843;0;
-19232.4;-13490.88;896.2437;-26013.04;-16.09878;16.19346;-20819.48;-8728.186;-0.146275;-0.08286307;0;
-9276.871;-6998.489;338.7791;-15073.16;-10.12173;15.77529;-10048.67;-5778.597;0.04877405;-0.01781247;0;
13695.13;10674.34;1083.564;14487.75;-10.78114;14.08499;14618.66;8293.748;-0.2761117;-0.1477292;0;
16690.1;12734.4;1829.787;22438.66;-10.10073;13.93687;18188.28;10618.91;-0.4057689;-0.4074502;0;
11655.76;8300.309;2829.289;17047.14;-10.69281;11.98036;12888.6;6326.521;-0.01555714;-0.2771061;0;
12072.93;8169.108;4389.879;17753.71;2.981962;12.50419;13503.46;5929.267;-0.1454762;-0.08192563;0;
7423.487;5134.343;5001.44;10255.02;7.801737;12.42464;7955.826;3624.839;-0.08036268;-0.1468107;0;
-24020.65;-20711.78;4318.162;-25405.1;5.583095;2.297979;-25238.33;-17674.57;-0.1452493;-0.2116305;0;
-41074.15;-34957.88;3493.672;-45507.68;10.40026;-1.120398;-42657.98;-29429.52;-0.275038;0.1783862;0;
-23061.85;-17622.32;2517.807;-29427.13;-3.005804;1.493001;-24443.49;-13088.05;-0.144827;0.373109;0;
-20039.53;-14181.18;1060.977;-26656.59;-5.615728;0.08491998;-21575.58;-9337.277;-0.0797141;-0.01706995;0;
-10496.99;-7852.369;493.8202;-16354.13;2.830008;-0.5849947;-11334.83;-6466.381;-0.1446013;-0.4068568;0;
13334.8;10490.6;1264.124;13958.01;1.755437;-1.991048;14184.6;8164.547;-0.07948871;-0.3414807;0;
16753.13;12744.92;2026.376;22475.7;11.86773;2.766618;18254.87;10594.93;-0.1443762;-0.2112029;0;
11684.63;8331.422;3017.091;17099.93;16.14271;4.371429;12921.29;6358.564;-0.4041005;-0.275958;0;
12202.58;8284.102;4563.25;17822.05;8.825475;-1.99622;13627.01;6029.26;-0.3387271;-0.1457461;0;
7176.085;4969.643;5158.925;9659.751;9.888334;-2.597;7604.353;3458.35;-0.07851737;-0.1455996;0;
-24518.59;-21102.61;4473.521;-26136.76;9.543606;-4.335947;-25824.35;-18097.57;0.1164635;-0.2104206;0;
-41636.15;-35534.28;3656.591;-46029.57;8.39494;-6.140068;-43195.73;-29915.46;0.05137919;0.3095295;0;
-23875.47;-18463.2;2704.112;-30287.08;12.80713;-2.985761;-25252.17;-13706.71;-0.3384765;-0.0156182;0;
-20552.12;-14715.48;1282.358;-27225.33;11.99096;-3.317676;-22086.46;-9833.882;-0.6629731;-0.3404392;0;
-10607.77;-7914.835;708.3576;-16542.55;15.39516;-2.309659;-11441.29;-6549.631;-0.4674049;-0.01526043;0;
13170;10355.47;1428.315;13723.82;17.52217;-0.9676801;14018.49;8027.875;-0.07713121;-0.08021244;0;
16528.48;12513.43;2152.921;22240.32;6.453478;-5.186511;18024.43;10345.06;-0.1420211;-0.0151645;0;
11299.31;7938.632;3138.917;16776.34;5.776433;-5.047333;12545.93;5969.564;-0.07691101;-0.08011661;0;
11690.31;7748.231;4694.167;17229.63;-0.994526;-3.233783;13099.32;5455.509;0.442905;-0.2749381;0;
6094.343;4146.564;5300.269;8068.667;-7.021747;-2.493722;6345.965;2746.465;0.7023293;-0.01479251;0;
-26739.2;-23039.55;4645.27;-28619.71;14.41985;0.1210572;-28173.83;-19907.3;0.3118196;0.5049611;0;
-43734.11;-37632.35;3889.792;-48075.45;17.01733;1.192601;-45276.19;-31911.72;-0.3381672;0.4394864;0;
-24977.85;-19612.29;2977.621;-31454.71;13.24918;5.411206;-26328.37;-14566.53;-0.6626641;-0.3405633;0;
-21778.03;-15887.43;1537.008;-28414.62;16.71947;7.48224;-23278.17;-10786.6;-0.1422595;-0.4701558;0;
-11990.34;-8991.927;943.1052;-18039.13;-1.449338;7.608687;-12866.05;-7449.199;0.1827202;-0.07987935;0;
12671.71;10050.67;1693.967;13012.87;-6.270652;9.476442;13466;7812.743;0.1175692;0.1800703;0;
16379.04;12320.14;2447.698;22063.75;-1.24051;5.3141;17874.77;10103.63;0.05248375;0.3747914;0;
11009.51;7647.431;3410.972;16504.12;-4.722864;4.371061;12261.59;5674.791;-0.07750367;0.1795128;0;
11499.07;7543.514;4921.658;16904.15;1.779592;5.438334;12888.34;5222.376;-0.01245845;-0.2104717;0;
5377.54;3667.504;5495.484;6924.597;3.921258;3.289477;5499.677;2329.908;0.3123908;-0.1452928;0;
-27869.69;-23927.06;4816.77;-29942.89;-5.058639;7.84095;-29383.43;-20765.65;-0.1426945;0.4395592;0;
-45062.92;-38993.4;4023.576;-49321.16;-5.924212;7.163242;-46587.33;-33141.03;-0.3374532;0.5690522;0;
-27473.56;-22112.31;3073.29;-33838.69;-1.22921;5.012652;-28786.59;-16702.05;0.1176573;0.1786764;0;
-24805.21;-18897.25;1645.731;-31301.41;-1.161602;5.409452;-26261;-13531.85;0.2474738;0.1784969;0;
-13833.66;-10645.13;1093.166;-20203.2;2.054746;-8.394102;-14845.97;-8769.752;0.5070945;-0.1465192;0;
12023.78;9557.243;1832.571;12074.93;2.655893;-13.07435;12655.13;7475.867;0.3116829;-0.2763067;0;
15907.13;11835.5;2553.897;21425.21;0.6434928;-8.774427;17402.58;9548.263;-0.01346697;0.2437097;0;
10460.97;7074.157;3535.93;15407.24;-0.02673915;-11.17694;11728.99;5114.346;0.3113833;0.3084322;0;
11036.21;7070.266;5092.874;15945.01;-3.710407;-7.682653;12404.76;4716.436;0.05120103;0.2431549;0;
3907.684;2720.688;5713.473;4938.716;-5.78376;-6.8712;3968.328;1502.216;-0.0787851;0.4378126;0;
-31194.13;-26790.76;5044.003;-33394;-9.730063;-9.543551;-32728.84;-23466.71;0.3760655;0.04756864;0;
-49113.78;-43066.74;4246.833;-53182.01;-12.26491;-9.065082;-50609.84;-37135;0.1807856;-0.5371852;0;
-31104.99;-25755.83;3361.946;-37501.93;-13.19059;-9.122956;-32355.4;-20399.64;0.1156366;-0.3417434;0;
-28614.92;-22682.38;1992.411;-34991.68;-14.31641;-8.711892;-30001.86;-17106.37;0.2454551;-0.01656335;0;
-17731.44;-13958.58;1471.67;-24441.61;-16.04334;-9.774865;-18844.63;-11110.42;0.05030639;0.30829;0;
10166.69;8235.809;2289.529;9735.981;-17.43373;-10.30085;10657.27;6636.595;0.1152232;0.4379149;0;
15405.67;11301.68;3071.022;20447.34;-7.838025;-9.888659;16874.02;8863.085;0.2450421;0.1776055;0;
9604.141;6162.179;4082.989;13401.51;-3.40952;-11.01737;10923.59;4229.988;0.1798285;0.2423944;0;
10242.73;6344.548;5660.185;14212.65;-11.0419;-8.394028;11499.57;3939.663;0.04971315;0.3720855;0;
1627.682;1153.108;6255.945;2012.369;-9.62429;-8.452577;1296.938;238.0629;-0.08027148;0.241777;0;
-35184.42;-30262.28;5586.305;-37623.68;-6.332089;-13.53466;-36869.05;-26502.19;0.1147112;0.1765667;0;
-53041.38;-47083.62;4815.764;-56930.06;-6.192005;-15.39653;-54432.76;-41146.62;0.309498;-0.01851274;0;
-35329.4;-29973.63;3919.405;-41704.13;4.062972;-17.79238;-36526.74;-24697.46;0.04931761;0.04647321;0;
-32914.32;-27027.25;2560.335;-39185.04;7.474164;-20.18583;-34236.78;-21375.55;-0.08066662;-0.08350818;0;
-20888.77;-16663.71;2054.297;-27770.01;3.850308;-21.97408;-22044.8;-13398.11;-0.08058557;-0.1483916;0;
8709.364;7331.031;2862.263;8121.77;5.051888;-23.82746;9152.336;5967.879;-0.0805046;-0.1482425;0;
14759.68;10658.05;3650.395;19291.93;4.510949;-24.87525;16152.66;8160.199;-0.01545637;-0.5378976;0;
8964.549;5427.45;4661.374;11189.57;6.181355;-25.65399;10023.46;3487.157;-0.3402776;-0.4723898;0;
9557.848;5827.511;6241.956;12504.42;-3.068256;-25.09235;10571.14;3383.375;-0.2100009;0.112791;0;
-518.1181;-263.5045;6858.277;-348.6642;-6.682496;-24.2634;-1046.884;-743.592;0.05007943;0.3075797;0;
-38896.35;-33602.45;6209.177;-41376.47;5.916522;-26.38241;-40633.81;-29380.78;0.1149964;0.1773359;0;
-56942.98;-51117.9;5471.15;-60702.29;5.575784;-26.82479;-58294.66;-45200.51;-0.01505378;0.04722304;0;
-39052.58;-33677.99;4603.43;-45431.95;10.3256;-20.30061;-40255.15;-28451.16;-0.01503866;0.1121429;0;
-37176.23;-31340.36;3243.954;-43279.64;11.85645;-18.67268;-38454.96;-25639.56;-0.01502354;0.1769976;0;
-25206.77;-20707.63;2739.821;-32272.71;2.734854;-17.78314;-26413.75;-16919.22;-0.1449431;-0.2129843;0;
6826.268;5844.167;3562.06;5689.524;0.6550251;-15.01903;7245.996;4919.095;-0.07983015;-0.4076723;0;
14531.91;10451.38;4346.959;18606.42;-6.579302;-22.77378;15698.26;7890.266;-0.0147826;-0.01745864;0;
8496.02;4911.3;5340.808;9284.542;-9.921594;-24.35849;8910.671;2932.888;-0.2746371;0.372363;0;
8991.104;5423.637;6889.348;10323;-18.28437;-17.43489;9653.512;2991.832;-0.3393285;0.3719888;0;
-2142.119;-1473.599;7466.819;-2429.063;-23.55728;-16.7476;-2730.516;-1564.776;0.1157839;-0.2130911;0;
-41105.75;-35655.79;6788.466;-43629.57;-17.50539;-16.99871;-42903.38;-31044.7;0.7003736;-0.602681;0;
-58292.12;-52560.92;6026.181;-62110.18;-19.49753;-16.44576;-59614.7;-46706.29;0.5697352;-0.4721407;0;
-39852.05;-34464.32;5140.912;-46282.01;-8.425881;-14.48679;-41066.75;-29266.18;0.1793586;0.1130398;0;
-37431.69;-31613.51;3788.923;-43584.28;-2.723988;-13.13258;-38705.32;-25923.08;0.04924374;0.5027303;0;
-25061.83;-20559.75;3290.396;-32191.94;-14.84504;-15.32976;-26238.52;-16777.25;-0.1457078;-0.1474483;0;
6816.611;5851.108;4088.999;5549.719;-13.28891;-14.71151;7225.939;4968.947;-0.2105287;-0.2772349;0;
14545.44;10422.99;4862.063;18581.79;-12.67332;-17.309;15744.6;7823.923;0.1145196;0.1128478;0;
8630.364;5037.392;5848.679;9448.234;-12.59323;-19.23411;9098.952;3053.362;0.1793718;0.04776702;0;
9321.513;5654.517;7390.368;10836.49;-6.485987;-12.1817;10060.1;3204.013;0.04925691;0.1126864;0;
-1309.749;-839.1689;7981.797;-1368.893;-7.081706;-12.03549;-1809.107;-1088.081;-0.01575993;0.2425078;0;
-40475.23;-35114.57;7283.468;-42938.04;7.928611;-13.49703;-42249.21;-30640.76;0.04922325;-0.08257256;0;
-58908.41;-53175.34;6452.282;-62649.14;14.14993;-14.08631;-60236.26;-47306.14;0.5039452;-0.1474569;0;
-41141.11;-35791.17;5516.235;-47524.51;-3.345731;-17.68911;-42337.87;-30593.98;0.3735041;-0.2122761;0;
-39005.87;-33227.77;4137.726;-45111.67;-4.682515;-18.40815;-40270.82;-27555.52;-0.4064793;-0.08212813;0;
-26927.12;-22300.14;3627.26;-34070.45;-4.878881;-27.16418;-28103.79;-18352.46;-0.4710382;0.1128564;0;
6029.776;5217.068;4447.295;4498.718;-7.217527;-30.21803;6461.962;4497.442;-0.4055975;-0.08215901;0;
14661.3;10580.92;5234.117;18462.97;-4.196165;-28.91506;15793.6;7971.597;-0.5351247;0.1128256;0;
8496.673;4976.214;6218.735;9041.147;-4.795161;-30.6275;8793.525;2961.289;-0.5995543;0.2426469;0;
9115.273;5601.038;7756.929;10143.6;-1.507813;-23.42973;9777.753;3149.342;-0.4040498;-0.01746629;0;
-1980.828;-1288.552;8325.407;-2305.873;-0.3681985;-21.39676;-2464.392;-1473.531;0.05112753;-0.2123508;0;
-41139.95;-35670.43;7630.699;-43610.89;2.378838;-18.69601;-42917.3;-31117.71;-0.07885853;-0.2771047;0;
-58059.01;-52397.8;6855.761;-61886.76;5.256835;-14.99322;-59383.47;-46569.11;-0.1437466;-0.08192427;0;
-39435.25;-34089.42;5963.318;-45879.61;-1.915742;-20.00175;-40628.31;-28913.47;-0.01366751;-0.08184196;0;
-36971.72;-31178.85;4605.193;-43156.86;-3.923549;-19.98166;-38232.89;-25499.12;-0.07862112;-0.2116944;0;
-24493.59;-20038.12;4106.595;-31631.31;4.252067;-15.60781;-25625.09;-16281.98;-0.3384115;-0.276449;0;
7199.726;6218.109;4907.002;5911.837;4.649936;-14.98928;7608.798;5320.517;-0.4030388;-0.2112039;0;
14966.55;10789.2;5701.513;19135.93;1.296361;-15.0412;16246.5;8149.293;0.05213757;0.2437797;0;
9236.59;5631.353;6735.418;10839.82;1.227709;-14.42324;10011.76;3621.47;0.05208518;0.5683715;0;
10056.08;6265.092;8310.137;12464.96;-3.261503;-18.62861;10977.89;3785.825;-0.07790183;0.2429637;0;
314.2579;369.3511;8905.515;529.9488;-4.061532;-20.82027;-159.4738;-180.0033;0.1820458;0.04781748;0;
-38265.7;-33089.53;8192.545;-40737.96;-9.282364;-15.90972;-40014.48;-28873.48;0.1818629;0.3726062;0;
-56619.05;-50852.16;7379.624;-60367.1;-13.4926;-16.69747;-57934.19;-45007.12;0.1167128;0.3722318;0;
-38534.61;-33218.86;6504.707;-44870.57;-0.4845938;-18.62319;-39709.29;-28053.74;-0.01333915;-0.147881;0;
-36189.52;-30410.8;5158.251;-42355.81;0.5876201;-19.60916;-37457.27;-24776.36;-0.1432604;-0.4725691;0;
-24137.24;-19708.74;4645.823;-31102.95;-0.8868389;-23.1395;-25248.92;-16051.93;-0.01318179;-0.2771923;0;
7632.414;6596.409;5459.087;6603.275;1.927091;-23.65211;8050.691;5592.609;-0.07813589;-0.01704437;0;
15432.02;11246.81;6245.61;19831.57;-11.47046;-31.13025;16822.11;8604.426;-0.2079921;-0.2119293;0;
9620.087;5996.709;7236.864;11786.42;-13.66973;-33.24236;10686.67;3969.918;0.1170536;-0.2766837;0;
10383.58;6578.811;8772.692;13168.52;-11.84734;-29.79289;11395.85;4079.997;0.4417727;0.04843106;0;
537.6828;529.05;9333.528;686.2275;-14.04623;-30.09787;26.97241;-82.09092;0.2464268;-0.08155229;0;
-37362.17;-32214.73;8628.094;-39851.38;-3.783366;-22.6327;-39086.19;-28033.32;-0.01369017;-0.3413397;0;
-54427.43;-48677.58;7841.378;-58175.27;-1.502389;-20.3326;-55752.86;-42849.69;-0.07864375;-0.211062;0;
-35672.36;-30363.71;6948.6;-42014.13;-0.2954306;-14.68573;-36842.13;-25230.26;-0.01359739;0.2439214;0;
-33010.25;-27218.52;5573.868;-39250.15;2.652603;-9.915306;-34299.34;-21609.96;0.1813183;0.178709;0;
-21306.26;-17160.8;5036.253;-28178.41;0.3717862;-18.54596;-22428.08;-13765.16;0.2461035;-0.2112746;0;
8859.766;7496.322;5810.395;8078.346;1.91263;-18.59431;9283.592;6271.266;0.05095414;-0.01616032;0;
15896.49;11666.85;6574.763;20649.7;-1.371821;-16.96803;17363.87;9023.047;-0.1439991;0.04882326;0;
10269.9;6684.434;7562.719;13382.91;-1.838957;-17.82176;11614.43;4650.08;0.05104763;-0.1461278;0;
10989.54;7075.205;9080.229;14537.89;0.03792438;-14.65572;12150.2;4564.495;0.180931;-0.2109483;0;
2116.129;1722.876;9627.044;2335.533;-0.5643501;-14.37306;1547.442;781.7612;0.1157819;-0.01583434;0;
-35115.43;-30177.07;8902.543;-37633.6;4.861225;-13.6218;-36858.54;-26398.36;0.2456002;0.1790836;0;
-52759.54;-46962.56;8081.912;-56530.84;5.726996;-12.7374;-54091.03;-41151.61;0.2453534;-0.01599838;0;
-34704.21;-29446.59;7172.025;-41034.98;6.994039;-14.13118;-35901.55;-24300.76;0.3100742;-0.145917;0;
-33251.55;-27474.7;5770.489;-39388.14;7.991389;-14.05;-34548.55;-21893.01;0.5046647;-0.08080303;0;
-21783.62;-17649.66;5233.645;-28476.53;3.227937;-12.56232;-22870.47;-14218.46;0.5691249;-0.2106565;0;
9285.05;7870.57;6056.126;8621.074;1.751802;-11.7459;9738.189;6650.854;0.2437164;0.1143919;0;
16354.85;12092.18;6820.716;21252.7;-0.6618322;-11.60013;17833.55;9439.235;-0.1463325;0.3091789;0;
10527.18;6949.886;7779.877;13985.91;-2.804621;-10.04793;11895.48;4898.872;-0.1461855;0.243901;0;
11451.34;7468.935;9295.419;15315.41;-5.815913;-11.9133;12674.24;4949.546;-0.211006;0.1786885;0;
2746.918;2026.818;9821.06;3199.138;-8.087245;-12.03529;2256.625;1107.549;-0.08085925;-0.01639305;0;
-34108.1;-29367.42;9074.905;-36561.64;-7.476882;-4.856207;-35849.38;-25546.92;0.2440587;-0.08134392;0;
-51218.24;-45394.5;8257.6;-55013.28;-7.937884;-3.31072;-52563.25;-39598.78;-0.0160559;-0.1462295;0;
-32871.29;-27628.5;7348.318;-39168.02;-8.733215;1.38129;-34059.82;-22478.14;-0.1459744;-0.1460826;0;
-31068.01;-25309.92;5960.253;-37232.86;-9.059233;5.398756;-32380.53;-19736.45;-0.1458278;-0.08096847;0;
-19966.18;-15884.21;5413.255;-26635.1;-5.500156;-3.515155;-21095.4;-12713.86;-0.1456812;-0.08088711;0;
9764.525;8324.556;6202.854;9143.391;-4.422903;-3.913521;10191.08;6913.323;0.2442692;-0.08080584;0;
16510.91;12238.89;6957.863;21614.04;-4.686879;-0.09168316;18017.59;9590.324;0.6338277;-0.535496;0;
11022.09;7447.09;7898.927;14907.1;-4.078957;-0.0246081;12371.97;5383.969;0.3083542;-0.5999253;0;
12019.07;7996.827;9415.067;16320.33;-6.553104;4.396168;13343.9;5478.228;-0.2766617;-0.01461642;0;
4132.605;3132.467;9972.416;5067.204;-7.685596;5.798392;3935.622;1904.438;0.3083224;0.115333;0;
-32107.58;-27535.5;9245.443;-34384.15;-7.878944;8.605788;-33743.86;-24080.48;0.5029146;-0.01471762;0;
-49732.4;-43883.34;8460.668;-53555.06;-9.210198;11.34332;-51107.35;-38086.73;0.1126052;-0.1446375;0;
-31802.02;-26574.69;7579.637;-38042.71;-9.402015;7.246085;-32978.54;-21388.19;0.3723614;-0.2744269;0;
-29796.4;-24021.83;6174.255;-35984.87;-8.990425;7.37277;-31114.2;-18517.18;0.1121179;0.05068558;0;
-18596.19;-14645.86;5600.555;-25157.12;-15.68017;10.51356;-19684.73;-11702.99;-0.01792943;-0.07930003;0;
10535.47;8915.985;6375.379;10028.83;-17.27201;10.90477;11004.87;7324.71;0.04705593;-0.01425301;0;
16799.42;12513.88;7140.585;22082.03;-12.76667;12.70235;18315.21;9885.685;-0.01795869;0.6354347;0;
11398.45;7823.116;8113.449;15721.93;-13.28971;13.49338;12745.39;5745.952;0.4368307;0.1150575;0;
12345.76;8298.668;9636.964;16851.81;-5.172032;14.08267;13692.23;5765.432;0.5013592;-0.4697641;0;
4538.62;3439.362;10175.38;5515.63;-1.884305;15.54215;4446.441;2204.332;0.3059534;-0.07948811;0;
-31470.02;-26971.96;9407.006;-33688.04;-6.972627;11.17264;-33049.9;-23538.21;0.2406786;0.1804612;0;
-48970.57;-43131.99;8561.286;-52830.75;-5.961243;9.687911;-50368.2;-37350.5;-0.0194326;0.1153125;0;
-30399.48;-25199.71;7665.973;-36681.54;-8.567221;17.247;-31592.69;-20012.96;-0.08438042;0.2451313;0;
-27614.99;-21832.79;6297.736;-33855.47;-9.563967;19.03821;-28950.09;-16376.45;-0.2142303;0.3098523;0;
-16710.62;-12925.49;5736.405;-23137.86;-8.21421;14.93325;-17766.26;-10208.3;-0.2789824;0.04967161;0;
11326.74;9489.881;6496.756;11055.58;-9.345032;15.11919;11855.6;7752.087;-0.1487674;0.1145891;0;
16998.72;12702.91;7240.164;22360.95;-3.039003;14.97003;18522.47;10085.76;-0.2135853;0.2444086;0;
11594.74;8022.058;8176.258;16011.07;0.5803973;13.95025;12932.81;5929.555;-0.01846862;0.04926097;0;
12464.7;8398.711;9675.535;17088.13;-13.01687;18.15603;13829.69;5853.32;0.1114846;-0.2756252;0;
4840.81;3727.459;10220.5;5875.795;-16.82218;19.00857;4780.414;2425.034;0.2413073;-0.3403156;0;
-30555.84;-26069.72;9477.633;-32793.11;0.9455653;14.56872;-32123.26;-22726.01;0.1111301;-0.404941;0;
-47794.8;-41971.22;8656.486;-51700.31;3.556583;13.6833;-49207.46;-36214.71;-0.01891621;-0.3395668;0;
-29445.87;-24270.36;7763.015;-35737.52;-3.011074;12.39687;-30673.92;-19074.05;0.1110375;-0.1443236;0;
-26845.48;-21076.88;6380.218;-33104.79;-3.276468;10.24109;-28205.77;-15669.71;0.1109259;-0.01424386;0;
-16079.79;-12414.33;5810.09;-22570.48;-3.875412;13.98172;-17178.7;-9888.954;-0.01912023;-0.07919689;0;
11594.16;9661.277;6567.775;11195.32;-3.737796;14.43655;12063.52;7814.182;-0.1490357;0.1157847;0;
17107.41;12808.28;7323.23;22594.3;-11.23613;8.12577;18634.79;10202.11;-0.2138533;0.2456031;0;
11832.78;8256.411;8293.255;16616.78;-12.49764;6.978895;13158.64;6144.519;-0.2786058;0.1154216;0;
12790.84;8695.983;9823.18;17649.61;-14.76225;5.699268;14184.56;6149.855;-0.5381952;-0.2744984;0;
5507.241;4211.276;10363.75;6805.141;-17.82888;3.885063;5629.979;2803.386;-0.01791566;-0.1442879;0;
-29593.76;-25237.56;9598.655;-31672.19;-2.137203;8.30191;-31071.53;-22046.55;0.6317757;0.5055305;0;
-46795.5;-40957.49;8784.945;-50728.79;1.281196;8.360552;-48242.73;-35222.27;0.1114022;0.05025111;0;
-28492.72;-23346.23;7893.781;-34754.6;-2.73858;10.96436;-29728.91;-18152.79;-0.2785138;-0.4695381;0;
-26045.53;-20291.33;6485.428;-32301.72;-2.066242;13.76663;-27419.18;-14882.14;0.1115701;0.05067241;0;
-15427.4;-11824.42;5898.984;-21751.02;0.1456604;4.308386;-16470.53;-9288.837;-0.3433134;0.1805562;0;
12011.79;10000.98;6651.645;11827.78;2.021524;3.098426;12568.76;8141.927;-0.3429684;0.05044007;0;
17457.69;13149.31;7401.362;23064.95;-11.84561;7.382098;18999.54;10526;0.5019516;-0.1445126;0;
12196.05;8620.06;8355.66;17250.23;-15.11623;6.972783;13517.46;6499.954;0.5664147;-0.2743021;0;
13069.02;8966.517;9874.965;18133.12;-13.22504;13.0611;14487.9;6412.776;0.4359108;-0.07912447;0;
6033.703;4607.209;10404.12;7452.521;-15.55627;15.39238;6225.249;3146.221;0.4354728;0.1158571;0;
-28675.99;-24414.37;9618.77;-30687.33;-9.311351;14.10424;-30118.44;-21268.62;0.2401332;0.2456753;0;
-45580.32;-39756.97;8793.14;-49527.45;-8.766131;16.09943;-47050.33;-34050.88;0.0449899;0.1154938;0;
-26982.91;-21842.32;7871.419;-33238.08;-2.059518;11.05966;-28242.65;-16585.36;0.2398467;-0.209459;0;
-23996.35;-18241.42;6439.32;-30301.85;1.962016;8.63728;-25389.13;-12973.41;0.1746384;-0.1442812;0;
-13249.27;-9989.636;5871.757;-19520.75;-4.537666;17.33614;-14272.12;-8034.774;-0.2153412;0.3756026;0;
12978.32;10631.04;6620.478;12911.54;-3.46138;17.65364;13573.97;8490.56;0.04474459;0.05038843;0;
17557.99;13252.38;7327.498;23300.65;-6.270941;15.49244;19108.12;10705.27;0.4345037;-0.5343683;0;
12517.29;8948.721;8241.172;17768.75;-7.738508;16.74955;13829.14;6793.724;0.04426304;-0.273962;0;
13413.18;9278.262;9728.015;18692.8;-2.304749;3.336501;14844.96;6727.756;0.1741533;-0.2087194;0;
6795.536;5119.525;10251.69;8575.281;-1.365404;-1.154647;7050.019;3592.568;0.6287496;-0.1435423;0;
-27335.13;-23328.49;9473.307;-29178.46;-3.171717;6.482384;-28733.13;-20307.84;0.4332159;-0.01346337;0;
-44523.68;-38672.66;8645.605;-48512.78;-3.034809;5.136273;-45988.79;-32957.69;0.3028459;-0.1433845;0;
-26296.58;-21161.07;7741.775;-32484.41;0.7192851;7.006573;-27552.06;-15931.62;0.1726069;-0.07827311;0;
-23903.84;-18163.36;6307.15;-30124.1;2.258804;7.602379;-25291.34;-12802.91;-0.08743591;0.05174022;0;
-13780.31;-10427.52;5717.637;-19915.51;-2.231444;5.250399;-14798.48;-8179.191;0.04258663;0.05168823;0;
12846.9;10590.76;6492;12847.69;-4.506378;5.17814;13433.94;8573.158;0.1075112;-0.07829839;0;
17915.24;13595.63;7233.007;23713.5;2.665446;3.833278;19468.93;10993.09;0.1723705;-0.01325237;0;
12794.14;9217.007;8183.321;18188.69;2.863838;3.762444;14104.99;7057.875;0.10723;0.2466303;0;
13887.49;9759.14;9718.51;19361.84;-3.301957;-1.934703;15334.93;7218.229;-0.08777982;0.05148047;0;
7832.558;5907.265;10242.54;10019.6;-3.834503;-5.080896;8187.68;4229.304;0.1721777;-0.0135386;0;
-25979.38;-22175.7;9405.757;-27651.25;-12.20339;1.957235;-27321.65;-19331.4;0.4318741;0.05144234;0;
-43033.99;-37185.52;8488.918;-47116.28;-14.46831;2.357165;-44521;-31549.4;0.1715708;-0.2734461;0;
-24881.41;-19726.35;7524.837;-31051.04;-16.93202;-0.9942887;-26139.59;-14535.99;0.04146372;-0.5330406;0;
-22179.04;-16474.99;6107.547;-28488.39;-20.86712;-0.7253579;-23576.88;-11322.16;0.3012914;-0.142701;0;
-11608.26;-8683.02;5549.532;-17711.12;-6.176766;-4.408568;-12606.49;-6977.418;0.365956;0.7020178;0;
13980.56;11383.01;6318.472;14136.65;-4.027106;-5.743797;14612.25;9098.874;0.0407516;0.2465411;0;
18265.51;13975.28;7070.68;24207.75;-5.094787;-4.46535;19828.68;11443.72;-0.02425669;-0.5333148;0;
13487.19;9903.968;8044.082;19163.62;-2.41035;-6.269403;14792.71;7714.294;0.3006044;-0.07800752;0;
14380.03;10243.45;9567.604;20133.99;-10.78067;-0.234761;15842.05;7706.948;0.3003024;-0.1428965;0;
8746.714;6519.711;10063.21;11314.06;-11.10463;1.707919;9176.768;4803.254;-0.02483611;-0.2077202;0;
-24115.75;-20646.72;9235.755;-25580.6;-19.26515;-7.068317;-25409.23;-17851.23;0.04015619;-0.01260949;0;
-41395.2;-35534.75;8380.525;-45529.96;-24.53708;-7.86501;-42886.98;-29995.57;-0.3496882;-0.07756416;0;
-23031.12;-17901.17;7472.088;-29256.79;-13.12557;-9.196705;-24324.76;-12923.7;-0.4792715;0.1174158;0;
-19609.89;-13916.58;6074.466;-26007.45;-13.84931;-10.59411;-21045.7;-8941.198;0.3008181;-0.2075389;0;
-9953.047;-7127.048;5509.55;-15833.8;-11.55822;-4.153221;-10832.27;-5679.271;0.5603852;-0.8570037;0;
14387.19;11619.43;6276.407;14818.23;-8.599847;-1.536775;15148.15;9235.145;0.04008344;-0.4663386;0;
18509.16;14211.41;7042.337;24447.26;-20.5803;-4.080521;20075.21;11712.82;-0.4796956;0.1838034;0;
13677.35;10096.83;8005.523;19325.76;-21.29655;-2.66984;14971.69;7874.738;-0.4142462;0.5084555;0;
14444.87;10302.96;9536.362;20250.39;-20.13705;3.896987;15917.43;7790.536;0.1059087;0.3780099;0;
9459.14;7070.051;10084.94;12267.13;-20.18319;6.907242;9986.645;5235.332;0.235737;-0.07714138;0;
-22488.67;-19204.41;9280.421;-23827.58;-15.60856;7.704097;-23707.43;-16483.2;0.04059811;-0.3369332;0;
-39368.67;-33520.54;8442.294;-43581.16;-14.85594;8.768083;-40883.21;-28253.07;0.1055247;-0.6614314;0;
-20824.45;-15672.85;7578.022;-27109.21;-2.985646;12.77813;-22182.87;-11365.02;0.4302553;-0.3359301;0;
-17404.96;-11840.85;6194.662;-23920.23;1.974823;14.03796;-18941.79;-7296.404;0.234921;0.05421152;0;
-8115.121;-5805.545;5624.346;-13976.65;1.101206;10.47376;-9015.286;-4721.738;0.03978292;-0.0108103;0;
15213.65;12111.32;6376.564;15766.39;5.588078;10.46324;15989.07;9532.141;0.1696776;0.2490699;0;
18688.64;14439.67;7125.465;24679.67;-3.593588;4.759358;20252.65;12002.61;0.2344745;-0.0110497;0;
14167.3;10577.27;8085.694;19781.62;-5.398639;3.01308;15461.8;8324.864;0.2342389;-0.2059406;0;
14946.73;10804.27;9599.398;20825.52;-0.8388626;3.478933;16416.97;8308.737;0.2340035;0.05413568;0;
10266.54;7677.983;10132.1;13575.62;-4.119573;2.269745;10894.27;5773.518;0.4286704;-0.01088606;0;
-20644.27;-17624.52;9331.29;-21711.72;8.275799;7.960891;-21789.03;-14904.86;0.5581744;-0.1408098;0;
-37125.66;-31280.83;8498.984;-41404.93;11.48266;9.359534;-38638.72;-26316.5;0.1028421;-0.01073364;0;
-18223.34;-12998.16;7638.685;-24510.45;-3.130909;10.9576;-19612.97;-9466.826;-0.1571306;0.1192118;0;
-14223.45;-8750.23;6239.74;-20835.8;-3.462556;12.21926;-15838.76;-4581.14;-0.02703802;-0.01084264;0;
-5918.012;-3978.863;5638.925;-11377.25;-11.63075;13.74759;-6669.776;-3115.412;-0.2868802;-0.1407664;0;
15942.01;12661.48;6376.292;17066.14;-15.10169;14.87249;16913.48;9931.193;-0.3515593;-0.335527;0;
19202.85;14992.64;7110.169;25216.61;-6.714746;9.43205;20760.5;12619.62;0.03859799;-0.4001572;0;
14685.55;11080.3;8048.081;20265.03;-7.176513;8.01593;15975.94;8794.438;0.1684939;-0.2048531;0;
15225.46;11102.96;9546.55;21173.85;4.08383;3.788012;16709.74;8628.868;0.1033572;-0.07471258;0;
11014.26;8228.243;10078.47;14558.05;8.567705;-0.100682;11708.25;6270.816;-0.02668129;0.2501992;0;
-18443.68;-15656.85;9294.854;-19343.5;3.401533;4.387154;-19526.31;-12954.84;0.03831286;-0.1398562;0;
-34464.69;-28673.62;8451.995;-38792.9;3.732908;3.31108;-35980.62;-23887.77;0.2981437;-0.3995851;0;
-16409.48;-11126.56;7549.296;-22686.72;5.805262;-1.916794;-17796.62;-8280.823;0.1029421;-0.00937954;0;
-12250.86;-6921.538;6132.45;-18856.18;6.20157;-4.058261;-13853.22;-3224.196;-0.09206333;-0.07433746;0;
-3975.605;-2716.583;5512.815;-9232.591;-3.382855;-3.987261;-4584.222;-2017.296;-0.2219055;-0.3990995;0;
16502.58;12857.85;6201.989;17861.88;-6.193471;-5.121904;17597.04;10044.25;-0.1567152;-0.3337311;0;
19235.31;15127.91;6914.115;25250.65;-7.66014;-8.867741;20777.37;12791.97;0.4281484;0.186343;0;
15041.98;11403.01;7866.748;20596.54;-9.193661;-9.997478;16328.63;9099.905;0.3627508;0.3160904;0;
15532.71;11416.37;9369.396;21499.49;-10.38987;-11.26011;17020.41;8956.938;-0.3522545;-0.2689333;0;
11500.09;8657.855;9885.155;15260.02;-12.38819;-11.51673;12250.18;6635.741;-0.2869332;-0.1387284;0;
-17707.82;-15034.22;9074.625;-18390.22;0.7524269;-11.10326;-18726.86;-12427.66;0.2330939;0.5110844;0;
-33887.39;-28093.37;8214.747;-38187.35;4.234295;-10.42227;-35412.79;-23441.83;0.102925;0.1857342;0;
-15537.5;-10315.91;7324.187;-21800.3;1.952865;-4.986303;-16938.04;-7895.956;0.03785422;-0.1392891;0;
-11369.04;-6022.367;5907.848;-17954.46;3.825937;-1.632207;-13004.02;-2600.383;0.03781619;-0.3340512;0;
-3935.405;-2486.668;5270.135;-9072.017;1.076402;-1.69755;-4577.898;-1778.588;-0.2870585;-0.2687482;0;
16449.7;12893.87;5970.079;17921.86;1.410113;0.3135824;17539.59;10052.91;-0.09186805;0.3811952;0;
19446.71;15314.06;6671.194;25447.66;-6.227114;4.332121;20983.82;12974.24;0.03815894;0.5107469;0;
15036.62;11400.26;7565.913;20594.89;-9.83818;4.930615;16318.58;9099.598;-0.02684674;0.0554623;0;
15470.95;11353.74;9051.622;21442.09;-5.80883;12.56153;16954.72;8865.536;0.1031149;-0.07452811;0;
11580.28;8710.439;9600.809;15333.3;-8.348588;16.09888;12330.92;6723.201;0.1030113;0.05548146;0;
-17556.39;-14922.8;8810.929;-18243.87;-4.589156;3.22235;-18581.91;-12325.48;0.1029078;-0.009541627;0;
-34114.62;-28318.77;7933.356;-38407.85;-4.249752;0.9417534;-35660.96;-23563.41;0.2327391;0.2503373;0;
-16385.81;-11074.88;7013.843;-22595.33;-10.54212;2.347388;-17797.85;-8238.255;0.4923746;0.4449878;0;
-12070.68;-6755.75;5614.339;-18658.42;-11.93805;0.5365509;-13718.88;-3039.118;0.3619452;-0.1401654;0;
-3960.453;-2733.372;5012.466;-9146.989;-13.19885;2.277507;-4633.346;-1977.565;-0.2880919;-0.07505721;0;
16528.17;12860.15;5707.109;18005.62;-13.31931;2.342201;17598.39;10044.75;-0.3527698;0.1199202;0;
19268.97;15165.81;6409.55;25297.67;-19.53522;3.411575;20806.33;12812.86;0.2322907;-0.205037;0;
15057.79;11413.09;7335.579;20596.8;-21.18955;3.943949;16338.54;9107.435;0.2970247;0.05503842;0;
15736.64;11610;8818.115;21691.95;-15.27474;6.954157;17217.79;9127.285;-0.02811049;-0.1399189;0;
11680.72;8871.099;9327.307;15497.12;-14.72353;7.884931;12448.57;6851.737;-0.2879516;-0.5295823;0;
-17434.67;-14730.25;8526.926;-18086.11;-5.465332;8.479855;-18437.72;-12193.33;0.1021418;-0.2691809;0;
-34042.25;-28215.15;7679.561;-38348.28;-0.1012054;9.074181;-35590.39;-23451.96;0.5568106;-0.009041034;0;
-16507.37;-11223.44;6783.322;-22728.67;-5.32504;5.983909;-17928.63;-8299.45;0.556251;0.3807721;0;
-11981.39;-6619.765;5369.338;-18602.87;-2.908792;5.442033;-13617.3;-2915.329;0.3607901;0.2504548;0;
-3942.778;-2487.046;4740.226;-9143.605;-3.575455;0.5469323;-4584.527;-1806.471;0.1655256;0.1852358;0;
16412.39;12877.17;5435.517;17861.72;-5.246801;-1.797959;17499.28;10051.12;-0.09451014;0.1850497;0;
19370.34;15228.18;6134.42;25380.29;5.877882;0.3472406;20906.85;12877.2;0.03551951;-0.334875;0;
15015.57;11376.64;7027.148;20576.02;7.010075;-0.5238864;16297.69;9062.94;0.2303858;0.1202329;0;
15454.68;11341.33;8509.433;21435.36;1.845467;0.8832815;16935.38;8862.134;-0.2895844;0.3799815;0;
11813.86;8909.164;9073.313;15714.76;1.30775;1.217248;12596.54;6860.137;-0.3542607;-0.1401391;0;
-16871.52;-14274.67;8303.891;-17460.56;-6.73054;3.359478;-17857.07;-11804.82;0.165834;0.05490375;0;
-33886.5;-28077.88;7432.918;-38179.47;-8.867231;5.633461;-35435.78;-23336.24;0.1007;0.3147179;0;
-16692.52;-11383.48;6515.719;-22890.79;-15.95827;0.9391177;-18111.16;-8410.115;0.03563146;0.2494344;0;
-11967.48;-6666.552;5102.442;-18619.82;-19.55956;0.8042082;-13620.29;-2897.947;0.295465;0.2491838;0;
-3781.459;-2542.688;4473.004;-8966.277;-11.10078;3.013776;-4461.375;-1828.025;0.3601355;0.05403133;0;
16488.01;12840.53;5145.763;18009.35;-9.48204;1.872038;17550.97;10016.98;-0.03003044;-0.140925;0;
19317.95;15204.02;5817.783;25349.18;-5.386676;8.032465;20856.47;12847.87;-0.159935;-0.2057507;0;
15080.66;11424.83;6717.669;20613.94;-1.696592;8.560257;16357.96;9106.768;-0.0948069;-0.1405766;0;
15721.65;11616.04;8209.76;21672.91;3.060535;4.666707;17193.51;9135.192;-0.09471164;-0.1404354;0;
12204;9203.872;8750.422;16288.46;7.075948;3.992188;13078.45;7142.307;-0.02964913;-0.01035959;0;
-16350.74;-13927.85;7953.026;-16718.2;5.327526;-3.245797;-17240.58;-11467.86;-0.09458669;0.2495202;0;
-33289.9;-27510.8;7054.857;-37593.9;4.853658;-5.787826;-34857.38;-22784.89;0.1004104;-0.1405346;0;
-16379.31;-11068.23;6093.936;-22597.85;10.877;-8.930147;-17819.27;-8167.509;0.2302442;-0.4652301;0;
-12032.84;-6735.848;4651.253;-18656.38;11.53566;-10.72965;-13683.83;-3023.977;0.2949802;-0.009991229;0;
-3824.509;-2522.116;4023.861;-8985.421;1.410009;-10.85284;-4489.881;-1813.998;-0.03015294;0.1199535;0;
16585;12973.49;4707.847;18122.72;-0.9359323;-11.51176;17671.52;10139.71;-0.3549593;-0.1400364;0;
19423.74;15304.4;5388.866;25435.26;-8.570802;-4.199177;20957.36;12940.51;-0.1597007;0.05500633;0;
15117.37;11466.83;6298.272;20652.43;-13.31761;-2.18553;16394.55;9145.411;0.3601985;-0.2049183;0;
15623.68;11510.58;7792.284;21589.58;-9.218394;5.050639;17100.48;9022.419;0.5547386;-0.5295491;0;
11973.04;9035.754;8315.968;16007.34;-11.41993;9.667326;12794.88;6971.099;-0.03052484;-0.2691477;0;
-16337.47;-13810.53;7512.762;-16834.49;-4.978097;4.232056;-17301.03;-11355.9;-0.3553309;-0.3338445;0;
-33000.61;-27209.37;6630.496;-37349.2;-2.494849;5.366513;-34577.43;-22527.49;-0.03013713;-0.2035744;0;
-16158.35;-10838.12;5672.937;-22385.44;-9.458568;3.351694;-17605.51;-7998.041;-0.2250089;0.3163689;0;
-11561.12;-6304.08;4239.798;-18233.06;-10.0513;2.209616;-13237.32;-2667.601;-0.0948481;-0.008785731;0;
-3209.663;-2065.825;3660.452;-8184.723;-4.548843;4.484755;-3839.872;-1450.156;0.2950512;-0.07374424;0;
16846.76;13172.58;4389.655;18603.84;-2.400819;4.547231;17968.03;10319.85;0.09985276;0.1861992;0;
19622.84;15523.7;5092.545;25614.44;-11.50809;3.470996;21153.75;13166.25;-0.0951496;-0.008889899;0;
15486.5;11817.99;6018.085;20988.4;-13.50625;3.333543;16758.09;9485.521;-0.2249887;-0.008880965;0;
15852.94;11758.54;7499.728;21838.3;-4.785146;6.076432;17328.94;9272.437;0.1650414;0.0560953;0;
12339.52;9311.107;8002.217;16412.38;-3.038049;6.673112;13199.61;7223.473;0.4897123;0.05603893;0;
-15112.59;-12757.83;7203.387;-15605.71;-5.2458;8.273997;-16055.36;-10310.26;0.03444886;-0.008984715;0;
-31450.7;-25714.13;6314.373;-35885.64;-4.302524;8.935513;-33068.5;-21140.29;-0.1604878;-0.008975687;0;
-15603.33;-10381.79;5327.646;-21799.08;-3.025403;8.859551;-17054.2;-7762.576;-0.09535918;0.31587;0;
-12351.98;-7019.853;3860.497;-18941.32;-3.290782;9.721427;-14022.42;-3374.993;-0.225198;0.2505853;0;
-4195.381;-2706.464;3254.857;-9407.853;0.7319883;3.482369;-4916.696;-1948.926;-0.2899391;0.1853662;0;
16662.27;13104.04;3996.962;18130.45;0.7312528;1.20145;17705.97;10259.79;-0.2896478;0.05524524;0;
19716.16;15569.99;4718.519;25723.64;0.663169;5.755021;21255.13;13200.46;-0.2243894;0.1201571;0;
15385.09;11741.92;5627.506;20908.51;1.73423;5.615273;16663.11;9409.66;0.03570544;0.5098404;0;
15857.8;11745.38;7123.94;21805.67;-11.06089;4.403937;17329.16;9255.997;0.1006369;0.4443608;0;
12525.87;9527.95;7665.288;16760.14;-14.59975;4.734427;13392.14;7426.674;0.2304705;0.2490122;0;
-15182.62;-12751.79;6840.996;-15467.43;-11.57097;2.117396;-16110.12;-10357.49;0.2952062;0.1837947;0;
-32002.98;-26250.32;5915.583;-36342.96;-13.368;1.043542;-33611.02;-21596.48;-0.0299271;-0.206194;0;
-15972.33;-10658.13;4956.587;-22148.02;-9.737247;5.999169;-17439.43;-7881.505;0.165005;-0.1410195;0;
-11807.26;-6572.081;3528.51;-18427.03;-9.191599;7.064807;-13481.06;-2955.011;0.2298065;0.0540242;0;
-3364.588;-2248.038;2910.148;-8390.267;-6.168253;6.119947;-4028.637;-1582.621;-0.2251958;-0.07596476;0;
16868.63;13187.34;3594.566;18599.98;-4.353395;8.056303;17962.36;10337.78;-0.0950348;-0.3357578;0;
19596.76;15495.48;4297.943;25605.77;-3.411991;2.756679;21128.74;13126.87;-0.02997197;-0.4003878;0;
15354.24;11692.25;5267.26;20873.14;-0.7956182;1.950113;16629.95;9358.303;-0.4847133;0.1847206;0;
15818.14;11706.67;6815.687;21784.92;-7.828393;7.507615;17291.68;9214.732;-0.6141609;0.2495024;0;
12249.07;9284.177;7382.112;16335.24;-8.892254;7.634037;13095.81;7197.046;-0.1587724;-0.2055197;0;
-15316.48;-12817.52;6618.356;-15779.88;-5.064926;14.4585;-16257.51;-10357.55;0.4910606;-0.3352479;0;
-31641.31;-25892.48;5756.979;-35995.71;-5.86412;17.25714;-33224.76;-21279.57;0.1657304;-0.334911;0;
-15634.06;-10300.58;4816.883;-21783.25;0.6394833;12.14922;-17091.48;-7731.724;-0.4191422;0.2501315;0;
-11157.07;-5969.844;3399.847;-17848.23;3.45188;12.40494;-12859.3;-2591.972;-0.223819;0.5747169;0;
-2371.235;-1563.026;2801.23;-7309.699;-2.579808;9.512332;-3000.393;-1072.38;-0.0936594;0.3142701;0;
17163.91;13333.2;3497.626;19058.6;-2.443494;7.35932;18300.74;10454.65;-0.2235;0.1190523;0;
19562.62;15506.09;4197.602;25585.08;-0.5660051;8.959516;21092.69;13158.02;-0.02837338;-0.2059041;0;
15429.23;11744.19;5118.419;20928.29;-0.7655311;7.275939;16704.71;9398.399;0.2315245;-0.3356319;0;
15807.7;11722.02;6609.118;21782.12;0.373338;7.469577;17278.77;9240;0.1663245;-0.01045791;0;
12781.15;9684.543;7161.852;17063.72;-0.4976933;7.395089;13702.49;7558.79;-0.1586793;0.1844546;0;
-14594.04;-12344.21;6385.167;-14811.3;4.526649;1.89518;-15455.59;-9951.96;0.2962515;-0.07560009;0;
-31405.55;-25681.96;5499.881;-35759.85;7.000347;0.5536781;-33010.2;-21150.69;0.4258885;-0.4003608;0;
-15390.3;-10067.71;4546.362;-21595.86;-3.455537;0.8209925;-16851.2;-7597.938;-0.2242128;-0.2050565;0;
-11350.67;-6126.802;3115.261;-17970.38;-4.188999;-0.1175325;-13022.9;-2707.43;0.1008492;-0.3347852;0;
-2982.278;-1968.483;2518.461;-7796.696;-4.252139;3.365576;-3615.556;-1384.17;0.3606172;-0.2694814;0;
17170.65;13414.22;3215.86;19095.45;-5.319593;3.965041;18291.44;10538.49;0.03541815;0.2505281;0;
19771.9;15685;3893.161;25765.62;1.183463;6.037467;21298.81;13330.67;0.3602193;-0.1395277;0;
15527.59;11854.87;4817.314;21026.48;1.517066;8.040888;16803.19;9508.719;0.2299226;-0.2693222;0;
15883.6;11784.54;6331.741;21862.75;11.89704;2.674296;17355.25;9301.826;-0.2900471;0.3806219;0;
12570.81;9520.827;6896.373;16843.13;16.70786;1.532899;13478.21;7398.65;-0.2247883;0.2503047;0;
-14252.91;-11900.9;6139.446;-14555.89;6.577014;6.287025;-15149.75;-9470.59;-0.1595951;-0.1397508;0;
-30377.6;-24717.34;5255.156;-34804.94;6.369335;6.682605;-31996.88;-20188.93;-0.2244021;-0.1396104;0;
-14872.51;-9648.031;4271.555;-21073.72;4.420552;4.800429;-16332.23;-7327.131;0.2305948;-0.2044375;0;
-11006;-5905.479;2825.144;-17650.38;1.871491;5.13052;-12683.69;-2553.774;0.4252651;-0.2691994;0;
-2353.145;-1662.596;2225.261;-7174.095;5.485957;3.048955;-2972.712;-1021.227;0.1649684;0.0559078;0;
17324.85;13420.13;2926.047;19291.77;6.016308;2.978909;18462.55;10548.75;-0.09506672;0.510623;0;
19674.56;15642.81;3619.85;25673.87;-0.2190282;2.975916;21201.16;13279.69;0.2948329;0.3152079;0;
15535.5;11833.32;4534.501;21031.05;-1.089464;2.102147;16808.65;9491.889;0.554406;0.2499239;0;
15783.46;11702.79;6025.318;21767.88;4.001845;8.530274;17252.06;9218.047;-0.09582452;0.1197381;0;
12751.17;9629.209;6593.757;17029.35;5.204249;9.593431;13681.57;7478.794;-0.2256629;-0.595023;0;
-14095.97;-11892.67;5835.915;-14356.22;7.141403;8.579047;-14959.13;-9526.302;-0.03053414;-0.4644904;0;
-30359.14;-24687.98;4957.271;-34802.21;7.46902;8.771376;-31992.65;-20260.61;0.09943122;-0.139187;0;
-14741.41;-9635.092;4002.205;-20939.97;12.21694;4.743647;-16218.7;-7346.483;0.6840374;-0.1390472;0;
-12150.77;-6936.98;2547.382;-18706.28;12.00359;2.528505;-13830.79;-3432.347;0.4884481;0.05599456;0;
-4027.586;-2733.292;1957.149;-9000.273;13.33168;1.856135;-4689.679;-1960.526;-0.2916509;-0.2688984;0;
17174.85;13517.43;2710.49;18882.98;15.12694;1.050475;18273.21;10649.93;-0.2263905;-0.6584322;0;
20002.55;15881.78;3392.766;25999.7;-7.528245;-5.916623;21533.8;13517.63;-0.03126096;-0.2679666;0;
15698.74;12030.37;4286.188;21190.81;-15.02277;-7.250276;16977.39;9683.296;-0.2910989;0.05713934;0;
16253.17;12165.24;5803.803;22187.77;-5.161061;-6.037359;17716.28;9684.279;-0.1608717;0.1220493;0;
13217.25;10090.44;6377.493;17768.07;-6.026532;-5.696378;14184.7;7922.789;0.09915928;-0.008008054;0;
-13332.55;-11056.02;5616.401;-13248.39;-10.84325;1.074439;-14126.41;-8704.709;0.164027;-0.3328367;0;
-29389.65;-23792.01;4738.041;-33790.98;-10.76598;3.417701;-31002.83;-19338.16;0.4237315;-0.007665572;0;
-14144.58;-9207.904;3767.452;-20401.45;-8.343287;12.72471;-15624.99;-7039.511;0.2933711;0.1222768;0;
-11391.37;-6355.316;2325.983;-17977.38;-8.938117;17.46759;-13081.34;-2975.445;-0.2916298;-0.007780734;0;
-3280.732;-2278.804;1779.264;-8208;7.54891;17.38306;-3979.5;-1459.747;-0.3563041;0.1221618;0;
17218.64;13422.33;2576.73;19033.2;13.1674;21.31746;18308.58;10564.86;-0.161044;0.05707168;0;
19875.71;15802.64;3290.812;25868.25;5.518362;11.51678;21413.78;13428.29;-0.2908169;-0.00795301;0;
15626.19;11949.58;4153.07;21116.21;8.794371;9.160925;16903.32;9610.848;-0.2255573;-0.07291236;0;
15998.31;11896.42;5604.947;21955.47;-4.141562;15.17994;17467.4;9410.302;-0.09539603;0.05709558;0;
12753;9701.924;6155.192;17080.44;-7.821095;14.56196;13681.01;7569.845;-0.03033283;0.1220056;0;
-14008.07;-11635.28;5384.891;-14212.42;1.362815;11.39913;-14860.16;-9214.641;0.03466499;-0.2679211;0;
-30004.4;-24368.27;4489.74;-34421.8;0.825582;8.105638;-31611.93;-19880.61;-0.09530453;-0.5924886;0;
-13990.43;-8906.796;3524.711;-20254.41;4.776867;16.06822;-15457.55;-6975.829;-0.3550781;-0.2020892;0;
-10299.17;-5223.459;2065.745;-16909.47;5.37528;16.32;-11964.22;-2252.659;-0.02988463;0.05798323;0;
-2403.302;-1635.715;1427.958;-7050.142;12.13503;6.926239;-3012.127;-998.7277;0.03511273;-0.07200972;0;
17421.29;13538.21;2105.057;19505.33;16.14133;4.976836;18562.31;10681.75;-0.2247919;-0.2018721;0;
19931;15890.04;2740.934;25931.26;4.871976;-3.802746;21462.5;13513.24;0.36014;-0.2016692;0;
15590;11889.41;3598.841;21085.28;3.728981;-8.085711;16863.83;9560.349;0.4247455;-0.07153188;0;
15864.16;11781.29;5065.517;21850.23;4.1264;-8.345518;17331.77;9298.088;-0.1603874;0.05847468;0;
12781.95;9641.053;5613.243;17040.4;2.850432;-10.74846;13715.03;7492.914;-0.09525885;0.1233833;0;
-13453.21;-11246;4855.168;-13758.11;4.119389;-7.254605;-14321.93;-8847.749;0.3596083;-0.2015774;0;
-29260.54;-23676.6;3963.111;-33706.77;3.914179;-6.309616;-30879.46;-19235.84;0.5541489;-0.4612442;0;
-13870.19;-8852.579;2971.313;-20105.34;5.652534;-2.887207;-15329.32;-6846.319;0.2287554;-0.1359441;0;
-10492.04;-5492.182;1499.065;-17128.97;5.244713;0.5986843;-12157.76;-2414.524;0.2934929;0.05909455;0;
-2335.166;-1580.548;884.9297;-7114.189;12.67418;0.1962462;-2914.305;-1007.101;0.4231327;-0.005932171;0;
17438.46;13528.6;1599.431;19429.64;15.47449;2.741339;18606.98;10636.01;0.2927728;-0.07089356;0;
19799.85;15759.66;2260.584;25799.7;6.416608;6.422524;21324;13408.66;0.4873807;-0.200757;0;
15601.79;11911.66;3142.275;21092.56;4.80257;8.760473;16880.47;9568.611;0.2270216;-0.0706206;0;
15960.54;11862.74;4632.898;21935.73;4.931467;11.22992;17435.92;9374.604;0.03189146;-0.07054964;0;
12668.25;9607.447;5177.81;16898.92;2.917756;12.69226;13590.42;7489.237;0.4216635;-0.2004134;0;
-13954.29;-11630.35;4414.707;-14248.7;1.106163;15.82758;-14817.62;-9196.045;0.2913051;-0.00531003;0;
-29923.15;-24281.11;3548.142;-34321.66;-0.3688174;17.95513;-31530.99;-19781.51;-0.163759;-0.07027204;0;
-14290.58;-9240.682;2598.896;-20522.01;-0.5695177;12.57858;-15731.42;-7096.204;-0.1635945;0.05973326;0;
-10914.04;-5827.03;1171.657;-17546.97;-0.09945486;11.36024;-12585.52;-2594.083;-0.09846274;0.3195426;0;
-2933.767;-1955.54;593.3011;-7739.479;-3.180814;13.96116;-3623.432;-1266.923;-0.03339646;0.1243195;0;
17232.64;13447.42;1354.822;19194.25;-3.445061;12.74144;18325.91;10584.28;0.03160444;0.1241946;0;
19939.46;15869.53;2088.529;25929.1;0.4431663;12.92959;21476.65;13499.33;0.2264747;-0.07083223;0;
15563.3;11876.61;3028.238;21052.54;-0.1604915;11.10806;16841.93;9544.517;0.4211492;-0.2006957;0;
15805.47;11710.36;4560.236;21795.57;12.29825;12.36957;17283.02;9216.758;0.09588929;-0.1355267;0;
12459.4;9390.866;5157.445;16548.84;17.57718;12.22318;13351.61;7279.513;-0.2290438;-0.2003579;0;
-14330.24;-12008.93;4457.862;-14802.38;5.435729;0.7570589;-15216.42;-9569.852;-0.0339116;0.05971278;0;
-30172.99;-24479.16;3634.201;-34625.8;6.770414;-3.463505;-31766.29;-19972.69;0.4208939;0.5144242;0;
-14786.47;-9684.461;2674.592;-20986.5;-0.00154316;-4.397786;-16242.72;-7367.899;0.420471;0.4489399;0;
-12235.7;-7032.198;1237.532;-18815.46;-3.752586;-8.814118;-13898.13;-3554.55;0.03024441;0.05868479;0;
-3978.349;-2745.362;678.881;-9016.6;9.647771;-4.049595;-4635.319;-1948.315;-0.164688;0.1885605;0;
17054.17;13360.08;1449.749;18706.34;9.70445;-3.576646;18142.72;10505.27;-0.2294899;0.3183057;0;
19899.14;15789.51;2170.522;25895.17;18.13479;-12.74947;21434.64;13413.77;-0.09932459;-0.006850821;0;
15529.93;11854.08;3059.206;21035.18;23.40786;-13.87537;16809.68;9519.053;0.2905793;0.05812341;0;
15953.92;11863.52;4528.892;21905.7;8.648579;-14.12936;17423.08;9367.949;0.03041792;0.252967;0;
12747.04;9637.339;5073.909;17083.18;8.237747;-14.85191;13709.89;7536.515;-0.09954733;-0.007156522;0;
-14328.58;-12064.89;4295.2;-14478.22;9.100125;-10.81814;-15122.48;-9601.729;0.2903568;-0.331986;0;
-30269.74;-24629.5;3418.01;-34673.22;9.225679;-10.6733;-31866.41;-20140.64;0.09516297;-0.2666851;0;
-14417.26;-9457.44;2472.612;-20626.03;10.28814;-3.428601;-15872.68;-7211.42;-0.2947367;-0.2664171;0;
-12116.7;-6977.648;1037.909;-18616.62;10.07673;-0.2770192;-13773;-3486.184;-0.1645059;-0.07124743;0;
-4303.011;-2959.606;465.6849;-9295.26;21.45346;-6.305083;-5040.195;-2058.053;0.2254635;0.1237262;0;
17055.56;13412.92;1242.639;18740.38;23.44066;-5.963833;18089.43;10582.32;0.2902043;0.1885692;0;
20030.89;15907.2;1968.025;26037.06;30.18226;-8.235199;21576.92;13515.25;0.2249453;0.2533471;0;
15511.35;11840.64;2881.618;21026.03;32.76487;-9.298651;16792.8;9515.004;0.09478462;-0.2666462;0;
15871.41;11774.01;4378.313;21845.97;26.97118;-7.815683;17343.39;9271.015;0.2246241;-0.396313;0;
12510.53;9423.585;4921.951;16677.62;27.0778;-7.405932;13438.11;7339.399;0.4842677;0.05885663;0;
-14363.62;-12048.99;4151.078;-14747.74;12.98442;-10.01076;-15219.56;-9549.146;0.4188138;0.1887322;0;
-30177.48;-24553.51;3271.378;-34587.54;9.957261;-11.40735;-31773.23;-20032.51;0.1585236;-0.006359491;0;
-14353.23;-9390.557;2296.142;-20569.81;2.446144;-0.6788597;-15801.7;-7159.468;-0.101505;-0.1362878;0;
-11275.55;-6204.671;840.3464;-17861.25;-1.173636;2.402976;-12941;-2859.041;-0.2313377;0.05875118;0;
-3243.335;-2175.021;240.7093;-8133.726;17.71649;-3.560797;-3932.392;-1420.297;-0.2960726;-0.006275192;0;
17190.09;13398.95;967.3833;19020.47;25.80301;-3.959117;18270.24;10550.57;-0.1008731;-0.006268886;0;
19845.51;15761.8;1664.966;25851.45;25.1075;-2.61548;21387.61;13376.76;0.224065;0.1236721;0;
15548.81;11869.45;2587.204;21041.22;30.17248;-3.48363;16826.87;9536.132;0.2888072;0.05858049;0;
15851.35;11748.71;4082.664;21838.47;51.77777;-5.221625;17326.98;9248.659;-0.1662544;-0.006445716;0;
12493.53;9408.081;4616.76;16662.83;56.68224;-5.48431;13405.97;7307.009;-0.4909241;-0.2013413;0;
-14459.12;-12222.91;3843.507;-14826.42;78.9295;-12.44484;-15343.09;-9770.456;0.02930793;-0.3310736;0;
-30781.74;-25096.45;2949.53;-35156.7;92.44785;-14.03993;-32384.41;-20548.04;0.2241805;-0.2008063;0;
-15151.12;-9971.088;1971.057;-21327.25;45.40102;-13.02108;-16586.08;-7548.828;-0.03591412;0.05926485;0;
-12014.03;-6774.92;529.0501;-18578.03;36.91531;-13.87877;-13654.91;-3284.71;-0.1658127;0.18914;0;
-3997.029;-2700.189;-61.96593;-9049.348;36.7445;-4.621363;-4663.417;-1955.514;-0.4904828;0.1889499;0;
16882.99;13231.08;691.5926;18513.89;23.84685;-1.334678;17965.41;10373.08;-0.3600553;0.1887601;0;
19878.92;15752.51;1414.253;25860.17;47.40088;-0.9314392;21418.07;13377.77;-0.0348568;0.3834724;0;
15358.27;11684.3;2314.41;20880.71;49.09457;1.480821;16636.19;9348.05;0.03014557;0.2531525;0;
15590.53;11488.68;3794.402;21562.75;35.64865;2.752009;17064.63;8980.915;0.2899846;-0.2018733;0;
12214.41;9149.104;4349.808;16199.54;37.82364;3.887893;13104.49;7086.495;0.6145299;-0.1367031;0;
-14969.24;-12640.22;3595.189;-15535.35;25.2597;1.405679;-15881.11;-10092.15;0.3540431;-0.07159844;0;
-30935.07;-25299.27;2720.858;-35330.92;21.68434;-0.1362802;-32539.82;-20736.79;0.02885067;-0.0715265;0;
-14785.34;-9766.257;1757.607;-20978.48;35.26021;-0.06916035;-16219.28;-7450.783;0.288691;-0.136422;0;
-11649.14;-6528.519;315.2528;-18233.1;34.62157;-1.341767;-13297.86;-3122.39;0.3533683;-0.006350209;0;
-3647.579;-2509.32;-290.9781;-8601.702;47.7823;-6.832897;-4320.586;-1770.524;-0.0367908;0.1885582;0;
17003.22;13251.86;429.5147;18741.94;53.62878;-9.438304;18083.84;10402.29;-0.1017212;-0.07150064;0;
19776.64;15677.65;1140.226;25784.65;37.63369;-8.892958;21318.36;13295.08;0.2881851;-0.1363961;0;
15394.62;11715.11;2060.96;20897.07;37.26011;-10.08965;16677.7;9378.047;0.3528629;0.1885776;0;
15744.06;11635.95;3566.663;21718.62;33.20418;-11.21823;17218.49;9142.098;-0.03729575;0.4482575;0;
12477.09;9402.298;4134.354;16683.55;31.09471;-12.27862;13399.4;7287.37;0.09267641;0.2529051;0;
-14651.02;-12359.31;3379.796;-14948.38;31.73305;-8.917256;-15487.1;-9905.954;0.2874853;-0.007218412;0;
-30563.46;-24873.97;2522.017;-34971.26;30.02623;-7.903553;-32143.13;-20379.84;0.1572618;0.05775618;0;
-14785.96;-9727.686;1574.677;-20973.82;36.89591;-10.17297;-16230.69;-7400.564;0.2870384;0.1226655;0;
-12801.66;-7526.81;121.8238;-19266.05;36.4567;-9.76085;-14435.96;-3923.216;0.28675;0.3824116;0;
-4977.565;-3405.955;-478.4657;-10115.02;47.27105;-9.617077;-5664.793;-2485.604;0.4163966;0.1871253;0;
16781.89;13245.52;280.0403;18237.84;51.17567;-8.937645;17832.53;10402.62;0.4809455;-0.07293206;0;
19999.76;15837.39;1014.608;25987.03;40.74178;-9.799381;21546.67;13451.54;0.2855602;0.3819126;0;
15533.25;11864.24;1928.754;21056.68;41.30405;-9.320716;16820.06;9534.888;0.3502406;0.1866269;0;
15869.43;11771.96;3411.757;21822.72;31.34858;-5.560367;17336.67;9270.248;0.1549867;-0.1383974;0;
12531.4;9409.763;3961.113;16712.27;29.03991;-3.210438;13503.98;7318.535;-0.04007107;0.3814804;0;
-14488.25;-12231.01;3201.919;-14811.75;27.26942;-4.011008;-15254.62;-9734.485;-0.1699655;0.3810971;0;
-30438.7;-24800.13;2334.886;-34813.16;24.96484;-3.404131;-32008.6;-20285.58;-0.5595987;-0.2689593;0;
-14632.14;-9647.905;1374.365;-20818.82;38.00058;6.043639;-16068.72;-7413.566;-0.4940691;-0.2037217;0;
-12086.82;-6965.898;-87.46912;-18593.4;40.91013;9.587662;-13715.25;-3542.294;-0.168736;-0.07358228;0;
-4161.433;-2900.892;-714.0662;-9233.54;49.77763;7.166643;-4883.912;-2066.631;-0.2985011;0.05642634;0;
16920.04;13208.79;-3.299384;18510.64;54.81783;9.235912;17953.92;10368.59;-0.2332338;0.3812064;0;
19873.52;15752.59;706.6908;25868.49;56.77248;4.537888;21421.32;13362.28;0.02686989;0.120954;0;
15504.39;11831.72;1621.146;21019.23;61.47086;2.72485;16789;9498.246;0.09181023;-0.009102271;0;
15675.22;11563.54;3087.123;21659.66;46.07012;8.616488;17147.63;9053.92;0.09171797;-0.009093124;0;
12154.4;9089.473;3632.401;16173.76;41.20106;8.071966;13090.89;7012.938;-0.2332109;-0.3988881;0;
-15001.46;-12680.99;2893.809;-15512.52;46.92043;7.862907;-15815.2;-10154.45;-0.03807453;-0.1386179;0;
-30884.27;-25222.03;2030.552;-35291.94;42.65373;7.721041;-32452.26;-20688.65;0.3517678;0.1863581;0;
-14654.87;-9631.541;1077.708;-20871.47;46.16084;3.091582;-16090.35;-7351.042;0.09154495;0.1861709;0;
-11994.72;-6806.623;-381.4229;-18522.08;47.31991;1.614851;-13643.82;-3328.251;0.2213876;0.2509512;0;
-4352.489;-3015.935;-1015.346;-9471.288;25.63773;-2.003728;-5100.183;-2159.509;0.1561979;0.05579697;0;
16812.29;13142.12;-246.0555;18318.16;18.17625;-4.747954;17835.34;10304.01;-0.2337631;-0.07419378;0;
19912.77;15783.01;528.1465;25907.86;35.43934;-2.59979;21463.68;13392.88;-0.1685609;-0.00915189;0;
15390.21;11721.05;1414.451;20911.28;37.14505;-3.668905;16675.12;9383.318;0.09147782;-0.07411004;0;
15602.62;11484.98;2851.744;21585.4;28.86967;-2.995389;17080.13;8985.664;-0.1035161;0.05589911;0;
12235.21;9187.305;3417.812;16324.76;29.71132;-2.188584;13126.82;7082.868;-0.2983141;-0.2040264;0;
-15217.08;-12876.97;2701.517;-15651.3;26.86843;-6.339266;-16093.37;-10419.24;-0.1031124;-0.07388673;0;
-31513.48;-25798.62;1865.409;-35888.07;24.76435;-6.734794;-33064.21;-21240.78;-0.03804141;0.4459262;0;
-15184.52;-10034.84;920.4149;-21377;35.32301;-5.388368;-16592.16;-7703.414;-0.2329052;-0.009293216;0;
-12336.63;-7082.034;-530.9059;-18844.28;36.22553;-5.717868;-13964.48;-3606.198;-0.4275732;-0.4640552;0;
-4626.52;-3221.215;-1135.631;-9799.933;35.1174;-0.8894736;-5316.089;-2351.563;-0.3621762;-0.463589;0;
16586.16;12973.91;-414.4141;18046.05;36.35394;1.120847;17645.56;10130.17;-0.1669103;-0.1382865;0;
19674.13;15530.2;298.4567;25653.5;24.1946;-3.033099;21218.49;13132.33;0.09312677;0.1217219;0;
15263.74;11595.5;1234.78;20788.74;20.82041;-3.364966;16546.59;9268.855;0.4828373;-0.2682045;0;
15418.74;11301.25;2724.384;21402.08;19.86246;-1.017243;16903.58;8778.347;0.09254804;-0.2029677;0;
11711.84;8685.115;3299.262;15474.74;17.09583;-1.150187;12552.17;6618.826;-0.4272837;-0.07282904;0;
-15857.51;-13493.06;2619.349;-16652.04;16.07428;-1.483946;-16805.69;-11024.15;-0.361887;0.1871135;0;
-32093.47;-26356.69;1800.753;-36494.4;13.24509;-1.683404;-33669.65;-21748.56;-0.101654;0.5117622;0;
-15924.88;-10734.34;851.4819;-22108.12;22.20676;-3.758122;-17329.75;-8025.208;0.4181869;-0.07345809;0;
-13038.33;-7715.395;-583.9338;-19583.44;23.72469;-4.424114;-14659.93;-3954.405;0.2228646;-0.593123;0;
-5014.455;-3471.709;-1210.219;-10318.33;21.08888;-5.625361;-5771.789;-2620.178;-0.03722866;-0.4625923;0;
16342.35;12782.02;-527.8771;17670.91;22.809;-6.222556;17334.87;9948.092;0.09274343;-0.007356153;0;
19542.11;15374.36;181.1722;25534.36;13.8111;-5.948371;21092.85;12980.79;-0.03728444;0.05761858;0;
15151.13;11494.83;1106.775;20675.4;11.72014;-6.009377;16438.69;9152.347;0.5474591;-0.007406657;0;
15370.41;11232.01;2592.884;21336.44;15.72783;-3.993912;16851.8;8725.454;0.546909;0.05756813;0;
11547.28;8609.852;3172.299;15350.61;16.51533;-3.052138;12336.39;6537.595;-0.0383466;0.382347;0;
-16618.99;-14080.77;2466.308;-17322.28;14.28891;-3.584935;-17609.35;-11552.07;0.02665927;0.6418322;0;
-32609.56;-26865.25;1667.792;-36963.82;14.81042;-3.782281;-34153.74;-22236.57;-0.3631716;0.05648118;0;
-15508.27;-10385.87;781.6862;-21731.46;20.69003;0.7762976;-16911.24;-7908.482;-0.3628066;-0.2034449;0;
-12613.83;-7296.001;-651.0357;-19144.17;21.67362;2.316064;-14236.63;-3726.931;0.09232929;0.3164982;0;
-4943.914;-3372.857;-1279.222;-10166.79;31.69855;-2.709861;-5628.349;-2511.701;-0.4924695;0.1212782;0;
16382.95;12853.33;-569.1989;17737.25;35.75352;-3.109036;17429.86;10012.51;-0.556942;-0.008778369;0;
19597.8;15427.46;141.0164;25578.29;29.28723;-2.83798;21147.16;13028.74;0.2232257;0.05619779;0;
15285.87;11615.8;1066.847;20802.67;29.86004;-2.433231;16570.18;9281.295;0.158034;0.1211087;0;
15455.92;11339.47;2545.375;21431.78;25.81155;-4.038376;16939.42;8829.035;-0.2319288;-0.07391505;0;
11876.32;8805.201;3109.657;15734.15;24.8476;-3.565438;12719.24;6703.275;-0.03679376;-0.2687428;0;
-15856.65;-13554.32;2408.54;-16532.02;18.39228;-0.01182106;-16778.19;-11134.83;0.2880799;0.05636394;0;
-32181.28;-26427.92;1576.537;-36557.05;14.08689;1.327788;-33732.25;-21839.05;0.2228231;-0.1385947;0;
-16031.42;-10845.39;620.8072;-22193.05;23.04869;11.77555;-17428.13;-8242.6;0.2875666;-0.3333575;0;
-14122.02;-8728.287;-842.2065;-20553.98;21.75273;17.92602;-15732.13;-4953.638;-0.1674938;-0.07315316;0;
-6265.596;-4466.92;-1440.34;-11654.28;28.16124;10.33906;-7063.408;-3432.126;-0.6220969;-0.138047;0;
16187.15;12745.17;-658.3168;17271.87;31.4145;11.13247;17123.02;9957.609;-0.1667004;0.1869284;0;
19750.78;15543.12;121.3281;25728.74;18.92532;19.2261;21311.23;13122.59;0.02836913;0.2517079;0;
15508.75;11846.37;1088.751;21029.64;18.63789;19.87661;16798.65;9511.163;-0.1015941;-0.07338168;0;
15922.86;11809.64;2594.493;21864.84;13.93011;24.67928;17397.34;9305.548;0.02844271;-0.1382753;0;
12365.89;9258.639;3149.887;16475.9;12.30852;26.52988;13253.61;7131.489;0.2233161;0.05676567;0;
-15398.24;-13127.78;2411.998;-15841.92;17.65479;18.39854;-16298.27;-10670.14;0.2230918;0.316578;0;
-31611;-25953.62;1586.55;-36032.39;18.30761;16.70548;-33184.24;-21489.02;0.09293292;0.05639053;0;
-14742.14;-9765.896;671.5403;-21026.99;27.73271;10.19147;-16163.3;-7611.674;0.1578069;-0.3984375;0;
-12312.38;-7053.207;-780.3425;-18801.5;31.32217;4.956743;-13947.25;-3585.874;0.287583;-0.3980372;0;
-5215.792;-3488.705;-1399.059;-10424.97;38.39064;9.908316;-5982.409;-2555.458;0.02742467;-0.007833171;0;
16479.47;12993.42;-645.1882;17771.68;44.11284;7.621062;17461.49;10143.56;0.1573318;0.2520441;0;
20036.71;15839.29;117.8269;26007.55;34.62405;5.603978;21589.69;13434.47;0.222141;-0.008078555;0;
15782.2;12121.03;1091.906;21291.65;33.38381;5.464381;17067.4;9775.787;0.09198315;-0.1380051;0;
16036.9;11913.92;2601.893;22000.53;41.99045;-1.105315;17510.62;9405.067;0.02692339;-0.1378665;0;
12330.64;9253.608;3153.094;16427.64;44.49385;-1.707051;13198.44;7135.269;-0.2979404;-0.07276058;0;
-14961.63;-12618.54;2424.884;-15463.27;32.12429;-3.848728;-15885.39;-10151.28;-0.1677063;-0.07268747;0;
-30838.93;-25217.32;1585.587;-35281.54;30.3507;-4.98351;-32413.62;-20714.62;-0.1025705;-0.1375818;0;
-14310.45;-9338.687;639.7499;-20591.33;33.40166;2.45642;-15741.82;-7267.604;-0.2973694;-0.007508851;0;
-11236.95;-6092.758;-792.4547;-17822.32;30.75515;3.391652;-12881.57;-2843.068;0.3526028;0.05746604;0;
-3881.696;-2612.742;-1390.482;-9053.905;45.99587;12.43076;-4555.304;-1832.749;0.4821832;-0.07252639;0;
16618.29;12915.95;-655.5477;18071.05;49.16484;17.37488;17694.11;10042.13;-0.1679747;0.05748117;0;
19723.53;15593.34;102.1368;25697.14;44.56108;10.19037;21265.87;13200.93;0.09206341;0.3172928;0;
15625.54;11940.64;1075.92;21130.71;45.99018;12.2566;16907.52;9594.78;0.2219056;0.1870393;0;
15847.5;11723.14;2570.243;21820.32;38.37453;7.287672;17330.8;9209.25;-0.1031541;-0.07301803;0;
12041.09;8987.197;3112.949;15966.52;36.9968;5.672759;12842.58;6884.582;0.02688424;-0.007977316;0;
-15766.91;-13402.94;2393.212;-16397.76;30.59563;13.90584;-16757.79;-10898.1;0.3516939;-0.007969301;0;
-31716.34;-26035.01;1589.023;-36115.32;27.35069;15.16442;-33270;-21555.81;0.4812752;-0.07292864;0;
-14318.36;-9308.79;688.8783;-20616.48;30.47104;17.8285;-15722.96;-7401.563;0.2209223;-0.1378227;0;
-10921.48;-5725.108;-744.4376;-17525.37;28.90018;19.88693;-12563.52;-2691.833;0.09076561;-0.3325862;0;
-3973.449;-2582.573;-1378.87;-9024.443;39.98957;20.87169;-4620.975;-1900.088;-0.03926027;0.1874867;0;
16601.11;12957.32;-662.4067;18139.22;45.03961;21.92245;17690.46;10085.86;-0.3640575;0.5771024;0;
19844.28;15691.95;85.97679;25819.11;39.90414;22.30232;21386.86;13298.73;-0.2987244;0.1217511;0;
15660.58;11986.15;1068.147;21158.55;43.21294;21.945;16946.61;9640.841;-0.1035222;-0.203208;0;
15983.83;11858.62;2586.685;21954.88;39.08369;20.44932;17468.86;9346.813;0.09148385;-0.1380364;0;
12076.9;9035.816;3128.78;16087.33;35.56179;19.55799;12919.74;6938.829;0.286294;-0.2028651;0;
-15337.51;-12934.29;2397.409;-15914.85;53.40965;12.77331;-16292.54;-10425.15;0.2210389;0.1221755;0;
-30792.97;-25168.38;1570.571;-35250.27;53.95919;9.411329;-32370.98;-20656.19;-0.1040199;0.2519874;0;
-14130.77;-9174.168;629.1524;-20454.1;38.96815;12.28214;-15554.21;-7130.391;0.09098667;0.1217995;0;
-10836.28;-5736.626;-808.2263;-17471.3;29.41717;11.93488;-12474.32;-2594.346;0.1558626;0.2516118;0;
-3329.661;-2200.621;-1415.484;-8396.674;36.15277;7.703088;-3971.834;-1537.457;-0.1041634;0.1863917;0;
16696.21;12935.39;-702.419;18289.71;34.97834;7.159485;17794.86;10051.19;0.2857453;0.3811064;0;
19604.92;15493.26;23.79711;25576.79;-12.61396;9.228762;21144.54;13111.92;-0.1043458;0.1858214;0;
15550.47;11859.24;981.4168;21059.33;-26.13159;9.085523;16836.29;9506.798;-0.8838491;-0.009267326;0;
15793.06;11668.06;2463.966;21769.9;-30.65969;16.04238;17280;9163.476;-0.1033529;0.2506114;0;
11985.03;8941.212;2982.291;15790.66;-43.28853;18.57161;12787.07;6828.688;0.286555;0.05545751;0;
-15852.59;-13468.96;2240.666;-16564.61;-12.367;16.54346;-16830.72;-10975.18;-0.103537;0.1203691;0;
-31502.13;-25822.71;1420.513;-35862.98;-6.392726;18.20141;-33040.91;-21354.31;-0.5582044;0.1852155;0;
-14185.13;-9183.838;506.8255;-20440.86;-8.931898;14.36509;-15589.41;-7322.157;-0.6875781;-0.269742;0;
-11272.66;-6055.38;-936.8959;-17860.1;-1.488184;13.74793;-12899.66;-3031.547;0.0277535;-0.3344383;0;
-4195.279;-2782.829;-1564.482;-9237.786;-1.620411;13.06429;-4795.683;-2078.166;0.3525623;-0.009265522;0;
16593.11;12964.57;-838.337;18140.29;3.739852;11.04168;17711.92;10092.56;-0.1675307;0.1206785;0;
19778.82;15623.92;-112.3279;25750.54;0.6546355;16.45608;21318.08;13229.66;-0.297297;-0.009377471;0;
15617.02;11937.66;829.6241;21110.57;1.994124;16.64049;16902.48;9585.239;-0.4919003;0.05559929;0;
15948.09;11834.93;2325.569;21919.05;2.193192;16.22187;17437.36;9327.249;-0.101602;0.2504455;0;
12204.69;9113.787;2859.432;16164.91;0.1139069;17.61221;12998.47;6988.532;0.5481735;0.1202591;0;
-15215.87;-12877.73;2113.526;-15852.89;10.83106;9.62367;-16249.34;-10401.69;0.02788397;-0.1397311;0;
-30757.59;-25169.7;1295.156;-35202.21;11.35604;7.872566;-32337.4;-20730.88;-0.2320134;0.05531134;0;
-13604.38;-8711.618;394.2446;-19938.29;11.81315;9.539106;-15020.7;-7022.95;0.3529258;0.1851905;0;
-10056.32;-5014.047;-1018.754;-16695.36;13.54356;7.453173;-11702.29;-2256.738;0.5474732;-0.1398323;0;
-2927.169;-1896.855;-1636.576;-7841.477;-0.06770168;14.41166;-3491.744;-1345.334;0.02718435;-0.009757151;0;
16922.08;13102.61;-932.8465;18612.48;-3.350163;15.53589;18071.91;10209.96;-0.167745;0.1851547;0;
19893.98;15798.22;-195.5606;25864.25;-5.221831;12.30522;21423.57;13421.04;0.1572603;-0.3347701;0;
15944.46;12247.09;771.8373;21422.05;-8.499114;12.82872;17229.12;9884.945;0.4169716;-0.3344337;0;
16254.98;12144.91;2280.022;22211.82;-4.9406;8.796979;17734.87;9647.143;0.1566833;-0.2691303;0;
12508.52;9413.697;2819.49;16667.02;-5.806293;8.386242;13403.04;7279.697;0.0915585;-0.2688599;0;
-14895;-12562.53;2078.653;-15280.8;2.371216;4.492867;-15781.26;-10097.62;0.4812706;-0.2036224;0;
-30313.13;-24758.4;1276.498;-34795.66;6.92416;2.010045;-31897.79;-20313.3;0.2209176;-0.07348314;0;
-12876.42;-8175.671;382.6324;-19294.84;-0.5175365;10.51461;-14309.74;-6685.373;0.1557283;0.3813621;0;
-9767.07;-4738.524;-1054.998;-16413.64;0.8221541;12.04466;-11428.82;-2079.311;0.2855065;-0.008825155;0;
-3450.973;-2167.521;-1699.083;-8435.654;5.309307;10.75988;-4142.428;-1415.242;-0.1695518;-0.333653;0;
16673.15;12960.83;-970.9907;18281.41;6.710491;12.35666;17745.94;10122.63;-0.1693814;0.186421;0;
19947.05;15825.08;-215.3318;25917.48;11.45917;12.74614;21490.39;13405.54;0.2855602;-0.3335051;0;
15791.06;12104.69;738.0304;21283.52;13.99325;14.67571;17072.33;9771.732;0.02540388;-0.6580067;0;
16211.7;12093.54;2266.458;22169.5;11.63467;12.04875;17689.97;9578.318;-0.6242951;0.2521973;0;
12659.68;9559.436;2838.61;16827.51;10.95339;11.8357;13531.27;7413.497;-0.103929;0.5767806;0;
-14505.61;-12230.85;2104.969;-14917.71;15.43036;17.31629;-15443.84;-9817.062;0.6757835;0.1214297;0;
-30374.71;-24745.35;1282.173;-34780.09;14.67792;17.96872;-31953.3;-20310.21;0.3502677;-0.008627046;0;
-13951.45;-8900.474;356.5679;-20219.21;12.92186;20.49589;-15374.79;-7088.114;0.1550138;0.1862837;0;
-10380.33;-5280.923;-1063.421;-17015.62;12.1046;20.81021;-12036.06;-2390.756;0.08989067;-0.0737729;0;
-3040.189;-2020.394;-1674.169;-7970.297;0.4381358;20.18645;-3626.578;-1424.495;-0.4299384;-0.07369877;0;
16784.45;12997.87;-971.9956;18500.72;-4.385076;19.69729;17939.29;10102.96;-0.2346043;0.3161793;0;
19745.7;15645.8;-234.6078;25710.5;-3.308943;15.18976;21275.75;13267.91;0.3503374;0.1209596;0;
15784.88;12085.66;731.9859;21271.34;-5.31535;14.10277;17067.84;9723.058;0.1550834;-0.07406396;0;
16171.31;12072.44;2247.238;22131.99;-9.395845;3.840519;17652.59;9578.185;-0.2348765;0.2508472;0;
12665.67;9523.971;2805.979;16860.56;-11.52986;-1.186938;13518.45;7365.886;-0.1047058;-0.2691436;0;
-14315.49;-12043.5;2069.904;-14677.33;-3.681392;6.249177;-15271.06;-9627.04;0.09030145;-0.6586772;0;
-29873.79;-24342.88;1246.174;-34295.98;-1.601588;5.506086;-31472.3;-19926.61;-0.1046913;-0.07330931;0;
-12775.85;-8039.336;333.6927;-19153.21;-1.666352;5.567536;-14211.8;-6668.316;0.1552833;0.05669903;0;
-8902.22;-3979.935;-1094.362;-15639.86;0.7462201;6.164788;-10612.22;-1644.326;0.2850619;0.05664206;0;
-2312.349;-1341.245;-1743.28;-7089.765;-0.8621201;6.694458;-2993.799;-859.2548;0.1548408;0.3814219;0;
16888.29;13060.83;-1063.931;18793.3;-0.1916685;8.02739;18000.55;10199.83;0.2196525;0.1861366;0;
19910.47;15827.56;-342.2557;25880.74;0.6128073;4.536272;21451.69;13431.94;-0.1703722;0.05601486;0;
15955.85;12250.43;606.7051;21420.2;0.6785644;3.727919;17239.32;9907.081;-0.365103;-0.07397611;0;
16572.45;12469.38;2133.39;22506.93;3.424549;4.795839;18049.02;9968.465;-0.1698342;-0.3987385;0;
13131.03;9994.263;2683.5;17586.18;5.43084;3.317456;14079.51;7855.162;-0.03972882;-0.07350112;0;
-14353.07;-12097.04;1897.167;-14329.92;0.8036826;8.337782;-15179.49;-9646.109;0.09024578;0.05650742;0;
-29911.95;-24375.61;1051.497;-34318.09;0.8692479;10.40575;-31495.68;-19975.52;-0.1697143;-0.008516702;0;
-13061.47;-8298.018;121.1263;-19383.94;4.217277;0.4820673;-14501.22;-6720.676;0.02535829;0.2513613;0;
-10182.41;-5150.898;-1336.856;-16734.52;4.012945;-0.3891342;-11841.35;-2384.787;0.1552675;0.3810433;0;
-3331.774;-2197.86;-1964.791;-8290.256;11.97952;0.7499056;-3959.144;-1524.29;-0.2996599;0.3806605;0;
16800.19;13026.95;-1248.332;18426.6;14.11093;-0.2555918;17931.04;10155.64;-0.2993588;0.3153107;0;
19933.24;15834.46;-517.9127;25901.45;12.08702;7.514563;21468.67;13440.18;-0.4289927;0.05512444;0;
16041.22;12335.28;443.531;21526.79;13.1466;9.583362;17323.31;9988.921;-0.6234637;-0.2697677;0;
16647.17;12559.56;1982.437;22570.13;9.181278;11.11434;18122.62;10066.64;-0.1030985;-0.3344639;0;
13446.21;10217.11;2544.817;17995.21;9.506845;13.17964;14398.6;8017.469;0.2868092;-0.0742585;0;
-13409.81;-11332.98;1774.459;-13318.46;0.3212416;12.56355;-14244.43;-9007.393;0.3514883;0.1207182;0;
-29302.71;-23788.92;910.5152;-33729.82;-4.033338;13.68952;-30912.75;-19424.59;-0.1036362;-0.07430518;0;
-13263.33;-8516.183;-46.54408;-19606.62;8.362924;9.121044;-14710.8;-6753.443;-0.2984341;-0.4640346;0;
-10581.47;-5534.807;-1510.293;-17157.19;8.823035;7.102514;-12252.4;-2539.49;0.02670243;-0.4635683;0;
-3627.689;-2275.834;-2148.454;-8625.044;9.953245;10.10949;-4305.673;-1576.89;-0.1032591;-0.2682005;0;
16714.84;13050.5;-1427.594;18315.58;11.28241;9.563465;17806.71;10153.86;-0.3630247;-0.1379963;0;
20037.26;15900.6;-674.9743;25995.17;6.448307;6.740695;21575.74;13525.01;-0.1677579;-0.007922969;0;
16057.26;12366.16;292.9365;21538.53;5.303728;6.198058;17342.07;10006.69;0.1572474;-0.07288235;0;
16659.56;12569.02;1839.74;22566.73;1.949496;5.321053;18126.01;10077.61;0.09212203;-0.2027438;0;
13353.38;10139.9;2399.171;17925.96;-0.06219465;4.712859;14330.06;7966.949;-0.2977746;-0.1375727;0;
-13853.59;-11682.54;1604.815;-13727.03;-5.353418;6.44968;-14643.52;-9302.614;-0.5573447;-0.2024018;0;
-29475.53;-24006.57;758.3146;-33869.45;-8.76429;6.376216;-31060.47;-19623.59;-0.5567847;-0.3321331;0;
-12552.88;-7895.553;-157.2688;-18947.54;-6.076167;7.30757;-14012.99;-6483.498;-0.2313886;-0.2668321;0;
-8913.438;-4127.666;-1601.479;-15614.93;-6.806995;6.563416;-10606.64;-1681.8;0.2236153;-0.1366293;0;
-1960.659;-1246.511;-2230.896;-6687.924;-7.469741;9.302999;-2570.549;-744.1742;0.09345596;-0.2014593;0;
17211.71;13259.14;-1535.815;19209.94;-7.529584;9.762532;18384.74;10379.97;0.09336206;-0.1362896;0;
19933.88;15884.79;-816.5076;25895.33;-5.311216;2.116851;21463.21;13509.29;0.1582356;-0.20112;0;
15984.06;12271.95;144.0179;21447;-4.034058;0.239263;17265.22;9913.139;-0.4915968;-0.1359506;0;
16356.08;12262.29;1657.581;22308.15;-6.307179;-5.320439;17834.43;9779.864;-0.2962008;0.1240554;0;
13059.52;9886.073;2210.73;17509.24;-6.836706;-9.400929;13987.52;7702.874;0.4187375;-0.07097125;0;
-13786.46;-11537.1;1465.258;-13820.72;-3.212514;-3.162193;-14634.93;-9172.247;0.3533494;-0.2008346;0;
-29240.35;-23822.85;620.303;-33709.3;-2.673422;-2.489247;-30814.78;-19401.32;-0.2317117;0.1242039;0;
-11967.96;-7474.138;-317.5991;-18477.52;-6.489129;-7.510344;-13403.08;-6341.913;-1.011087;0.1890464;0;
-8091.709;-3304.157;-1771.518;-14896.79;-7.419638;-6.899951;-9800.619;-1318.641;-0.620267;0.1238891;0;
-1710.985;-925.9063;-2413.196;-6339.617;-6.073012;-6.759052;-2349.418;-505.9579;-0.09990497;-0.1361047;0;
17224.36;13305.79;-1704.813;19306.16;-4.927834;-6.752261;18383.4;10473.13;-0.4246413;-0.4608046;0;
20135.27;16092.59;-993.0508;26080.1;-8.406483;3.435686;21669.05;13691.57;-0.4242146;-0.0705376;0;
16107.67;12385.39;-58.1786;21566.88;-6.522026;7.451149;17388.46;10046.28;-0.03398431;0.1244353;0;
16559.36;12478.34;1479.357;22495.3;-6.917614;4.027593;18038;9995.599;-0.03395016;0.05934292;0;
13542.68;10328.16;2045.335;18110.48;-6.241078;5.430127;14477.15;8112.824;-0.09888339;0.189218;0;
-13073.02;-10923.74;1265.421;-12957.11;8.903091;6.56338;-13941.49;-8617.36;-0.03381669;-0.2007762;0;
-28760.59;-23315.58;401.8019;-33185.62;13.71692;6.623768;-30370.06;-18947.33;-0.2286847;-0.5254111;0;
-12364.66;-7752.306;-542.0339;-18756.48;20.66936;8.559496;-13819.68;-6384.63;-0.2934223;0.1897575;0;
-8957.962;-4172.313;-1997.257;-15644.97;26.27467;9.354691;-10649.08;-1790.068;-0.3580948;0.2545342;0;
-1957.85;-1271.716;-2623.06;-6528.62;20.95698;5.326437;-2542.091;-764.2532;-0.4227023;-0.07055826;0;
17375.87;13413.35;-1914.748;19506.67;21.80658;5.254102;18552.81;10533.38;-0.03247355;0.3193167;0;
20098.95;16061.6;-1194.529;26055.97;14.48365;2.502583;21622.68;13687.47;0.4223305;0.3839632;0;
16232.96;12514.02;-222.7226;21686.25;8.775671;0.7585734;17515.7;10160.61;0.09706941;0.123708;0;
16746.4;12669.08;1316.603;22674.16;18.61347;8.661553;18213.19;10188.12;-0.2278648;0.1885511;0;
13531.35;10300.22;1857.944;18207.27;18.86221;9.32268;14524.78;8109.889;0.1621682;0.1233943;0;
-12945.7;-10790.46;1076.844;-12687.59;3.03577;12.32754;-13712.99;-8448.675;0.2269726;0.2532049;0;
-28458.49;-23079.38;209.2602;-32880.15;0.2196809;14.19056;-30063.36;-18641.84;-0.03312486;0.1879832;0;
-11889.79;-7420.647;-743.44;-18327.14;-3.799028;8.014112;-13354.94;-6236.85;0.0968431;-0.07207508;0;
-8143.439;-3428.116;-2185.405;-14865.88;-8.216816;7.202265;-9840.998;-1403.65;0.1617131;-0.2019373;0;
-1438.592;-824.7754;-2804.397;-5971.471;6.393476;2.506284;-2079.49;-397.5879;-0.03335138;-0.07179976;0;
17371.88;13385.21;-2100.338;19558.64;8.664227;-0.979225;18524.78;10545.01;-0.1632525;0.1231744;0;
20158.93;16145.24;-1383.368;26107.03;9.727248;3.643459;21693;13752.61;-0.09812117;0.05808331;0;
16265.15;12535.6;-430.7688;21714.69;13.26842;3.90773;17547.37;10184.63;0.03191211;-0.2668118;0;
16704.75;12642.26;1114.106;22618.86;3.006337;-2.794368;18174.3;10169.65;0.03188004;-0.136609;0;
13796.77;10545.92;1690.384;18514.51;-0.1445159;-3.72926;14788.14;8313.075;0.3566847;0.05843031;0;
-12413.22;-10249.78;922.1024;-12072.16;7.357718;-0.9792736;-13187.87;-7989.681;0.291359;0.123339;0;
-27917.51;-22577.57;76.41293;-32310.06;7.215627;-0.8443238;-29509.95;-18176.95;-0.4235745;0.2531497;0;
-11294.56;-7032.909;-844.3573;-17749.32;0.2431276;4.849891;-12762.44;-6024.223;-0.2932143;-0.07194138;0;
-7527.633;-2956.591;-2281.536;-14270.42;0.3766051;7.457352;-9236.304;-1212.116;0.09688442;-0.3317385;0;
-1061.191;-523.8259;-2897.62;-5475.062;-12.68557;6.177183;-1653.986;-192.1136;-0.09811495;-0.006568424;0;
17503.28;13456.35;-2188.345;19815.2;-18.76741;7.17572;18694.12;10626.91;0.2268203;0.1233729;0;
20145.38;16152.12;-1467.726;26087.89;2.483936;7.369459;21674.24;13758.18;0.09665775;-0.00668579;0;
16250.67;12523.22;-502.9854;21705.29;6.567276;6.558259;17535.18;10186.52;-0.03337406;-0.2665484;0;
16662.75;12598.56;1066.044;22591.87;0.8672506;8.828967;18128.69;10119.14;-0.03334052;-0.4611826;0;
13700.3;10447.52;1697.249;18466.73;3.746767;9.021044;14713.59;8236.181;-0.228209;-0.3957519;0;
-12330.01;-10230.63;959.0699;-11917.19;2.470205;0.7733231;-13072.53;-7917.214;0.1618243;-0.2004522;0;
-27911.88;-22501.44;75.42487;-32286.88;2.802515;-1.973693;-29507.92;-18147.22;0.03172703;-0.07031611;0;
-11687.62;-7209.729;-860.6179;-18104.5;6.349673;-1.368864;-13157.6;-6153.257;0.1616298;0.05968922;0;
-8052.583;-3364.694;-2269.295;-14774.08;5.942127;-2.573181;-9751.446;-1434.396;0.3563694;-0.07030544;0;
-1355.729;-760.6052;-2878.145;-5840.361;8.480776;-3.106459;-1940.538;-387.512;-0.09876002;-0.1352021;0;
17470.73;13458.34;-2170.701;19729.91;8.874396;-2.567474;18663.13;10608.73;-0.1636281;-0.07009894;0;
20127.8;16120.54;-1437.512;26070.62;0.9612488;-2.497911;21649.9;13744.45;-0.03352904;0.1898409;0;
16136.06;12418.39;-470.4592;21576.01;-1.584336;-1.691606;17420.11;10070.78;0.031472;0.5144868;0;
16520.33;12453.69;1084.607;22440.5;-2.185957;2.864811;17991.1;9987.915;-0.228429;0.1241658;0;
13743.82;10500.67;1695.054;18481.27;-3.59028;3.933659;14739.76;8271.596;-0.1632321;-0.460665;0;
-12260.75;-10124.01;943.8834;-11899.07;-7.60516;10.89575;-13026.74;-7872.917;0.421638;-0.07039811;0;
-28216.05;-22810.88;80.2436;-32595.64;-9.740973;13.564;-29812.24;-18393.87;0.2912796;0.3194767;0;
-11888.25;-7402.408;-824.6635;-18306.16;-6.650702;9.799444;-13352.57;-6315.996;0.1610523;-0.005681038;0;
-7847.983;-3152.946;-2232.158;-14574.38;-8.18426;11.12926;-9552.903;-1320.408;0.4857271;-0.2005773;0;
-1283.502;-737.3807;-2853.321;-5754.276;1.335783;0.7359633;-1888.074;-356.2368;0.09543503;-0.2653432;0;
17397.82;13368.66;-2144.465;19643.45;5.486651;-2.814811;18579.04;10557.59;-0.4893669;-0.2001092;0;
20123.9;16129.26;-1423.984;26062.47;-8.517685;0.7380522;21651.89;13734.63;-0.3589405;-0.1349408;0;
16173.6;12452.72;-481.557;21620.61;-9.849273;-1.80798;17457.2;10119.64;0.09619152;-0.4596419;0;
16590.39;12530.41;1058.184;22506.6;-9.704679;4.155196;18058.77;10065.74;0.03112752;-0.3292454;0;
13679.25;10436.99;1652.228;18459.71;-12.44159;5.088721;14676.96;8194.875;0.2909656;-0.1989799;0;
-12005.48;-9873.653;911.3459;-11643.23;-4.65956;2.6053;-12773.55;-7636.546;0.6804773;-0.1987799;0;
-27625.06;-22200.89;59.70155;-32033.26;-3.448453;3.540443;-29213.14;-17837.77;-0.03484721;-0.1336128;0;
-11756.22;-7247.01;-864.269;-18180.77;-7.665523;-3.027319;-13220.8;-6144.608;-0.4246162;-0.2634133;0;
-7614.328;-2973.404;-2271.099;-14376.31;-7.791543;-5.502585;-9307.662;-1137.073;0.1605165;0.06168811;0;
-735.9429;-308.0827;-2885.32;-5087.525;-7.515294;-1.67909;-1263.083;-47.80598;0.03042052;0.1915608;0;
17572.81;13499.47;-2188.363;19967.2;-7.64244;-2.548181;18800.23;10652.83;-0.2294794;0.126401;0;
20191.74;16210.76;-1474.585;26112.21;-8.84021;-2.679586;21706.27;13849.47;0.09558787;0.1912413;0;
16233.61;12508.31;-542.1022;21680.79;-9.299842;-1.873099;17519.84;10168.05;0.3553612;0.3859512;0;
16597.89;12546.4;993.1086;22510.93;-8.620912;-7.966541;18065.95;10085.9;0.1601021;0.320596;0;
13868.94;10592.82;1590.404;18662.76;-7.674244;-9.499084;14894.97;8378.935;0.2898759;-0.06953014;0;
-11855.11;-9796.271;835.6531;-11408.14;-10.27948;-5.202753;-12576.44;-7500.913;0.6144213;-0.004492941;0;
-27586.02;-22188.91;-20.75656;-31955.78;-10.2018;-5.331491;-29185.68;-17785.39;-0.1658041;0.3853156;0;
-11703.89;-7197.688;-937.8997;-18084.03;-4.900263;-0.3695188;-13166.85;-6140.505;-0.3605396;0.4498958;0;
-7791.201;-3105.618;-2359.617;-14521.23;-3.01933;2.912955;-9480.292;-1326.876;0.09459412;0.2545417;0;
-1043.447;-531.2276;-2983.369;-5438.202;0.1315361;-3.654116;-1659.74;-239.5887;0.02953173;-0.005583415;0;
17432.8;13379;-2277.225;19817.74;2.87807;-2.84671;18600.78;10563.61;0.0944694;-0.005577805;0;
20036.59;16053.99;-1566.48;25976.49;1.468659;-3.647584;21563.35;13673.12;0.2243092;0.3842319;0;
16097.72;12383.23;-633.0308;21531.17;1.600905;-6.055243;17378.33;10050.29;0.2890511;0.2539111;0;
16496.03;12434.55;904.3953;22408.55;4.211265;8.619676;17964.44;9973.814;0.0288913;-0.2660828;0;
13749.89;10513.54;1496.969;18576.42;3.269028;11.69223;14743.87;8265.615;-0.03610507;-0.3307827;0;
-11737.06;-9661.135;756.0557;-11259.65;4.806961;4.51343;-12517.75;-7451.356;0.1588332;-0.1355484;0;
-27864.14;-22371.56;-119.3581;-32209.75;4.935853;5.379673;-29475.48;-17960.86;-0.1661631;0.1244572;0;
-12991.42;-8202.962;-1082.66;-19273.62;-5.920098;-4.605946;-14448.02;-6621.773;-0.2959308;0.05936481;0;
-9094.112;-4283.388;-2504.95;-15760.7;-8.92826;-8.888103;-10777.99;-1819.733;0.09417062;-0.1355969;0;
-1522.042;-1022.534;-3109.347;-6098.134;-11.39753;-4.324455;-2138.219;-548.2615;0.1590433;-0.005525934;0;
17350.21;13325.09;-2393.488;19565.61;-14.19912;-6.39652;18508.71;10476.28;0.09391619;-0.1354551;0;
19941.23;15952.69;-1671.132;25878.97;-11.90768;-6.658024;21467.22;13586;0.2237565;0.05958307;0;
15921.93;12205.47;-730.5496;21364.16;-13.23586;-7.388146;17205.74;9873.049;-0.1662724;0.1894579;0;
16313.92;12259.93;813.9397;22237.36;-5.720472;-9.055235;17780.11;9792.258;-0.4259747;-0.2005365;0;
13539.04;10298.93;1408.416;18221.38;-3.236478;-9.916915;14549.67;8097.234;-0.03574261;0.3194037;0;
-12287.97;-10221.28;657.784;-11992.07;-7.787577;-9.505053;-13026.9;-7891.182;0.09422799;0.5789521;0;
-28381.55;-22877.21;-207.2862;-32744.7;-7.712403;-9.294553;-29969.39;-18479.55;-0.165736;-0.006335685;0;
-13054.9;-8270.799;-1160.724;-19379.99;-7.236139;-14.50976;-14510.86;-6741.14;-0.1655695;-0.331166;0;
-9076.696;-4271.26;-2580.968;-15808.92;-6.961425;-16.63857;-10765.36;-1830.253;0.2244009;-0.3958006;0;
-1589.445;-997.5801;-3162.956;-6239.653;-11.9773;-10.12469;-2210.869;-630.3914;0.3541101;-0.1355335;0;
17313.89;13334.64;-2429.051;19447.91;-12.50112;-8.105094;18477.27;10456;-0.03604977;0.1894394;0;
19947.14;15942.28;-1690.668;25887.34;-14.96681;-13.4554;21475.34;13596.16;0.09392114;0.189249;0;
