Fp1;Fp2;O1;O2;POLY3;POLY4;A1;A2;Video;Audio;event;
9103.202;5601.875;-356.8064;12564.68;-4.207412;26.34579;10109.78;4454.948;0.01520236;-0.2907938;0;13:16:07 Глаза закрыты;
6469.265;3795.198;-127.7191;9525.824;0.01637387;26.7882;7281.916;2959.268;-0.1797149;0.03433507;0;
9249.316;6274.246;-150.8759;12434.94;3.097816;28.10081;10149.37;5440.905;-0.114567;0.03430057;0;
7850.971;5178.739;8.86735;10567.93;-7.622566;21.97738;8501.154;3886.217;0.1454175;-0.09566858;0;
-14770.75;-11332.92;312.5808;-15943.78;-9.423568;20.41469;-15560.59;-9435.447;0.2102387;-0.03060511;0;
-32657.15;-23416.12;85.09962;-37433.46;0.4325144;17.98279;-34301.53;-17862.6;-0.3746786;-0.2254764;0;
-27224.03;-18400.51;-167.4059;-32276.75;2.240741;14.88363;-28661.07;-14234.56;-0.1794001;-0.2902172;0;
-35694.53;-26388.5;-161.4749;-40545.57;2.640631;18.55261;-37099.17;-19728.8;0.4704535;-0.3548929;0;
-28959.25;-21963.69;-408.7039;-33620.8;5.048875;19.13681;-30100.53;-16663.6;0.2750788;0.03526776;0;
1602.218;1156.689;-587.4376;1238.129;4.173146;11.14686;1730.446;446.5027;0.2098351;-0.02973502;0;
9485.301;5970.965;-379.5922;12964.38;5.441751;9.929968;10496.42;4822.885;0.1446569;-0.3545418;0;
6787.825;4088.097;-144.9379;9851.24;4.430929;11.25965;7603.936;3232.461;0.07954419;-0.09431624;0;
9523.079;6529.853;-145.8698;12719.82;2.350372;9.707727;10425.39;5682.074;0.2093989;-0.09422147;0;
8163.97;5434.901;26.11224;10928.68;14.4718;20.74991;8830.007;4106.107;0.2741559;0.1657426;0;
-14224.84;-10812.5;313.9725;-15343.04;17.73979;24.27904;-14994.96;-9036.337;0.6636844;0.4904127;0;
-31363.72;-22324.77;80.50864;-36183.17;6.134037;18.82915;-33008.25;-17005.81;0.5980502;0.03514858;0;
-25630.15;-17256.05;-164.2774;-30761.64;6.261595;20.4848;-27077.11;-13338.29;-0.1171914;0.1000806;0;
-34157.12;-25034.2;-140.7647;-39079.09;-4.059824;16.44536;-35584.13;-18579.04;-0.05210634;-0.02995464;0;
-27213.61;-20606.41;-364.9167;-31884.2;-10.35238;14.88823;-28353.16;-15639.52;0.33775;-0.1598592;0;
2644.814;1726.814;-543.6944;2356.223;7.877375;18.15531;2805.836;825.2744;-0.05239336;0.03520342;0;
9674.185;6170.813;-350.5574;13178.18;10.07929;16.39564;10694.28;5050.696;-0.1173081;-0.354636;0;
7079.794;4364.08;-130.9872;10127.73;5.313737;22.80928;7896.252;3482.141;0.3375812;0.1004917;0;
9746.837;6728.067;-150.3927;12947.79;8.055064;25.33171;10656.11;5861.226;0.14234;0.5551622;0;
8336.997;5535.684;1.447828;11079.66;-0.7952651;14.65622;9003.295;4191.188;0.2721317;0.1648003;0;
-13461.6;-10324.5;292.7999;-14645.89;-2.468429;14.30657;-14227.58;-8590.85;0.5317276;0.2945694;0;
-30464.96;-21543.42;79.316;-35355.3;6.107866;11.81395;-32106.13;-16312.6;-0.2484148;0.03440401;0;
-24969.73;-16663.65;-172.9026;-30180.94;7.106107;9.792594;-26422.99;-12848.35;-0.5080346;-0.3554346;0;
-33377.41;-24295.11;-158.3455;-38387.75;6.764174;18.55727;-34810.57;-17941.09;-0.1826874;-0.4850121;0;
-26735.08;-20028.15;-363.5519;-31393.36;6.154165;18.94053;-27869.76;-15237.91;-0.3124385;-0.6794268;0;
2699.408;1833.078;-528.9314;2471.3;15.32501;25.15079;2868.515;853.3197;-0.1821899;-0.1590054;0;
9813.993;6272.285;-345.2576;13318.1;19.73024;27.53678;10838.36;5165.654;-0.05207214;-0.02891095;0;
7167.879;4428.25;-141.0756;10213.32;3.902931;22.2177;7986.381;3510.324;-0.4418239;-0.1588166;0;
9848.904;6822.423;-172.7929;13048.14;2.49249;22.06141;10760.9;5952.083;-0.1815106;0.1012124;0;
8630.865;5772.467;-16.63515;11410.16;2.020495;13.93443;9312.337;4400.176;0.01357386;-0.223726;0;
-13378.89;-10205.4;296.8802;-14491.92;-1.73258;10.10252;-14130.37;-8538.946;-0.05140712;0.03636812;0;
-30141.73;-21415.68;91.95041;-35024.21;13.67548;10.22634;-31774.2;-16263.7;0.2085139;0.2312336;0;
-23750.5;-15936.38;-145.8194;-28997.21;17.01064;8.206574;-25215.94;-12323.25;-0.1165323;-0.02886811;0;
-31812.54;-22933.94;-105.1307;-36850.41;12.37185;6.456894;-33276.12;-16828.5;-0.1813826;0.2959976;0;
-25372.34;-19010.42;-321.838;-29983.29;14.56924;6.517389;-26480.52;-14424.84;0.1436364;0.3606675;0;
3524.841;2277.523;-503.5793;3376.125;9.732809;5.171182;3738.786;1196.434;-0.246312;0.1004358;0;
10197.21;6682.878;-323.6167;13721.81;8.450233;4.36219;11225.22;5585.868;-0.3110318;-0.02959984;0;
7733.086;4949.921;-130.7633;10785.73;11.99171;16.88337;8554.713;4010.748;-0.05084994;-0.1595048;0;
10378.12;7367.511;-150.7155;13591.94;11.31008;20.55035;11291.08;6488.095;-0.2457009;0.03555751;0;
9160.692;6136.286;4.01444;11989.02;13.37482;19.59194;9853.64;4736.391;-0.05055197;-0.1593802;0;
-11803.56;-9093.228;307.8733;-12872.36;14.63418;22.18446;-12538.34;-7587.785;0.4042702;-0.02928541;0;
-28034.2;-19667.3;136.4;-32928.9;5.710867;16.7368;-29681.54;-14764.11;-0.05090739;0.6204174;0;
-22233.25;-14848.38;-89.3112;-27481.55;2.489948;15.78222;-23727.29;-11519.84;-0.3107256;0.1650227;0;
-30370.43;-21696.52;-49.14785;-35379.58;10.12326;14.62765;-31857.41;-15904.3;0.01442332;-0.2249472;0;
-24093.31;-17853.33;-257.603;-28622.96;9.37615;12.67045;-25189.63;-13595.55;-0.2454605;0.1650829;0;
4051.127;2575.164;-486.0573;3987.178;9.969941;14.13134;4295.003;1354.678;0.01465547;0.03498229;0;
10429.18;6909.49;-348.4035;13974.4;11.29909;13.91619;11459.97;5837.313;0.1445754;-0.09498754;0;
7977.831;5177.305;-146.4985;11049.09;-0.6349775;11.42396;8797.136;4211.496;-0.4402759;0.294912;0;
10609.08;7587.249;-159.3916;13845.12;-3.84952;10.87662;11526.56;6698.84;-0.5697682;0.2296483;0;
9508.032;6408.323;-5.324463;12344.27;-2.505506;13.41092;10203.95;4988.512;-0.3093263;-0.1603865;0;
-11039.4;-8524.535;313.6612;-12089.94;-5.986588;13.33046;-11782.33;-7088.948;0.01582118;-0.2251927;0;
-26842.2;-18747.48;164.9987;-31680.53;3.933389;16.19734;-28494.67;-13982.78;0.08077263;-0.3549011;0;
-20833.46;-13851.58;-61.53768;-26026.85;7.344712;16.78391;-22323.92;-10865.55;0.1456588;-0.6144139;0;
-28729.19;-20227.51;-21.13675;-33723.99;-6.326698;13.75281;-30229.52;-14864.75;0.08054511;-0.2889598;0;
-22697.12;-16702.04;-214.9712;-27133.1;-7.392068;12.19838;-23781.34;-12752.55;-0.1794052;0.1011346;0;
4719.513;2964.47;-443.8744;4773.981;-2.360798;11.85121;4992.215;1648.047;0.0156771;0.2309677;0;
10805.18;7310.977;-314.4151;14374.96;-1.889912;11.30356;11843.02;6257.058;0.2105634;0.1657683;0;
8495.523;5654.616;-127.9428;11580.48;1.394517;2.316675;9320.442;4661.226;0.08041712;-0.159235;0;
11098.52;8106.308;-142.3225;14344.08;2.196423;-0.1639601;12013.52;7211.961;0.1453037;-0.3539771;0;
9996.852;6741.563;11.6494;12914.9;9.16044;-2.374232;10726.93;5304.654;0.4699944;-0.2236867;0;
-9631.831;-7588.526;333.4447;-10560.34;12.50014;-5.720871;-10334.28;-6279.075;0.4045548;0.03640744;0;
-24698.98;-17197.71;217.2772;-29510.36;6.66043;4.666988;-26368.87;-12550.53;-0.1155905;-0.02859649;0;
-19107.34;-12873.64;-21.75854;-24293.08;7.055879;5.801008;-20639.31;-10063.76;-0.05050698;-0.4183718;0;
-26872.85;-18737.89;-6.947237;-31870.24;2.694533;4.522504;-28415.27;-13802.39;0.3393478;-0.1580821;0;
-20708.68;-15072.52;-189.6297;-25043.72;-0.9918702;5.120806;-21751.55;-11574.38;-0.05079721;0.1669135;0;
5661.038;3515.851;-416.7468;5883.018;6.176422;2.436404;6003.459;2059.901;-0.3755829;0.03681109;0;
11140.12;7692.061;-275.7424;14733.22;5.500631;2.032058;12176.99;6679.742;0.01459857;0.2316761;0;
8949.416;6081.403;-92.51044;12028.91;2.681088;-6.878531;9772.179;5053.563;0.1445186;-0.09339336;0;
11490.47;8495.936;-139.1284;14741;3.549051;-10.89047;12404.58;7599.953;-0.1804633;0.2965045;0;
10525.45;7182.461;1.940576;13460.18;-7.84137;-11.28143;11271.91;5736.921;0.01462002;0.6210433;0;
-8492.274;-6848.223;336.7859;-9415.118;-10.7129;-15.08806;-9198.725;-5736.314;0.2095073;-0.4190582;0;
-23163.85;-16152.94;247.1018;-28070.49;-6.68365;-10.1832;-24895.66;-11775.36;-0.1155399;-0.3536698;0;
-17445.36;-11792.18;28.1822;-22774.44;-8.485596;-9.101306;-19025.93;-9431.758;-0.2453585;0.1664243;0;
-25320.5;-17432.14;53.25064;-30425.65;0.09674568;-18.46953;-26890.59;-12956.49;-0.3100793;0.2312245;0;
-19989.26;-14329.32;-139.0656;-24199.16;1.837961;-19.99158;-20969.2;-10915.74;0.01506901;0.1010574;0;
5812.135;3606.149;-406.6507;6224.781;4.38171;-15.34973;6244.014;2159.053;0.1449886;-0.5487175;0;
11377.81;7926.93;-288.8792;14962.49;8.865285;-14.73152;12414.35;6875.465;0.1448429;-0.7430682;0;
9122.425;6240.637;-96.40427;12187.36;-3.468482;-12.17143;9949.159;5228.849;0.2096647;-0.09264815;0;
11644.75;8630.646;-144.0178;14891.92;-3.933512;-9.747872;12561.47;7708.612;0.01455197;0.297249;0;
10660.88;7309.009;-14.18827;13631.24;-6.676226;-11.47957;11433.88;5860.542;0.144472;0.231983;0;
-8272.583;-6737.466;311.1781;-9106.114;-12.02815;-10.26235;-8883.671;-5579.522;0.1443269;0.2317499;0;
-22809.47;-15746.07;227.423;-27741.2;9.886987;-6.032231;-24484.54;-11329.76;0.01424717;-0.2882217;0;
-17911.99;-11940.43;34.13524;-23252.35;13.35968;-4.016743;-19479;-9409.348;0.4690042;-0.4178668;0;
-26226.4;-18278.2;53.24757;-31350.62;10.46684;-2.472099;-27778.92;-13716.71;0.5984676;-0.02764287;0;
-19809.55;-14540.22;-165.368;-24138.73;17.75734;-0.4601881;-20738.92;-11304.58;0.2080623;0.03735225;0;
6439.291;4029.69;-424.0873;6781.274;-14.34496;0.2101036;6910.637;2494.751;-0.05201615;0.2322168;0;
11671.64;8252.017;-294.4605;15260.46;-22.90436;1.750439;12704.75;7241.279;-0.1169312;0.4268855;0;
9521.597;6590.822;-110.1321;12605.48;7.930314;1.614714;10358.28;5541.791;-0.05184639;0.7512932;0;
11979.15;9014.399;-143.1454;15205.83;11.40497;1.479126;12883.6;8091.688;0.1431077;0.9454403;0;
11057.24;7568.58;11.96739;14134.41;10.925;4.625776;11886.29;6136.552;0.5977353;0.2298496;0;
-7036.28;-5816.067;348.1458;-7679.8;14.93251;4.152248;-7553.049;-4980.482;0.5321674;-0.4200548;0;
-20420.53;-14283.04;278.8774;-25365.24;12.77405;5.822649;-22132.13;-10359.97;0.1418286;-0.4196327;0;
-14580.59;-10292.92;73.43474;-20080.47;11.82418;5.950764;-16211.78;-8384.928;-0.1831506;-0.1593417;0;
-22892.27;-15754.39;88.0723;-28099.81;22.1938;0.6531943;-24482.82;-11987.2;-0.5078033;0.03572044;0;
-17880.76;-12798.4;-97.11065;-21834.84;25.11924;-0.2181792;-18751.07;-9852.787;-0.312391;0.03568454;0;
7050.374;4386.938;-372.0936;7838.742;5.40175;-8.657626;7615.337;2865.287;-0.05220777;-0.02931865;0;
12104.54;8737.59;-279.641;15700.16;0.4388531;-12.86873;13131.5;7703.35;0.07777938;0.03567815;0;
10097.8;7144.826;-101.6368;13170.6;-1.03448;-7.832201;10943.76;6109.422;0.1426686;0.2305443;0;
12576.16;9617.432;-133.1125;15798.29;-6.191005;-10.23566;13461.65;8643.679;-0.2472788;0.1653453;0;
11552.23;7992.938;13.29142;14721.53;0.1108797;-4.264073;12445.88;6639.762;0.1427737;-0.09469017;0;
-5625.216;-4748.739;329.6659;-6042.227;1.048773;-2.183379;-5978.921;-4383.138;0.2725649;-0.09459503;0;
-18048.82;-12552.03;291.385;-22888.37;-6.185949;-9.950961;-19688.55;-9556.725;-0.1824804;-0.02953264;0;
-12515.17;-9001.818;129.767;-17981.69;-8.055743;-8.869296;-14091.84;-7757.241;-0.2472644;0.1004317;0;
-20188.9;-13618.57;146.019;-25434.43;4.813074;-16.36229;-21776.98;-10716.92;-0.7667546;0.3602002;0;
-15261.16;-10968.78;-27.50928;-18846.31;8.42556;-18.69019;-16055.06;-8503.074;-0.8959189;0.5547403;0;
7929.834;4817.503;-304.2488;9161.73;2.522596;-10.36571;8603.986;3362.572;-0.1154106;0.3592809;0;
12507.69;9275.123;-235.3525;16086.73;4.328722;-10.42228;13519.66;8211.535;-0.1802619;-0.03088422;0;
10671.47;7654.316;-58.3143;13758.15;8.610305;-1.168404;11521.62;6640.398;-0.3100155;-0.1607879;0;
12982.19;10045.98;-97.87641;16184.63;15.63523;3.052572;13849.37;9034.597;0.01513273;-0.2255937;0;
11977.22;8378.236;15.44627;15299.44;0.5489666;-2.174981;12915.73;7099.284;0.3399542;-0.2903343;0;
-4439.283;-3869.249;319.5747;-4522.569;0.8832077;-0.02940246;-4774.426;-3858.829;0.599482;-0.03017322;0;
-16240.54;-11165.68;282.772;-20655.57;16.48873;-4.584151;-17665.68;-9096.646;0.468945;0.2946938;0;
-10215.2;-7591.56;110.3088;-15090.66;14.12764;-5.450262;-11176.26;-7039.222;0.2735717;0.09949568;0;
-17034.28;-11288.23;168.3562;-22182.82;59.05765;-4.306137;-18404.76;-9301.133;0.3382642;0.09939571;0;
-13284.15;-9320.305;36.36266;-16659.73;71.99275;-6.847101;-14145.54;-7447.059;0.0130876;0.4890999;0;
8442.452;5210.042;-284.5438;10061.44;40.17173;3.876805;9188.542;3822.592;-0.1168602;0.1637717;0;
13043.84;9840.165;-235.7979;16573.62;36.91618;6.016363;14038.48;8759.018;0.1431265;-0.2911642;0;
11107.96;8081.625;-44.59447;14214.89;19.66508;-2.429349;11962.81;7092.034;0.07801539;-0.2908717;0;
13629.03;10699.23;-96.07064;16784.64;8.794333;-3.230703;14488.86;9629.676;0.01296966;0.0342573;0;
12564.66;8937.486;33.38275;16033.44;-7.089337;-8.585969;13532.48;7785.703;0.3377934;0.1641576;0;
-2882.268;-2649.034;360.3567;-2643.635;-18.60279;-12.32826;-3112.853;-3249.858;0.3374539;-0.09587675;0;
-13499.19;-8836.073;314.5019;-17479.08;-24.88074;-9.301766;-14750.01;-8419.492;0.01227814;0.09912163;0;
-8777.509;-6430.587;141.8662;-12741.91;-33.62965;-10.16314;-9411.385;-6529.322;0.2071678;0.6187608;0;
-15610.3;-10311.95;194.1192;-20392.3;-14.43947;-16.0473;-16823;-8667.105;0.5317964;0.3582697;0;
-11254.29;-7976.385;40.01714;-14542.13;-10.94234;-17.83965;-12061.93;-6665.102;0.07649063;0.09804031;0;
9208.36;5681.831;-273.4593;11100.52;-5.036843;-15.8123;10041.43;4329.76;-0.3783576;0.1629091;0;
13388.39;10283.77;-214.1673;16869.54;3.340962;-16.53323;14362.83;9219.855;0.07679395;0.2926801;0;
11699.59;8634.999;-50.33121;14790.28;-4.499276;-12.22977;12555.1;7632.041;0.2716188;0.1624514;0;
14080.01;11162.45;-122.8848;17211.12;-0.8774323;-10.14107;14938.88;10087.29;0.07644386;-0.2275159;0;
12954.84;9330.778;-8.3969;16465.64;-1.546136;-13.68091;13927.38;8228.115;0.4661711;-0.2272873;0;
-1863.591;-1969.391;298.9571;-1547.401;-0.9423461;-12.66242;-2035.065;-2768.629;0.2708007;0.09777777;0;
-12113.08;-7887.842;288.7398;-15818.89;2.675923;-13.58746;-13307.59;-8025.219;-0.3141775;-0.03225517;0;
-7230.498;-5605.903;151.3467;-10561.85;1.868951;-13.64079;-7797.792;-6045.225;0.1409096;-0.03222276;0;
-13106.87;-8811.109;211.6174;-17832.34;11.78104;-10.61291;-14357.55;-7962.59;0.140768;0.03277696;0;
-9518.965;-6763.656;101.132;-12885.56;14.31382;-10.26733;-10401.4;-6128.944;-0.3791122;-0.2920927;0;
9596.543;6004.554;-203.1761;11669.04;9.476664;-6.774028;10438.37;4747.079;-0.4436986;-0.2268319;0;
13868.89;10788.86;-180.2802;17297.88;10.40515;-5.628512;14843.69;9728.256;-0.5082201;0.0982328;0;
12098.9;9034.258;-26.66054;15196.39;3.629537;-7.029437;12956.92;8029.611;-0.1179054;-0.03180061;0;
14372.08;11452.98;-93.22528;17474.49;1.549785;-6.955451;15225.69;10377.48;0.2070498;-0.09673599;0;
13164.64;9564.598;23.90332;16739.98;3.088469;-8.489009;14151.41;8501.432;0.1418744;0.03329589;0;
-1119.429;-1500.94;322.8696;-551.0353;2.21471;-8.94936;-1175.74;-2449.049;0.1417318;0.09822979;0;
-10824.03;-6938.525;275.7719;-14278.83;0.8733138;-11.95454;-11900.01;-7648.957;-0.05331261;-0.09677095;0;
-6264.929;-4957.249;99.9736;-9236.464;-1.806881;-12.94721;-6793.865;-5699.544;-0.1831937;-0.2266084;0;
-11708.77;-8047.431;155.1422;-16110.33;8.442713;-12.80023;-12868.06;-7548.807;-0.1180423;0.3583254;0;
-8229.513;-5908.525;42.63658;-11083.24;8.836371;-13.18927;-8892.185;-5620.125;-0.3777931;0.3579654;0;
10043.03;6399.056;-264.3614;12472.81;6.885109;-10.09486;10993.32;5199.993;-0.2474788;-0.03219841;0;
14214.91;11159.68;-227.3486;17580.52;8.15099;-9.013054;15159.24;10103.5;-0.05232808;0.162736;0;
12428.77;9366.413;-52.80149;15571.76;-8.536317;-5.253015;13294.51;8368.968;-0.1172428;0.2275398;0;
14703.96;11775.02;-105.347;17797.14;-12.14409;-2.367531;15554.11;10696.95;-0.05215769;0.03240914;0;
13436.03;9891.411;21.57012;17097.32;-19.16546;-4.84346;14427.58;8866.176;-0.376942;-0.2274928;0;
-260.807;-1017.003;344.0114;523.0879;-25.57656;-3.565979;-239.7512;-2047.033;-0.2466286;-0.03236219;0;
-9399.482;-6167.533;302.3115;-12374.03;-8.068439;-3.361447;-10356.77;-7232.009;0.2083907;0.4874091;0;
-4978.787;-4250.202;120.3334;-6922.021;-4.443009;-4.228847;-5406.283;-5213.894;0.2081813;-0.03281942;0;
-10012.39;-7133.371;200.7033;-13888.36;-9.127594;3.07642;-11086.9;-7136.717;0.1430047;-0.2276885;0;
-7090.841;-5148.494;107.5015;-9940.724;-6.506454;4.814824;-7637.206;-5344.35;-0.1170083;0.03240968;0;
10316.82;6713.922;-211.54;12832.67;-1.275004;-1.419305;11316.54;5572.473;-0.3767601;-0.2274922;0;
14667.42;11594.95;-192.1183;18016.36;1.941458;-2.556528;15587.48;10564.61;-0.4413489;-0.4221657;0;
12848.99;9824.937;-38.34622;16009.45;0.5329876;-2.687925;13722.59;8815.026;-0.2460034;-0.2268395;0;
15270.33;12300.6;-112.7234;18355.3;0.4651031;-3.28807;16113.71;11246.91;0.1440478;0.4230619;0;
13936.66;10483.64;10.71849;17624.99;6.426483;-5.629108;14930.1;9464.438;0.2738378;0.3576694;0;
669.1153;-505.856;341.9319;1686.678;8.027616;-5.690435;803.4754;-1535.376;0.01369326;-0.2923634;0;
-7887.35;-5768.577;315.5701;-10430.08;-1.157478;-7.024315;-8697.494;-6810.025;-0.5060592;-0.3570369;0;
-4062.156;-3927.469;148.0871;-5582.223;-3.700934;-7.218205;-4401.223;-4924.158;-0.1157467;-0.09680882;0;
-8663.447;-6322.208;213.9207;-12243.09;-4.032009;0.3579358;-9629.373;-6776.261;0.2741736;-0.0317442;0;
-5629.122;-4239.102;91.31416;-7915.879;-7.377836;2.835884;-6028.956;-4773.284;-0.6356446;-0.161647;0;
10735.19;7131.022;-234.7231;13602.81;-3.149888;8.392434;11787.7;6056.369;-0.5700386;-0.3563866;0;
15058.56;12028.84;-209.859;18304.93;-2.81193;13.0057;15959.51;11007.45;0.534979;-0.1611265;0;
13416.78;10379.97;-52.33662;16589.87;-8.167739;5.557772;14294.73;9375.421;0.3395394;0.1638722;0;
15696.8;12730.75;-114.1748;18764.65;-7.288876;3.810632;16534.36;11693.49;-0.05060578;0.09874015;0;
14213;10830.45;21.51241;17894.63;-13.71191;13.31814;15207.86;9819.86;-0.1804896;0.03367358;0;
1395.784;-150.0288;358.0091;2513.508;-15.64052;13.63967;1525.773;-1175.422;-0.2452756;0.0986071;0;
-6808.496;-5454.478;326.6025;-9181.843;-3.433666;8.602365;-7612.293;-6481.042;0.1447749;-0.03142668;0;
-2866.367;-3424.967;133.3557;-4032.045;-1.086667;7.923892;-3089.023;-4431.401;0.4044988;-0.1613298;0;
-6825.089;-5451.646;179.8545;-10218.76;2.665469;-3.671813;-7688.684;-6236.508;0.2091903;0.03373435;0;
-4578.981;-3656.615;60.0308;-6881.333;5.945321;-8.825687;-4963.59;-4469.642;-0.3757259;0.4235045;0;
10925.38;7435.97;-260.6184;13790.76;5.738276;-4.93187;11985.13;6401.965;-0.5052831;0.4880463;0;
15554.72;12502.31;-234.9318;18766.72;8.278106;-7.13729;16450.06;11490.81;-0.1149713;0.09775188;0;
13696.3;10693.1;-73.29248;16846.51;1.839426;-5.187675;14569.57;9684.64;-0.1798231;0.2925557;0;
15924.33;12949.61;-124.3494;18969.96;0.9669219;-3.708898;16759.48;11926.75;-0.1796425;0.3572291;0;
14461.48;11140.76;10.02058;18139.33;1.434465;-6.853309;15453.85;10133;0.2103421;-0.3577707;0;
1942.126;144.0451;329.7248;3106.748;-0.2419159;-5.439781;2068.045;-873.6535;0.6649022;-0.2924438;0;
-5831.669;-5151.25;292.9275;-8099.18;5.385382;-4.965434;-6642.468;-6168.317;0.27443;0.2275888;0;
-2272.377;-3187.981;124.7488;-3387.281;5.782112;-4.960445;-2453.474;-4192.671;0.1442196;0.1623928;0;
-6066.998;-5103;199.1641;-9358.516;7.316544;6.364411;-6870.381;-6033.063;0.5338787;0.2271969;0;
-3738.787;-3146.26;73.55823;-5629.153;8.648362;9.974973;-4090.918;-4086.07;-0.1163312;0.03206659;0;
11207.77;7765.34;-253.4607;14300.18;6.095053;6.95084;12277.81;6756.275;-0.635953;-0.617639;0;
15758.2;12720.54;-214.0695;18885.23;7.093307;9.020205;16644.04;11720.72;-0.05060793;-0.5520511;0;
14033.48;11055.11;-47.50048;17208.13;2.330757;5.059269;14908.57;10052.03;0.01441027;-0.03175766;0;
16340.47;13353.76;-92.477;19370.39;1.65883;4.786254;17168.01;12345.61;-0.505343;0.03324159;0;
14689.17;11453.57;44.57833;18375.62;3.733268;4.44653;15677.9;10454.71;0.01490356;-0.1616938;0;
2587.364;464.4246;342.2589;3904.746;3.260026;3.571284;2740.177;-540.2684;0.46966;-0.09656402;0;
-4664.623;-4816.81;306.8389;-6737.33;9.419668;7.988447;-5453.381;-5819.056;-0.115518;0.03346769;0;
-1486.765;-2842.491;149.4845;-2176.912;9.946067;9.186113;-1529.699;-3837.39;-0.0504346;0.2283361;0;
-5193.829;-4735.166;203.1978;-8099.09;14.22298;11.18637;-5810.681;-5723.021;0.3394201;0.293074;0;
-3091.555;-2919.787;69.49827;-4923.606;15.41414;13.1845;-3415.34;-3908.509;0.144177;-0.0320572;0;
11332.83;7969.971;-259.5937;14427.94;10.8443;13.30521;12390.52;6981.634;0.07906484;-0.2918943;0;
16051.8;13028.06;-228.895;19182.04;10.89977;14.09564;16943.25;12042.42;0.07898539;0.03323565;0;
14233.81;11265.91;-63.57613;17391.35;-3.779585;15.89002;15102.59;10272.85;-0.115996;0.2930716;0;
16422.98;13453.33;-110.4262;19451.29;-9.871356;15.94103;17252.25;12459.33;-0.4407161;-0.09702691;0;
14740.6;11548.48;32.95653;18422.45;-4.570152;16.46088;15727.71;10558.61;-0.1804039;-0.2268641;0;
2818.976;572.9008;339.3319;4155.308;-7.177528;16.51132;2987.922;-419.5194;-0.050288;0.09820058;0;
-4276.698;-4714.736;301.4473;-6301.333;-8.978977;11.33717;-5061.208;-5705.94;-0.3101068;0.1630692;0;
-1190.871;-2724.918;139.1477;-1794.076;-11.24713;9.249305;-1190.362;-3708.318;-0.1798606;-0.2268987;0;
-4342.684;-4462.743;191.7939;-6995.689;-4.604397;7.498455;-4841.783;-5442.952;-0.04974515;-0.5515074;0;
-2251.978;-2579.188;62.86898;-3707.559;-2.724737;4.811726;-2513.539;-3560.395;-0.04969516;-0.3560512;0;
11411.65;8127.555;-256.5961;14637.95;-9.688224;6.749395;12464.8;7150.082;0.08028945;-0.1607914;0;
16056.94;13060.61;-225.5569;19131.05;-8.874206;6.072784;16948.06;12084.57;0.3400781;-0.09566251;0;
14244.77;11271.13;-67.0036;17408.75;-16.90324;4.124177;15106.53;10288.51;0.4696711;0.03436829;0;
16258.72;13347.94;-133.3248;19285.46;-20.16879;4.588914;17087.33;12364.13;0.07939514;-0.03063358;0;
14591.49;11365.86;-8.722133;18251.89;-9.363902;-1.644988;15576.27;10384.85;0.01434802;-0.3554395;0;
2486.69;418.7498;316.9042;3784.498;-7.68053;-3.987676;2622.313;-565.3711;0.4041376;-0.1601803;0;
-4743.083;-4854.739;289.287;-6809.81;-8.342398;2.714502;-5538.986;-5838.98;0.2088296;0.294752;0;
-1495.759;-2844.916;104.0424;-2144.793;-6.190562;1.70703;-1544.488;-3820.469;0.273587;-0.03038087;0;
-4777.215;-4614.135;149.4306;-7630.176;-4.911544;6.661991;-5382.038;-5584.866;0.3382795;-0.4201544;0;
-2772.748;-2885.194;42.28739;-4542.152;-2.361989;8.530697;-3067.181;-3857.432;-0.1168318;-0.09489551;0;
11140.92;7846.796;-251.5137;14240.68;-7.115038;-3.60148;12196.14;6877.987;-0.1167144;0.1650692;0;
15854.12;12879.05;-212.0463;18958.57;-9.719857;-6.612032;16736.59;11911.62;0.1432722;-0.1599334;0;
13985.49;11028.52;-50.77357;17126.94;5.025666;-5.667628;14844.84;10054.33;-0.05177375;-0.2897074;0;
16064.2;13181.24;-111.6138;19085.98;7.833656;-6.465728;16886.38;12207.11;-0.1816564;-0.1594816;0;
14506.76;11268.86;12.4985;18157.82;-2.555716;-12.75544;15483.97;10297.55;-0.1165065;-0.02938664;0;
2063.115;193.4376;334.2773;3345.961;-3.15636;-14.28323;2179.119;-781.9401;-0.2463242;0.2305123;0;
-5467.252;-5133.688;307.5172;-7582.628;-11.12379;-8.642439;-6290.658;-6107.586;-0.3760113;0.295248;0;
-1994.346;-3129.879;125.7213;-2913.945;-16.06911;-7.762976;-2124.928;-4095.224;0.2090726;0.2949513;0;
-5224.311;-4834.578;173.1805;-8247.272;-10.49423;0.8183953;-5931.55;-5795.908;0.2738298;0.4245896;0;
-3028.912;-2896.427;51.02088;-4662.83;-13.02831;4.568556;-3344.591;-3858.477;-0.05128203;0.2942283;0;
11130.36;7825.002;-271.4308;14300.59;-11.00646;6.506471;12192.13;6866.62;0.01373684;0.03406331;0;
15735.4;12773.63;-233.2865;18818.87;-10.39219;9.714992;16610.23;11817.43;-0.1162116;0.09899644;0;
13965.35;11045.88;-56.59392;17125.58;-17.41434;6.088274;14827.31;10082.17;-0.3109969;0.1638643;0;
16036.25;13141.38;-114.3517;19043.52;-17.06205;6.417071;16854.8;12176.27;-0.3756517;-0.2261044;0;
14342.72;11165.69;10.09129;17994.48;-17.3797;4.401135;15319.48;10204.95;-0.1803723;-0.2258772;0;
2237.834;259.9624;332.0131;3549.499;-13.54482;3.793866;2359.339;-703.556;0.2745804;-0.09571557;0;
-5120.295;-5024.549;299.8205;-7225.591;-14.2008;-1.099578;-5951.402;-5986.74;0.2093371;-0.2255541;0;
-1708.487;-2993.206;108.7401;-2524.752;-9.028964;-4.916378;-1787.559;-3946.637;-0.1157099;-0.2253274;0;
-4709.199;-4670.463;164.3841;-7603.974;2.634406;6.073519;-5315.817;-5620.61;-0.05062632;-0.3550357;0;
-2758.055;-2896.504;71.67168;-4386.821;7.990394;6.670262;-3039.804;-3847.538;-0.1155428;-0.2897116;0;
11134.42;7881.616;-241.571;14269.45;35.3114;4.38614;12189.99;6933.833;-0.4402634;-0.1594858;0;
15952.4;13009.4;-216.7782;19001.14;44.51932;5.185528;16823.03;12061.78;-0.3098863;-0.419195;0;
14079.24;11175.8;-53.00193;17209.77;54.92344;-3.661246;14936.41;10221.74;-0.0497056;-0.1589044;0;
16153.37;13272.42;-135.3916;19134.86;64.3791;-6.738721;16968.15;12318.04;0.1452464;0.166092;0;
14522.49;11381.21;-35.7587;18156.52;37.65593;-6.397036;15494.73;10430.19;0.08013308;-0.09394427;0;
2386.69;368.4018;277.3855;3680.608;32.19308;-8.667966;2513.705;-585.5356;-0.2447841;0.03608481;0;
-4816.276;-4892.996;255.4926;-6903.038;25.66303;-11.4055;-5642.926;-5845.725;0.08029853;0.1659832;0;
-1355.331;-2795.006;102.1878;-1971.389;16.86333;-13.67139;-1358.953;-3739.188;0.5349892;0.03588177;0;
-4164.166;-4492.484;177.4379;-6756.814;17.11383;-10.37556;-4649.714;-5434.14;0.3395497;-0.02912162;0;
-2205.401;-2615.442;60.02166;-3618.271;12.80973;-9.427429;-2458.516;-3558.557;0.1443064;0.1658097;0;
11330.86;8135.486;-267.3897;14533.35;11.65876;-13.63776;12374.03;7196.661;0.0791941;0.2306104;0;
16019.42;13099.48;-243.6329;19046.18;9.771031;-13.69104;16892.95;12161.93;0.01414718;-0.02949069;0;
14222.28;11326.39;-70.61552;17355.66;22.01872;-11.73484;15073.97;10381.25;0.209035;0.165441;0;
16412.41;13563.41;-103.1376;19394.17;27.22151;-11.65606;17222.53;12615.1;0.2737923;0.3601768;0;
14828.84;11712.12;32.08565;18447.62;21.90287;-7.826385;15796.67;10766.41;0.2085498;0.0999455;0;
2745.111;599.6769;338.3214;4098.942;24.22441;-6.679873;2868.538;-347.6375;0.01343827;-0.03008962;0;
-4396.527;-4830.993;293.8786;-6421.344;24.20007;-7.008014;-5229.712;-5776.59;-0.4413466;-0.2899288;0;
-1375.798;-2830.564;109.7694;-2062.251;23.10403;-6.197238;-1442.015;-3767.184;-0.3759358;-0.3546048;0;
-4991.816;-4756.641;171.3625;-7866.511;32.25784;-8.937251;-5603.989;-5689.649;-0.05072137;0.1654903;0;
-3080.852;-3097.896;59.76192;-4887.865;35.77541;-8.995254;-3414.3;-4032.903;-0.0506704;0.6850627;0;
10985.46;7796.789;-274.5988;14039.33;17.58745;-9.722966;12023.44;6866.392;-0.05061949;0.1646356;0;
15896.13;12984.02;-277.54;18965.12;13.01542;-8.641531;16770.59;12055.85;0.2742681;-0.3552685;0;
14103.21;11225.78;-114.1244;17209.12;19.90122;-10.50831;14949.19;10289.84;0.1440578;-0.03007485;0;
16168.27;13356.18;-130.5952;19151.14;16.53232;-9.961886;16979.03;12420.26;-0.7006624;-0.2249466;0;
14549.5;11401.42;16.47782;18169.57;23.54831;-1.780203;15515.45;10468.76;-0.5700237;-0.48459;0;
2152.922;243.1143;339.5957;3419.139;25.13224;0.7668762;2263.074;-691.8741;0.2101572;0.03563566;0;
-5219.677;-5148.576;321.7945;-7331.863;15.79624;8.602925;-6062.235;-6084.796;0.08001135;0.2305019;0;
-1923.899;-3124.199;141.7334;-2688.201;15.71399;12.14438;-2028.762;-4050.155;-0.1799384;-0.0295991;0;
-5724.367;-5033.333;184.2883;-8671.896;9.06677;11.73028;-6419.156;-5936.026;-0.04982293;-0.0945367;0;
-3635.365;-3272.517;66.19361;-5471.944;6.846856;12.25423;-4025.687;-4180.565;0.08016182;0.230395;0;
10754.74;7547.131;-239.5474;13815.1;5.96932;10.90238;11782.6;6625.706;-0.04985341;0.4900329;0;
15459.02;12566.96;-202.9656;18529;0.1361731;10.42255;16337.83;11648.82;-0.179738;0.4245732;0;
13595.54;10724.17;-37.62589;16690.98;22.97709;-2.11343;14435.34;9797.942;0.1452793;0.03434247;0;
15390.11;12641.32;-73.1171;18383.46;27.24091;-6.80005;16203.75;11717.82;0.2101007;-0.2905287;0;
13854.3;10616.72;53.23664;17442.14;11.6735;-8.802645;14812.74;9689.898;-0.1149471;-0.2252695;0;
960.6057;-370.0388;329.2007;2160.925;12.93457;-13.34852;1060.122;-1291.979;0.01510303;-0.09510844;0;
-7135.384;-5708.796;277.958;-9436.512;-7.507611;-6.10113;-7974.652;-6634.573;0.2749572;0.2947912;0;
-3167.549;-3674.22;106.5616;-4347.677;-14.86843;-5.291205;-3399.919;-4590.743;0.2097136;0.2295276;0;
-6898.646;-5542.774;158.6626;-10275.11;-3.66771;-5.955718;-7748.144;-6350.353;0.2744702;-0.4203764;0;
-4724.6;-3806.95;29.02141;-6939.236;-5.204266;-3.940306;-5121.659;-4632.129;0.3391618;-0.09511732;0;
10268.97;6999.648;-290.3472;13147.05;-0.5773365;-5.543877;11304.56;6079.565;-0.1159504;0.3597497;0;
14883.38;12014.7;-233.8338;17979.94;1.030834;-4.734511;15751.76;11103.49;0.01410079;0.03455146;0;
12972.84;10109.16;-46.97385;16034.07;9.468916;-4.327917;13812.96;9186.854;0.4038907;0.0994841;0;
14719.61;12012.87;-102.6018;17700.77;15.3539;-5.395234;15527.46;11104.31;0.1436155;-0.03055056;0;
13374.18;10059.9;18.69038;16927.63;5.492835;0.7724336;14328.56;9129.546;0.07850382;-0.3553566;0;
-241.237;-1020.46;331.8423;745.3722;5.286244;1.843384;-160.761;-1919.688;0.07842495;0.2297066;0;
-9075.757;-6327.704;309.7542;-11758.37;9.09835;-4.052844;-9963.656;-7260.526;-0.2464906;0.2294758;0;
-4388.598;-4196.414;139.6845;-5926.234;7.750037;-4.24972;-4727.756;-5085.445;-0.3761776;-0.5503629;0;
-8593.495;-6494.868;175.1981;-12278.41;10.68901;-11.27847;-9577.612;-6875.371;-0.05096288;-0.4848426;0;
-6365.366;-4754.339;33.96798;-9060.576;10.87934;-13.9464;-6863.957;-5217.979;0.1439904;0.03538333;0;
9879.508;6580.524;-289.9346;12507.38;6.44778;-11.25313;10882.21;5629.86;-0.3109257;0.2952172;0;
14487.74;11609.55;-259.3304;17640.27;7.580378;-12.51444;15365.45;10701.45;-0.1157113;0.2299532;0;
12551.96;9718.161;-86.96882;15572.76;-6.359689;-6.406598;13384.11;8815.763;-0.1805623;-0.03014725;0;
14494.95;11792.9;-122.6759;17483.04;-12.91738;-4.32369;15305.08;10887.76;-0.2453483;-0.03011696;0;
13138.4;9798.526;9.006195;16659;9.735584;-6.26185;14087.12;8877.08;0.8593431;0.03488064;0;
-902.7644;-1367.415;309.2525;-112.7984;12.60521;-5.451763;-869.6946;-2253.624;0.5336429;-0.1600564;0;
-10119.63;-6651.634;274.2717;-13132.06;9.109923;-4.843439;-11074.49;-7579.385;-0.5713381;-0.02996092;0;
-5500.747;-4656.731;118.4805;-7495.21;13.32033;-4.771589;-5947.604;-5522.877;-0.7656661;0.3598732;0;
-10159.33;-7306.03;187.889;-14086.3;-4.241852;-5.57059;-11252.18;-7344.112;-0.44006;0.1646096;0;
-7368.112;-5385.885;70.19676;-10170.12;-9.797295;-6.100856;-7933.267;-5563.593;-0.1147811;-0.09542517;0;
9594.472;6246.792;-247.6672;12145.38;6.756968;-9.108897;10569.39;5268.649;-0.04969846;-0.03036194;0;
14078.13;11224.38;-231.3483;17262.2;7.554461;-10.57331;14959.18;10326.89;0.1452535;-0.1602661;0;
12216.65;9383.464;-71.93018;15226.32;1.517675;-12.2372;13046.56;8480.872;0.1451076;0.03479695;0;
14092.38;11412.98;-108.9174;17112.85;1.114984;-14.50226;14901.64;10534.25;-0.5047117;0.229664;0;
12874.29;9495.406;18.86224;16344.45;-5.316498;-9.73202;13816.76;8548.909;-0.3742698;0.09949857;0;
-1736.694;-1851.92;335.4966;-1006.463;-9.865507;-8.315661;-1755.938;-2642.076;0.08087761;0.0993986;0;
-11723.4;-7534.264;301.3015;-14924.78;0.9953969;-14.73748;-12787.94;-8080.249;-0.1141057;-0.225538;0;
-6753.859;-5324.207;98.30379;-9310.367;3.740087;-14.78966;-7302.451;-5956.256;-0.1789584;-0.4202134;0;
-11645.02;-8076.081;150.46;-15925.93;-15.48741;-13.50218;-12840.23;-7720.725;-0.04884386;-0.4847585;0;
-8610.445;-6206.292;54.35705;-11717.94;-19.62405;-13.28767;-9342.832;-6015.851;0.01617255;-0.4193041;0;
9165.807;5804.816;-245.2814;11466.42;-8.686973;-8.719599;10065.23;4792.545;0.2110583;-0.02907872;0;
13638.11;10782.59;-211.3175;16893.19;-6.802234;-7.371178;14547.75;9892.71;0.08091158;0.03591784;0;
11730.51;8915.748;-63.55431;14705.04;-11.08231;-2.675088;12546.33;8008.899;0.1457976;0.1008491;0;
13485.56;10801.59;-127.3177;16546.13;-11.07117;0.4087534;14304.58;9959.586;0.4055205;0.1007478;0;
12304.13;8916.816;7.648664;15677.53;-1.280782;-2.940743;13234.12;7904.638;0.1452436;-0.2241902;0;
-3085.679;-2740.944;333.9769;-2664.745;0.7292606;-1.665112;-3223.307;-3296.694;-0.179739;-0.3538996;0;
-13762.15;-8931.374;310.3562;-17385.07;7.694753;-4.409678;-14939.79;-8665.15;-0.1795584;-0.09367463;0;
-8175.137;-6264.142;132.6491;-11476.61;13.71524;-5.744906;-8791.499;-6478.21;-0.04944329;0.2312562;0;
-13470.85;-9108.149;188.925;-18068.06;-1.636534;-0.7825188;-14729;-8251.057;-0.1793283;0.03612181;0;
-10224.46;-7234.966;82.14812;-13417.89;-2.238102;-1.250613;-11036.58;-6511.839;-0.04921342;-0.02888183;0;
8708.854;5392.054;-244.1611;10822.99;-5.451034;0.4921998;9567.717;4336.239;0.01580337;0.1010819;0;
13159.72;10286.25;-232.2654;16465.82;-12.14336;0.5586882;14082.28;9390.434;-0.3090492;-0.02895437;0;
11168.13;8367.453;-59.3219;14122.32;7.025227;-1.719232;11976.11;7466.085;-0.178804;0.1010094;0;
12915.17;10219.06;-99.94497;16040.15;5.008436;-1.583539;13742.43;9414.444;-0.04868966;0.3607773;0;
11850.52;8480.415;20.87602;15098.78;8.754448;-9.351785;12761.07;7380.596;-0.1785754;0.1005454;0;
-4154.79;-3672.096;323.3124;-4121.789;12.02818;-11.61981;-4417.323;-3808.95;-0.0484613;-0.09445766;0;
-15630.02;-10558.52;289.0671;-19764.97;-21.80968;-12.14393;-16957.48;-9181.451;-0.04841261;0.1655066;0;
-9666.63;-7264.593;119.0026;-13756.64;-27.74961;-14.67702;-10353.69;-6979.25;-0.3082333;0.1653403;0;
-15475.45;-10306.53;164.2508;-20377.9;-45.1368;-4.749045;-16758.83;-8800.162;-0.4378583;-0.02972784;0;
-12142.11;-8493.452;29.12238;-15571.5;-57.95119;-1.1943;-13086.95;-7097.499;-0.3074836;0.03526937;0;
8071.718;4921.718;-283.4061;9862.993;-29.02466;-8.025176;8840.945;3792.959;-0.04730532;-0.09470075;0;
12698.92;9760.572;-237.488;16089.29;-26.78469;-7.2803;13649.42;8857.834;-0.04725779;-0.2245403;0;
10595.07;7825.78;-61.32215;13547.36;-23.74367;-3.455079;11387.95;6931.522;-0.4370143;0.1005221;0;
12382.74;9659.584;-120.4808;15556.83;-18.02639;-3.04971;13230.95;8874.796;-0.3716079;0.4902251;0;
11362.16;8018.401;-3.324785;14473.89;-19.21372;3.249628;12228.88;6841.428;0.1485042;0.3597978;0;
-5437.395;-4672.187;327.5747;-5673.847;-15.17593;5.925619;-5816.262;-4368.94;0.4082244;-0.03036775;0;
-17724.81;-12284.18;305.1629;-22332.54;-20.98783;-0.3766087;-19274.73;-9747.048;-0.1119245;0.03463011;0;
-11655.38;-8518.754;123.6505;-16719.23;-21.23516;-0.8451108;-12764.54;-7658.611;-0.4366488;-0.09533937;0;
-17865.76;-11809.18;169.8311;-23072;-24.69645;-3.12162;-19271.01;-9727.341;-0.1113733;-0.1602109;0;
-13836.9;-9783.994;45.86332;-17340.65;-27.95416;-6.199637;-14702.54;-7848.381;0.0836406;0.09981945;0;
7578.077;4493.196;-252.7671;9043.627;-21.62943;0.03588251;8302.773;3302.185;-0.04637812;-0.09518289;0;
12190.84;9230.923;-217.109;15620.85;-21.67505;0.1028294;13152.52;8329.572;0.08360316;0.09981479;0;
10110.34;7345.31;-50.00598;13043.26;-23.59565;-5.925616;10895.17;6444.381;0.08351915;0.8793226;0;
11862.67;9118.769;-82.47063;15049.5;-23.63832;-6.790379;12731.7;8363.016;-0.1114668;0.6185697;0;
10920.57;7613.498;47.76556;13918.87;-21.06995;-11.27135;11726.5;6341.812;0.2134819;0.0982094;0;
-6799.264;-5709.974;344.9588;-7382.35;-18.57053;-13.4704;-7325.466;-4900.475;0.6680388;0.09811073;0;
-20031.76;-14186.22;286.6569;-24952.52;-26.3214;-11.38046;-21731.88;-10298.54;0.3425308;-0.0968899;0;
-12990.65;-9557.882;110.8477;-18479.66;-27.63412;-12.23974;-14441.43;-8052.08;-0.04761738;-0.2916946;0;
-19397.96;-12916.85;146.1404;-24803.41;-20.8412;-9.883099;-20981.92;-10396.63;0.01739781;0.0984026;0;
-15763.96;-11053.1;-13.20763;-19551.18;-21.49082;-9.069372;-16664.11;-8624.854;-0.1125544;0.2932057;0;
6879.055;4079.297;-295.1776;7992.16;-8.875949;-10.80182;7516.556;2852.625;-0.2423759;-0.03192559;0;
11877.31;8813.879;-232.7872;15331.01;-2.169225;-10.85795;12857.78;7883.416;-0.2421324;-0.09686086;0;
9523.979;6802.482;-77.24078;12450.32;-20.92227;-9.440393;10305.55;5919.759;-0.3718238;-0.2266982;0;
11426.46;8633.036;-124.1395;14615.54;-21.97297;-8.895105;12317.08;7858.614;-0.4364175;-0.2914378;0;
10489.84;7251.708;13.36925;13373.2;-18.40092;-12.36916;11228.12;5945.566;-0.3060443;0.3585285;0;
-8056.854;-6572.462;331.9457;-8900.106;-21.59663;-13.16052;-8716.813;-5450.042;0.1490346;0.5530702;0;
-21967.67;-15527.43;264.4896;-27042.88;-3.490274;-12.00859;-23743.15;-11091.23;0.2788195;-0.03219154;0;
-15020.73;-10617.51;63.48102;-20678.27;1.402377;-11.99652;-16684.85;-8707.869;0.01866999;-0.2920285;0;
-21280.66;-14230.1;109.1911;-26735.38;-9.851189;-12.2524;-22951;-11116.95;-0.1762508;-0.0968331;0;
-16589.14;-11899.28;-39.07852;-20559.29;-9.171704;-12.10612;-17449.4;-9174.361;-0.6308451;0.09816623;0;
6700.006;3930.902;-329.7837;7564.632;-10.9038;-9.816602;7303.733;2624.166;-0.3053745;0.1630349;0;
11547.54;8475.463;-251.9601;15021.01;-11.42871;-8.869039;12539.17;7559.531;0.2146711;-0.03203092;0;
9297.559;6562.232;-67.48699;12229.77;-13.8291;-8.391246;10081.95;5664.259;0.34439;-0.03199873;0;
11173.67;8362.715;-116.5351;14365.03;-16.2261;-7.846951;12067.25;7576.51;0.2790767;0.09796812;0;
10168.98;6976.364;9.643611;13038.63;-7.971749;-6.164554;10886.51;5653.704;0.01892688;0.162837;0;
-8828.383;-7115.863;317.323;-9703.222;-7.293178;-5.354565;-9516.831;-5828.615;0.1488425;0.09770606;0;
-23300.79;-16528.4;238.4343;-28319.17;-6.348821;-5.952031;-25052.36;-11774.06;0.2136603;-0.2921962;0;
-15916.54;-11135.85;49.75817;-21523.6;-4.198987;-4.673374;-17576.59;-9083.642;-0.2413258;-0.3568699;0;
-21888.61;-14536.61;81.62962;-27286.49;-10.82522;-9.290379;-23564.21;-11303.25;0.1487208;0.2281947;0;
-17350.2;-12308.53;-94.30151;-21386.82;-10.81435;-10.21881;-18265.88;-9495.314;0.473408;0.1629981;0;
6453.512;3882.061;-356.9185;7197.436;-13.41643;-5.720803;6994.594;2551.566;0.08312833;0.03289964;0;
11653.21;8516.673;-244.5536;15155.33;-15.01054;-5.916003;12656.33;7595.435;0.1480121;0.09783393;0;
9245.374;6506.247;-55.93382;12215.79;-9.703191;0.7881126;10035.28;5599.942;0.1478634;-0.09716641;0;
11158.93;8353.699;-110.2722;14366.25;-10.02823;3.332611;12051.12;7557.344;-0.04718718;-0.1620361;0;
10310.58;7070.946;17.24336;13235.72;-5.129013;1.18587;11046.08;5743.862;0.2776969;0.03302872;0;
-8561.787;-6889.896;330.0532;-9366.005;-4.319576;3.796952;-9244.619;-5673.783;0.2124506;0.1629302;0;
-23143.05;-16390.38;238.3143;-28037.77;-3.846721;-3.507881;-24874.73;-11712.28;-0.177567;-0.09710286;0;
-15901.22;-11127.06;29.30483;-21401.99;-2.503686;-4.509039;-17531.29;-9085.762;-0.2423559;-0.03203795;0;
-21532.72;-14315.23;76.84522;-26873.73;-13.55226;1.322884;-23191.89;-11100.01;0.08272435;0.292831;0;
-16722.91;-11992.29;-48.55962;-20539.19;-16.01786;1.522443;-17566.2;-9199.114;0.3425106;0.0976347;0;
6832.136;4115.954;-326.621;7788.483;-20.55612;8.286006;7432.601;2767.571;0.2771991;0.03256924;0;
11836.27;8730.918;-294.3714;15348.49;-24.88874;10.42113;12834.49;7813.924;0.0170512;-0.03243083;0;
9583.049;6802.844;-125.1761;12564;-18.367;12.35317;10382.73;5888.927;0.08200141;-0.09736558;0;
11547.9;8768.579;-148.07;14755.06;-19.42027;15.01995;12427.42;7952.204;0.01695167;0.2925363;0;
10575.1;7243.031;-10.7402;13553.47;-17.25731;8.842551;11363.93;5950.903;-0.0480327;0.2922424;0;
-7565.144;-6185.454;326.929;-8312.741;-16.63675;8.163836;-8186.341;-5233.863;0.5367216;0.1620141;0;
-21039.08;-14943.35;289.2599;-26027.59;-20.30471;7.418943;-22826;-10666.14;0.276313;0.09688391;0;
-13644.04;-9925.863;83.52563;-19274.27;-21.15496;5.736915;-15281.19;-8277.053;-0.1787361;-0.2280502;0;
-19617.72;-12978.18;103.2599;-25070.87;-25.15219;7.271758;-21268.16;-10478.78;0.1462802;-0.2927884;0;
-15556.89;-11037.75;-36.83603;-19273.29;-27.00293;6.259707;-16383.29;-8619.244;-0.1137361;-0.4224288;0;
7265.22;4365.106;-319.7818;8366.088;-31.2627;7.191179;7903.586;3066.016;-0.1136218;-0.4869717;0;
12172.46;9109.114;-248.2619;15658.92;-33.44112;6.782055;13164.54;8167.635;0.3412637;0.163191;0;
9910.6;7103.372;-51.89224;12888.65;-34.41189;8.918572;10720.49;6197.415;0.1460188;0.3579291;0;
11879.8;9106.067;-101.1591;15050.95;-35.78481;11.25401;12744.48;8263.271;-0.04902994;-0.03223465;0;
10976.81;7600.607;-4.965093;14017.15;-30.85874;1.66433;11814.49;6345.662;0.01598667;-0.0971696;0;
-6571.604;-5487.517;306.8051;-7246.896;-29.08642;0.9928889;-7124.756;-4793.149;0.1459053;-0.1620393;0;
-19695.68;-13908.11;290.6454;-24606.48;-27.11481;3.805052;-21372.96;-10175.24;0.1457587;-0.1618765;0;
-12553.5;-9202.089;114.0982;-17965.8;-23.80503;3.064478;-13907.65;-7868.087;-0.1792245;0.2930576;0;
-17802.87;-11649.87;131.9745;-23236.62;-23.51367;13.2425;-19339.27;-9690.246;-0.4389138;0.03289372;0;
-13709.97;-9742.167;-5.058057;-17150.72;-20.40858;15.23868;-14495.7;-7719.635;-0.2435707;-0.2270087;0;
7968.451;4811.499;-272.0594;9443.025;-20.92394;17.63475;8693.063;3532.813;-0.243326;-0.03187857;0;
12582.5;9595.054;-215.8454;16026.66;-20.56812;19.6264;13549.32;8637.055;-0.2430815;-0.2267486;0;
10542.72;7694.035;-49.94616;13540.61;-10.49977;13.77929;11371.47;6803.466;0.08199947;-0.09658604;0;
12551.34;9798.773;-88.90762;15684.72;-8.145674;12.82768;13382.41;8887.063;0.3417864;0.09841305;0;
11497.44;8073.806;32.30833;14721.56;-9.47666;5.045015;12418.49;6938.811;0.6662797;-0.09658787;0;
-4850.916;-4202.359;340.1524;-5088.362;-9.266067;1.422929;-5213.614;-4137.894;0.2758062;-0.03152348;0;
-17028.42;-11752.18;293.0997;-21531.29;-13.54366;-1.592611;-18493.99;-9527.743;-0.2442097;-0.09645915;0;
-10457.98;-7824.031;108.9288;-15266.69;-16.34309;-5.810874;-11308.2;-7240.799;-0.178997;0.1635071;0;
-15035.69;-9790.802;179.284;-20282.93;-19.20706;0.1563234;-16356.62;-8685.543;-0.04888241;0.1633429;0;
-11447.8;-8077.07;72.70419;-14754.19;-22.20187;0.02220051;-12322.44;-6840.396;0.2760034;-0.161658;0;
8538.269;5213.463;-230.5758;10317.8;-30.75338;2.098588;9327.188;4026.16;-0.04911062;-0.03156087;0;
13160.52;10230.03;-193.7375;16571.21;-35.74632;5.445565;14116.97;9268.04;-0.5038326;-0.2264312;0;
11144.61;8268.074;-29.39102;14167.51;-29.94963;-2.262761;11968.01;7372.644;0.01641232;-0.3561383;0;
13046.14;10306.27;-90.72127;16148.93;-28.71408;-1.657641;13872.99;9376.038;0.3412325;-0.03094379;0;
12109.82;8666.966;24.79625;15496.93;-36.72318;1.224169;13054.61;7598.162;0.2759223;-0.3557494;0;
-3563.846;-3278.352;354.137;-3406.12;-36.55159;0.9550681;-3750.8;-3547.39;0.3406124;-0.3553919;0;
-15139.66;-10197.75;321.1257;-19064.14;-31.22357;12.34096;-16413.8;-9038.173;-0.1145012;0.1647039;0;
-8933.844;-6780.731;116.968;-12783.96;-30.52261;15.54362;-9618.656;-6711.272;-0.4392229;0.09957106;0;
-13352.33;-8925.539;172.0571;-18185.66;-13.94753;15.39404;-14612.23;-8217.768;0.08095719;-0.2903331;0;
-10074.79;-7173.135;67.35864;-13173.08;-6.833564;18.45966;-10907.95;-6406.042;0.5356472;-0.419976;0;
8981.949;5600.843;-251.4238;11100.49;-15.73531;8.862799;9828.503;4469.853;0.340207;-0.02974996;0;
13498.06;10571.06;-221.2019;16856.46;-14.58042;6.308663;14440.27;9629.953;0.3398651;0.2301493;0;
11556.31;8685.972;-48.33204;14571.59;-11.08314;10.2542;12376;7765.584;0.5344257;-0.09491867;0;
13339.71;10590.44;-97.52435;16463.53;-10.06665;8.569319;14173.87;9688.436;0.403954;-0.1597906;0;
12142.83;8702.397;25.09019;15516.45;-16.82169;9.431486;13078.28;7633.104;0.2086461;0.1002393;0;
-3337.381;-3068.966;331.817;-3085.094;-19.35039;9.221061;-3542.075;-3480.608;0.07850175;0.03517123;0;
-14696.33;-9852.814;291.7224;-18679.4;-9.149536;5.39389;-15973.06;-8907.834;-0.1164792;0.1650706;0;
-8950.977;-6804.566;114.9711;-12957.28;-3.849057;4.316744;-9630.567;-6748.168;-0.05139478;0.2298721;0;
-13367.91;-8837.548;166.9231;-18307.68;-14.09297;5.116201;-14633.56;-8224.767;0.2085262;-0.2251303;0;
-9896.096;-6993.824;44.56681;-13114.57;-10.32874;4.843129;-10715.99;-6365.667;0.1433494;0.03496526;0;
8909.807;5504.893;-267.0401;10954.7;-10.11729;4.838263;9763.334;4403.491;-0.116664;0.2947995;0;
13401.53;10486.17;-240.738;16757.99;-13.38868;4.900384;14339.39;9545.104;-0.05157948;-0.03033343;0;
11417.62;8546.554;-81.04501;14417.35;29.42553;4.091665;12241.67;7611.2;-0.116495;0.09963175;0;
13103.38;10355.22;-132.2815;16228.34;39.10788;3.149853;13938.53;9487.668;-0.1813453;0.164499;0;
12118.17;8682.077;-7.945416;15434.13;32.23705;6.763706;13050.23;7557.85;-0.2461304;-0.2254704;0;
-3726.043;-3377.745;316.134;-3576.052;39.6394;7.560583;-3932.342;-3588.739;-0.1159484;-0.1602765;0;
-15509.73;-10539.75;304.4315;-19666.51;5.036865;2.730398;-16813.12;-9136.733;0.2739722;-0.3550175;0;
-9546.076;-7207.172;134.4296;-13817.87;-3.474663;1.72291;-10255.7;-6947.914;0.3386642;-0.4196281;0;
-14193.02;-9339.574;174.0402;-19224.35;-1.327717;0.1136496;-15464.38;-8432.339;-0.1814148;0.230467;0;
-10658.36;-7516.632;44.7896;-13919.04;-7.287254;-1.828909;-11514.16;-6585.041;-0.6360039;0.2952028;0;
8764.612;5398.214;-270.3002;10731.88;-4.466893;-1.291268;9591.976;4256.489;-0.6353649;0.03503676;0;
13276.64;10349.22;-248.4769;16650.02;-7.074373;-2.830517;14225.41;9403.326;-0.05002037;0.1649363;0;
11227.14;8361.378;-84.091;14231.8;11.88805;-2.29181;12049.77;7443.983;0.07996457;-0.1600662;0;
12968.08;10218.13;-120.738;16105.88;18.30647;-2.490456;13806.03;9331.737;-0.3099198;-0.679644;0;
11944.78;8511.608;11.20765;15265.28;18.82394;-5.837039;12879.07;7410.854;-0.04973906;-0.3541245;0;
-3800.812;-3429.399;324.1016;-3662.351;25.43645;-6.032123;-4012.961;-3660.891;0.1452129;0.0360354;0;
-15578.2;-10562.26;293.9316;-19722.35;14.8947;-10.04492;-16882.14;-9145.329;-0.3097044;-0.02896815;0;
-9591.966;-7221.412;112.4929;-13905.04;13.47321;-11.64241;-10311.66;-6956.969;-0.2444258;0.0360283;0;
-14008.32;-9165.44;153.0625;-19059.34;17.81295;-6.94197;-15289.39;-8385.991;-0.1792129;0.1659268;0;
-10529.3;-7400.941;38.74738;-13733.73;16.12109;-7.068961;-11377.59;-6543.55;-0.2440002;0.2307274;0;
8739.411;5370.985;-271.9791;10726.82;14.16154;-3.578867;9570.658;4246.214;0.01611439;0.2954629;0;
13325.55;10399.92;-254.0428;16709.88;12.20492;-2.302595;14273.92;9449.424;0.08106554;0.3601334;0;
11318.2;8446.476;-77.86039;14351.34;8.17417;-6.252214;12143.44;7544.819;0.1459514;0.6846082;0;
13167.64;10424.27;-114.3888;16289.41;5.219196;-7.183631;14002.49;9517.93;0.1458048;0.4890183;0;
12200.86;8763.173;12.13139;15602.88;7.021637;-8.583055;13142.37;7698.995;0.1456583;-0.03121182;0;
-3358.04;-3086.024;336.2688;-3086.617;6.344996;-10.11498;-3558.898;-3448.532;0.2754466;0.3586236;0;
-14869.96;-9999.728;297.1067;-18737.38;-1.430911;-14.05675;-16140.57;-8967.541;0.1452351;0.2932959;0;
-8884.766;-6792.209;109.2461;-12680.76;-5.716381;-16.05205;-9543.711;-6708.958;0.01515453;-0.1617702;0;
-13058.63;-8672.232;170.2307;-17856.52;2.058895;-17.8444;-14303.05;-8160.734;-0.1797627;-0.03167296;0;
-9688.474;-6879.322;51.88464;-12760.63;1.855755;-19.434;-10491.98;-6280.741;-0.4394515;-0.1615758;0;
9099.62;5663.633;-258.7926;11225.78;-5.111358;-17.53901;9961.396;4566.23;-0.2441079;-0.2913482;0;
13576.55;10685.02;-220.9889;16934.52;-5.776783;-17.52139;14513.63;9736.479;-0.04896057;-0.1611207;0;
11607.13;8719.192;-52.21099;14672.72;-14.67959;-14.28866;12441.51;7841.924;0.01605597;-0.09599148;0;
13473.08;10735.2;-90.62357;16550.58;-18.68332;-11.72901;14295.57;9782.19;-0.04892751;-0.1608624;0;
12331.38;8900.263;44.36843;15844.9;-11.69833;-15.1333;13292.71;7948.059;-0.178813;0.09916865;0;
-2221.394;-2250.392;350.9354;-1692.587;-11.21806;-14.51524;-2287.044;-2997.585;0.01626867;0.2290037;0;
-12806.7;-8270.525;299.1867;-16320.81;-10.87199;-8.606342;-13948.07;-8401.371;-0.04871502;0.03387154;0;
-7365.59;-5779.885;114.9941;-10499.55;-7.712261;-6.052404;-7958.731;-6229.361;0.146236;0.09880486;0;
-11094.75;-7706.231;184.9371;-15481.83;-10.78597;-6.850057;-12204.44;-7649.947;-0.1137803;0.1636729;0;
-7997.308;-5792.571;80.63175;-10680.42;-9.234892;-5.034696;-8569.966;-5748.228;-0.9582415;0.09854113;0;
9468.546;6009.601;-237.6331;11927.22;-0.1832823;-3.95791;10432.21;4985.281;-0.6324419;0.2283768;0;
13978.34;11106.54;-225.2129;17243.18;3.702644;-3.351148;14880.94;10176.75;0.212769;-0.0966894;0;
12141.72;9244.939;-69.20557;15219.24;7.918482;2.479613;12983.01;8345.381;0.2775226;-0.3564616;0;
13911.16;11180.58;-108.6786;16963.38;10.92464;4.620514;14731.7;10252.78;0.2122764;-0.03126673;0;
12837.26;9416.538;23.98892;16374.74;15.53536;1.400751;13794.97;8466.935;0.4069651;-0.16117;0;
-1503.544;-1733.574;335.1209;-749.7515;18.26641;0.9975073;-1508.39;-2554.709;0.3415888;-0.2909427;0;
-11931.29;-7653.121;293.7735;-15133.53;13.62538;3.072915;-13001.47;-8138.521;0.01640889;-0.3556177;0;
-6725.897;-5333.875;99.21663;-9237.127;12.80839;2.868878;-7262.911;-5936.962;-0.1135423;-0.2902931;0;
-10973.39;-7668.713;158.8681;-15233.59;11.52272;-1.219902;-12144.7;-7575.466;-0.3083302;0.16477;0;
-8413.256;-5992.237;60.80461;-11612.16;10.37304;-3.362069;-9162.289;-5956.54;0.08178364;0.2295718;0;
9522.812;6135.612;-269.9496;11757.2;5.740918;-2.219981;10417.25;5128.346;0.4715055;0.09940644;0;
14430.01;11522.63;-260.9172;17730.85;3.323276;-2.820597;15354.97;10586.27;-0.04870699;0.1642739;0;
12376.39;9514.881;-75.23258;15449.59;7.070981;-6.836617;13212.22;8642.203;0.01630929;-0.2256952;0;
14346.74;11578.33;-111.951;17361.6;7.332295;-7.499577;15161.22;10623.02;0.1462276;0.03440092;0;
13078.56;9741.343;0.65183;16695.94;5.649989;-11.10906;14044.01;8848.856;-0.1137887;0.2942357;0;
-601.115;-1240.461;317.9604;259.8185;4.371514;-13.77715;-543.4933;-2165.815;0.01626031;-0.2257987;0;
-10209.1;-6707.357;292.6223;-13092;16.42356;-3.64913;-11150.44;-7625.769;-0.1786581;-0.2905391;0;
-5179.071;-4561.833;111.5753;-7133.315;21.4309;-2.104856;-5628.759;-5452.866;0.08139084;-0.2252798;0;
-8291.238;-6398.777;178.5857;-12027.23;6.40519;-3.509382;-9304.8;-6894.582;0.4711131;-0.2900208;0;
-5999.055;-4517.758;73.61522;-8262.345;4.858512;-0.9605658;-6429.375;-5052.639;0.08083567;-0.09482738;0;
10031.79;6676;-248.7967;12859.33;9.073189;-9.466189;11064.44;5733.222;0.1457218;0.295072;0;
14728.36;11834.88;-217.2343;17880.47;7.724902;-10.39444;15603.69;10930.77;-0.04932665;0.4247102;0;
12856.23;10003.55;-35.79466;15966.02;13.27684;-7.838704;13705.36;9107.195;0.08065759;-0.030488;0;
14984.3;12207.71;-90.84038;17987.66;14.67002;-8.366691;15794.61;11290.88;0.5353479;-0.160392;0;
13787.23;10508.93;11.63693;17386.8;15.39222;-1.325198;14750.77;9606.157;0.01507128;-0.09526354;0;
345.6247;-656.9885;320.3138;1513.032;18.92673;1.087458;474.2133;-1560.246;-0.1798459;-0.1601352;0;
-8790.303;-6284.655;292.7557;-11308.33;9.664307;3.765622;-9646.332;-7196.704;0.08020419;0.2298298;0;
-4266.521;-4183.05;100.0114;-5838.8;8.51552;7.378855;-4627.97;-5070.506;0.01515626;0.2945662;0;
-7861.877;-6145.124;150.9633;-11495.73;18.01878;3.888329;-8837.248;-6721.205;0.01514103;0.2293029;0;
-5831.151;-4472.928;46.02057;-8342.646;18.93771;4.621234;-6285.834;-5080.429;-0.04984152;0.2290725;0;
10136.36;6822.891;-282.0483;12835.52;27.02398;7.697805;11161.21;5901.034;-0.1797261;0.09890763;0;
15108.78;12218.59;-259.7447;18281.53;31.01531;7.623087;15987.93;11320.85;-0.04961085;0.423645;0;
13206.54;10370.4;-88.99129;16305.46;25.69286;11.03144;14055.79;9486.2;0.535145;0.3582519;0;
15256.22;12468.78;-148.3876;18257.09;26.80515;11.69018;16066.65;11559.56;0.07983597;-0.03191211;0;
13804.21;10587.96;-26.51842;17431.58;24.43467;9.601963;14769.5;9702.621;-0.5699177;0.0330873;0;
661.5304;-541.7167;284.3988;1871.07;23.27104;10.19516;797.7507;-1443.577;-0.04960628;-0.03191329;0;
-8132.777;-6065.239;254.6123;-10473.39;23.24765;2.749995;-8962.692;-6959.385;-0.04955644;-0.09684856;0;
-3638.469;-3932.011;85.78491;-4984.29;21.08084;-0.3339224;-3874.427;-4816.684;-0.309376;0.03318344;0;
-6213.455;-5383.5;141.9205;-9484.563;25.54764;6.230618;-7016.046;-6233.192;-0.2440978;0.09811745;0;
-4247.806;-3526.241;28.75654;-6029.703;25.72304;6.157375;-4608.859;-4378.983;-0.1788852;0.0330515;0;
10510.05;7261.741;-297.2335;13576.89;23.21894;5.481359;11554.21;6377.2;-0.1787055;0.162953;0;
15306.66;12425.28;-271.432;18361.15;23.99892;5.944732;16176.18;11547.46;-0.1785259;-0.09708013;0;
13322.69;10499.38;-76.16357;16450.44;14.06182;4.5991;14172.38;9613.538;-0.1133792;-0.3568519;0;
15355.94;12561.45;-97.49815;18339.56;9.559713;4.661461;16161.82;11672.34;-0.3081672;-0.291526;0;
14031.09;10880.73;38.50025;17647.02;20.66952;4.388846;14993.44;9997.134;0.08194643;-0.09633108;0;
1289.323;-208.683;342.996;2648.908;20.91619;4.71935;1442.646;-1097.527;0.5366355;-0.03126695;0;
-7021.14;-5786.014;301.9062;-9163.146;18.48428;3.84383;-7830.55;-6673.293;-0.0486098;-0.03123553;0;
-2805.185;-3587.552;126.2847;-3713.907;20.34074;3.906951;-2966.138;-4465.241;-0.3084303;0.3585999;0;
-5611.283;-5168.463;177.8818;-8537.124;8.866098;5.37665;-6346.254;-6034.682;0.08168364;0.2283049;0;
-3960.128;-3506.759;56.10796;-5796.951;5.776707;5.639179;-4334.448;-4376.667;0.1465689;-0.4215979;0;
10562.19;7392.616;-271.565;13569.05;13.54043;8.178742;11596.85;6517.896;0.1464216;-0.2912396;0;
15574.18;12696.08;-248.0694;18647.68;13.39311;8.773371;16443.03;11824.38;0.08130717;0.03388973;0;
13583.65;10773.53;-70.22192;16689.98;15.38938;10.84103;14426.77;9894.088;0.08122546;-0.09607901;0;
15579.04;12798.44;-123.687;18555.83;15.90978;12.50471;16381.66;11916.03;0.01617651;-0.1609498;0;
14117.19;11004.31;-7.933296;17725.29;19.64386;6.195868;15074.07;10125.23;-0.1137744;-0.4856248;0;
1526.795;-118.4542;323.7829;2874.738;23.24145;5.050932;1673.574;-1000.775;0.2761439;-0.5501041;0;
-6503.329;-5651.46;311.6042;-8636.101;12.90297;5.58172;-7326.038;-6532.223;0.5357358;0.100122;0;
-2563.912;-3509.277;114.6868;-3539.762;12.75628;3.70059;-2674.729;-4381.659;0.1453935;0.2299561;0;
-5324.79;-5076.805;151.9902;-8353.05;13.54677;8.519521;-5984.33;-5945.077;0.2751821;0.229725;0;
-3592.12;-3352.756;58.88424;-5363.608;11.5244;9.515704;-3961.783;-4222.513;0.3398729;0.03459216;0;
10505.03;7372.88;-243.9758;13584.95;25.37792;6.89393;11530.29;6505.776;-0.11524;-0.03040995;0;
15420.62;12560.45;-228.3947;18448.28;27.83067;8.293523;16287.98;11694.24;0.1447452;0.424392;0;
13507.61;10698.14;-67.71457;16599.18;27.73536;4.266335;14343.28;9824.108;0.07963239;0.4239656;0;
15369.32;12626.16;-109.8597;18329.97;29.98466;4.195066;16167.45;11750.11;-0.375219;0.09870288;0;
13920.27;10788.39;22.07507;17505.53;22.98831;7.473014;14871.45;9914.53;0.2098641;-0.226233;0;
1243.129;-248.3878;336.1606;2570.223;22.1619;7.398522;1383.689;-1125.434;0.8593266;0.1637984;0;
-6978.473;-5811.967;299.6223;-9196.399;19.79511;15.69673;-7817.796;-6686.429;0.2737571;0.2286011;0;
-2822.171;-3639.247;106.262;-3791.621;20.44481;18.09222;-2929.144;-4504.367;-0.2462567;-0.0964653;0;
-5431.741;-5142.271;160.4249;-8437.161;6.559162;18.6099;-6067.418;-6003.772;0.1437948;0.4883377;0;
-3843.376;-3512.311;52.33353;-5767.755;-1.216961;20.93561;-4213.719;-4374.774;0.07868294;0.292945;0;
10423.49;7298.942;-282.0354;13409.11;30.86872;12.74277;11442.18;6440.141;-0.5061022;-0.4869575;0;
15509.16;12661.78;-254.3907;18553.21;36.12899;10.65362;16373.98;11804.3;-0.2457243;-0.03169677;0;
13441.32;10665.53;-67.90063;16527.61;25.91128;10.91085;14272.67;9800.345;-0.05057536;0.4231065;0;
15352.4;12595.58;-126.7247;18305.51;27.56018;7.751688;16148.2;11728.74;-0.1804592;0.03287728;0;
14047.59;10983.76;-21.33775;17627.24;18.82495;11.76287;14997.7;10120.51;0.4044282;0.09781159;0;
1658.068;-30.05497;291.3859;3011.4;16.05937;11.61709;1803.4;-896.7677;0.3390545;0.3575827;0;
-6311.843;-5606.644;279.5208;-8465.108;10.61823;4.438365;-7149.866;-6473.266;-0.2459923;0.03238666;0;
-2466.868;-3471.19;123.3808;-3360.79;7.057586;2.558444;-2548.444;-4328.915;-0.2457451;-0.3574499;0;
-5111.012;-5059.98;178.276;-8033.125;5.442904;2.153976;-5705.124;-5913.5;0.01437117;-0.2921234;0;
-3398.328;-3304.291;60.1874;-5214.7;3.829845;0.4103164;-3762.021;-4159.078;0.07932407;-0.1618952;0;
10634.19;7553.932;-248.9677;13672;6.103172;3.022177;11648.94;6703.924;-0.2455923;-0.1617325;0;
15630.5;12803.75;-224.1518;18638.84;5.963318;3.956841;16494.79;11955.22;-0.3103129;-0.03163535;0;
13681.97;10920.92;-62.46082;16752.96;18.81707;-2.075416;14510.64;10063.43;0.1447703;0.03336378;0;
15653.7;12904.66;-116.9956;18583.41;24.22415;-3.613938;16445.61;12044.75;0.07965748;-0.1615718;0;
14137.17;11125.64;-2.326263;17708.4;18.57275;3.020882;15082.97;10269.35;-0.3102266;-0.03147474;0;
1938.204;71.43451;324.4337;3315.571;19.35838;4.290461;2082.34;-787.1808;-0.5048169;0.09849159;0;
-5722.457;-5466.432;300.7444;-7853.82;24.63021;3.214484;-6569.514;-6324.138;-0.4393423;-0.2914114;0;
-2081.159;-3276.381;101.714;-2753.27;26.74891;4.818783;-2104.841;-4126.15;-0.1140642;-0.4210533;0;
-4705.341;-4872.394;167.3132;-7290.237;13.79494;1.062958;-5181.116;-5719.108;0.4057892;0.09910851;0;
-3136.54;-3267.662;72.39581;-4805.204;9.025659;0.1241901;-3456.634;-4115.523;0.2754467;0.09900893;0;
10637.91;7608.859;-272.5036;13684.13;17.52306;4.678783;11644.36;6764.629;-0.04966673;-0.2259273;0;
15763.68;12958.07;-258.2993;18751.54;16.90224;4.40615;16628.2;12114.39;0.1452852;-0.03079824;0;
13697.61;10938.09;-59.63948;16752.92;9.852654;6.947074;14522.01;10087.42;0.2750739;-0.09573464;0;
15527.25;12819.65;-99.46575;18452.22;7.364508;8.212647;16317.52;11967.58;0.07989548;-0.2255731;0;
14135.71;11113.43;19.35576;17691.85;10.57229;1.975165;15078.85;10263.88;0.1447825;0.03452289;0;
1859.641;56.98502;343.2048;3290.194;10.76176;1.169385;2024.314;-795.2125;0.07966972;0.3593249;0;
-6000.621;-5568.932;307.5339;-8025.114;9.143357;0.632408;-6800.441;-6420.242;-0.245247;0.4239312;0;
-2332.12;-3428.097;110.5581;-3015.533;11.34497;0.4308237;-2382.092;-4270.196;-0.1150659;0.09866855;0;
-4823.758;-4958.975;163.4985;-7466.389;3.09455;-1.311165;-5392.371;-5795.949;0.4047884;0.1635367;0;
-3135.07;-3246.959;65.10236;-4765.366;0.6805433;-2.716429;-3494.342;-4085.857;0.01457764;0.1633724;0;
10535.29;7520.673;-239.4194;13610.58;15.08082;6.127865;11542.39;6685.43;-0.2453064;-0.4214978;0;
15526.74;12741.27;-221.3909;18500.86;16.47219;7.461245;16385.95;11907.87;0.3396462;-0.2261723;0;
13598.35;10842.85;-74.55463;16651.71;21.00999;9.262286;14419.25;10001.42;0.2093702;0.2937937;0;
15369.33;12705.95;-129.2803;18301.26;23.19968;11.46342;16155.92;11863.89;0.2741272;-0.09630554;0;
13897.45;10837.18;-0.1371251;17449.57;17.68402;3.146197;14837.85;9998.997;0.5337211;-0.4210455;0;
1307.275;-226.7453;321.1234;2686.685;18.26848;1.334497;1440.803;-1068.523;0.2083481;-0.2257204;0;
-6845.941;-5853.658;310.5715;-9012.666;4.251303;0.5294217;-7704.61;-6693.48;0.01323675;-0.03059156;0;
-2825.674;-3680.818;135.4098;-3708.053;0.02747238;-1.212667;-2930.281;-4511.598;0.07819079;0.03440652;0;
-5561.286;-5243.957;185.2487;-8465.153;1.366615;-3.421824;-6183.293;-6069.405;0.01314488;-0.03059539;0;
-4051.173;-3711.924;79.74045;-6018.623;-0.7108627;-5.025915;-4447.887;-4539.557;-0.1817704;-0.03056465;0;
10136.07;7105.151;-246.6288;13071.3;5.38542;-2.542557;11135.24;6280.959;-0.05165303;-0.1604686;0;
15196.89;12420.26;-229.5769;18218.62;6.92025;-2.673968;16058.29;11597.46;0.2732356;-0.1603074;0;
13103.87;10357.14;-52.74751;16135.29;16.1567;0.07495766;13919.72;9523.902;0.2079937;-0.03021162;0;
14835.09;12216.9;-96.00086;17765.61;20.89589;1.146548;15624.94;11387.48;0.4676541;0.2296881;0;
13617.95;10499.48;23.14513;17148.26;22.81727;-0.1272185;14555.76;9668.401;0.1423475;0.16449;0;
597.9584;-636.5229;342.9767;1862.518;26.68009;-0.06010775;725.4366;-1464.77;-0.6374037;-0.355414;0;
-8118.527;-6293.665;318.4099;-10485.29;22.23167;-0.2609962;-8982.038;-7124.28;-0.1819918;-0.2900896;0;
-3807.22;-4107.14;118.0187;-5076.341;21.6071;-0.126768;-4048.41;-4927.176;0.3379298;0.1649733;0;
-6957.278;-5802.159;178.8538;-10239.33;21.65274;-6.088;-7769.704;-6530.979;0.4025576;-0.09506184;0;
-5216.065;-4180.094;91.0775;-7405.492;20.29083;-8.493207;-5665.045;-4921.753;0.07731637;-0.224901;0;
9802.567;6719.301;-239.4417;12649.75;16.5194;-4.197887;10802.72;5898.396;-0.3125654;0.2950637;0;
14711.5;11936.05;-227.5663;17746.44;14.62777;-3.791772;15569.51;11122.56;0.1425201;0.2297999;0;
12705.96;9981.595;-49.5364;15714.09;14.14358;-6.333252;13519.84;9157.022;0.3372789;-0.4201044;0;
14430.09;11831.16;-89.96628;17359.57;13.05764;-5.858008;15218.63;11017.01;0.0121033;-0.02987826;0;
13144.42;9984.306;23.00488;16639.44;11.50428;-6.521951;14077.85;9152.743;0.4018952;0.2949885;0;
-201.0276;-1086.605;332.8104;890.4044;8.47861;-7.587064;-99.62498;-1897.575;0.5963934;-0.1600793;0;
-9384.506;-6695.38;316.281;-12063.28;18.6515;2.33379;-10287.19;-7525.323;-0.3137487;-0.2898532;0;
-4978.818;-4641.213;127.2612;-6672.359;19.77085;5.613547;-5357.946;-5445.226;-0.1185314;-0.2895619;0;
-8662.539;-6641.433;158.2427;-12322.5;13.72277;-1.760033;-9635.55;-7043.62;0.4662938;-0.0294016;0;
-6656.526;-5003.798;48.07647;-9251.029;14.98178;-1.624359;-7153.049;-5451.964;0.07602122;0.6203014;0;
9349.058;6220.294;-261.5194;11970.28;-3.988591;-3.230256;10339.68;5379.572;0.01097749;0.229874;0;
14288.24;11527.61;-243.9372;17371.65;-11.15188;-5.370403;15144.91;10713.45;-0.05400088;-0.6149324;0;
12220.77;9501.225;-80.5397;15213.15;-0.6244757;-0.1404605;13034.52;8688.168;-0.1838813;-0.4194125;0;
13902.31;11340.65;-135.5405;16844.27;-3.906378;-0.07333646;14686.24;10529.98;-0.05376185;0.165715;0;
12860.19;9631.519;-17.02627;16335.51;-4.70576;-2.283638;13788.74;8801.479;-0.3785445;0.1005812;0;
-1066.098;-1513.577;305.7349;-149.8266;-9.523803;-1.946429;-1009.842;-2306.911;-0.4431315;0.1654475;0;
-11049.05;-7215.674;284.079;-14018.03;-2.414286;-6.432269;-12036.02;-8017.377;0.01208513;-0.02962082;0;
-6117.77;-5092.394;110.7399;-8143.878;-2.077068;-6.827642;-6612.38;-5865.181;-0.05289435;-0.4193951;0;
-10105.6;-7450.089;176.1426;-13960.83;-20.82923;-8.495356;-11199.24;-7479.488;-0.1827759;-0.483941;0;
-8042.133;-5842.235;83.49647;-10930;-20.74192;-10.2953;-8636.612;-5971.056;-0.3125269;-0.8082914;0;
8797.956;5666.962;-232.6317;11238.32;-53.87629;-0.03680782;9746.455;4793.614;-0.1822782;-0.6125773;0;
13652.76;10870.18;-220.5602;16810.32;-67.01767;3.245332;14522.35;10068.6;0.2726763;0.2326137;0;
11539.32;8853.704;-45.22342;14486.09;-27.83327;-1.513656;12338.57;8027.001;0.402337;0.3623146;0;
13149.35;10589.24;-95.15286;16155.48;-21.97816;-0.5743743;13942.76;9818.594;-0.117806;0.2969832;0;
12152.58;8886.282;21.16558;15523.96;-20.21476;2.507357;13065.97;8001.042;-0.1176876;0.1667502;0;
-2506.172;-2429.432;342.8888;-1928.166;-12.49129;3.576503;-2640.085;-3088.661;0.6620387;-0.1582541;0;
-13176.13;-8532.703;320.3836;-16681.95;-3.838553;2.63521;-14365.66;-8698.518;0.4015042;-0.02816042;0;
-7862.246;-6177.372;137.5909;-10955.42;4.069534;2.297647;-8475.025;-6543.293;-0.1836053;0.1018026;0;
-12537.88;-8760.895;184.6164;-17073.22;-1.896402;4.170799;-13786.83;-8173.943;0.01148118;0.2966023;0;
-10051.26;-7118.803;79.84284;-13278.17;-2.028219;4.501523;-10828.95;-6640.043;-0.118465;0.1663696;0;
8131;4993.781;-246.6514;10260.29;5.007393;0.9469656;9006.595;4072.388;-0.3782154;0.03626774;0;
12924.99;10132.37;-228.2721;16143.7;6.609952;-0.05866885;13812.3;9316.564;-0.2479007;0.361068;0;
10826.07;8158.858;-37.06059;13743.58;-8.267144;-0.2595587;11620.72;7344.439;0.07718514;0.2307705;0;
12555.51;9978.476;-100.1323;15586.64;-11.80881;-1.264042;13352.97;9236.979;0.1420749;-0.02933073;0;
11684.65;8426.568;2.697972;14933.13;-12.06439;-0.1240619;12588.83;7458.588;0.2718669;0.1656008;0;
-3813.9;-3426.492;327.6413;-3667.552;-15.60224;-0.3248861;-4019.325;-3690.978;0.2715937;0.03549968;0;
-15368.3;-10282.58;287.0823;-19396.18;-4.735572;-0.3915425;-16680.17;-9280.271;-0.05351593;-0.09447066;0;
-9541.69;-7194.832;96.62381;-13361.71;-3.05685;-0.1902003;-10233.14;-7033.305;-0.1184295;-0.2243104;0;
-14247.86;-9552.897;174.144;-19147.92;-0.3071125;-1.663573;-15538.77;-8626.09;-0.05334315;0.1007517;0;
-11289.91;-7992.922;79.15726;-14673.59;2.841028;-2.197765;-12202.88;-6996.799;-0.05328956;0.2955525;0;
7985.531;4812.739;-248.3514;9880.523;-2.654183;-0.2531123;8779.024;3838.757;-0.05323601;-0.2244833;0;
12809.33;10054.67;-223.9422;16051.72;-3.18738;0.4169714;13720.86;9206.543;-0.2480845;-0.2242577;0;
10842.14;8143.478;-54.34916;13776.37;-1.241794;-2.463653;11635.61;7401.664;-0.1828679;-0.2889997;0;
12755.69;10192.51;-121.8075;15709.25;-0.9057536;-2.796092;13546.01;9349.213;-0.1177168;-0.3536766;0;
11708.55;8452.015;1.830943;15084.6;-9.879825;-0.7838553;12632.96;7628.647;0.1422708;-0.1584193;0;
-2782.83;-2637.424;330.6013;-2480.781;-13.68829;-0.1802213;-2916.169;-3297.592;0.4019972;-0.2881947;0;
-13548.09;-8708.439;307.1089;-17238.84;-2.622474;-0.04607437;-14752.73;-8797.996;-0.1181454;0.1018989;0;
-7940.727;-6211.206;123.9235;-11086.9;0.7290633;0.3558695;-8568.19;-6553.124;0.0768753;0.6215352;0;
-11796.24;-8287.074;156.5169;-16305;-11.6629;3.905485;-12979.14;-7985.488;0.4666021;0.490976;0;
-9189.866;-6560.268;45.33733;-12133.24;-12.99133;5.978032;-9862.316;-6260.14;0.07632921;0.360548;0;
8793.942;5559.455;-258.2275;11073.64;-2.394728;3.292769;9710.558;4653.933;0.1412199;0.2302511;0;
13727.79;11005.41;-246.0678;16875.34;-1.254222;3.825263;14601.42;10177.56;0.4009473;-0.09481703;0;
11806.44;9108.658;-85.94778;14791.39;7.320853;5.161078;12617.03;8358.302;0.1406751;-0.02975441;0;
13722.56;11138.96;-136.5859;16618.74;12.20362;4.820977;14502.4;10293.64;0.0755664;0.03524283;0;
12626.23;9450.725;-5.904925;16132.76;2.813257;10.37559;13561.21;8676.078;0.4652945;-0.02975993;0;
-1021.576;-1528.101;332.5715;-126.4693;2.744057;12.64247;-960.2294;-2339.95;0.3348923;0.165172;0;
-10912.89;-7202.681;306.8126;-13832.75;0.6651947;6.06568;-11884.05;-7998.738;-0.1202156;-0.02989599;0;
-5810.671;-4980.511;112.5706;-7763.582;-2.819074;5.054842;-6281.72;-5766.053;0.07480723;-0.3547027;0;
-9500.193;-7103.374;151.0006;-13293.98;5.757574;7.594992;-10564.03;-7320.709;0.3995688;-0.02950954;0;
-7529.977;-5500.008;29.94087;-10400.74;6.622445;6.85067;-8109.397;-5784.778;0.3991673;-0.09444723;0;
8955.197;5834.512;-281.8544;11412.66;-3.766686;7.714442;9909.494;4992.308;0.2038642;0.03558235;0;
13800.2;11034.41;-244.6991;16954.12;-6.10645;7.237933;14664.72;10267.03;0.138692;0.2304486;0;
11779.57;9096.336;-60.43633;14724.08;-6.837248;6.895745;12578;8262.058;0.3334546;-0.0296523;0;
13316.29;10775.17;-109.6946;16357.38;-9.577044;7.156748;14110.88;10059.97;-0.05668446;-0.0296225;0;
12332.27;9058.362;1.968963;15682.95;-6.754382;1.322103;13245.16;8151.226;-0.1865622;0.3602113;0;
-2658.078;-2523.579;327.5065;-1954.156;-7.082388;-0.6216698;-2746.604;-3093.614;0.0085273;0.294882;0;
-13682.55;-8908.879;307.2499;-17194.47;-10.29045;1.455365;-14888.71;-8860.417;-0.05644861;0.1646511;0;
-8588.264;-6539.661;131.217;-11922.19;-10.88235;0.5162023;-9256.681;-6799.343;0.4633468;0.1644856;0;
-14118.12;-9722.455;197.5361;-18632.16;-12.21156;2.793042;-15377.52;-8574.817;0.5278486;-0.1605164;0;
-11515.64;-8145.974;78.55361;-15019.62;-13.0026;3.861902;-12453.87;-7183.366;0.2674489;-0.4202245;0;
7390.624;4324.385;-258.5903;9256.321;-12.78846;1.245748;8177.841;3410.515;0.5920168;-0.2249002;0;
12204.59;9376.436;-243.1974;15524.85;-13.51255;1.579411;13135.55;8582.269;0.5264546;-0.09473953;0;
10051.13;7451.867;-64.49588;12903.47;-10.21741;2.381619;10802.25;6595.889;-0.1237478;0.03529035;0;
11409.39;8766.777;-105.4417;14636.95;-8.398488;2.91509;12284.88;8192.643;-0.3185255;-0.2246145;0;
10604.59;7457.591;22.27197;13473.49;-14.01613;3.84986;11361;6219.727;0.2015333;-0.6141928;0;
-7114.848;-6069.685;348.1951;-7598.959;-13.93567;4.24789;-7597.834;-5129.478;0.2013308;-0.2237716;0;
-21274.59;-15053.07;300.2754;-26175.87;-10.03593;7.525663;-23055.85;-10897.44;-0.1237082;-0.02864477;0;
-15063.06;-10696.34;106.1805;-20672.61;-8.017086;9.259658;-16767.05;-8782.404;-0.1885512;-0.3534527;0;
-21538.35;-14427.36;127.0789;-26925.91;-6.535162;5.70038;-23213.91;-11439.18;0.2014423;-0.2881302;0;
-17961.01;-12657.65;-34.37398;-22093.79;-4.653561;5.024823;-18975.65;-9847.181;0.5260766;-0.157906;0;
5302.913;2868.43;-326.3645;5946.951;-1.902219;8.033884;5792.021;1789.931;-0.05915808;-0.09277999;0;
10841.7;7828.537;-275.7181;14276.82;-2.770964;7.690897;11818.93;6971.153;-0.3839354;-0.1576541;0;
8324.632;5788.958;-90.69021;11248.97;11.63278;9.491708;9083.397;5029.183;-0.1886475;-0.4823324;0;
9952.211;7196.884;-133.4213;13116.13;16.64494;11.08976;10825.44;6524.782;-0.05852331;-0.3519131;0;
9141.988;6241.972;-29.76116;11962.7;-1.858588;2.237054;9826.321;5022.196;0.2014049;0.1032119;0;
-10522.13;-8356.277;274.6002;-11359.83;-4.201245;-0.04255251;-11227.61;-6944.041;0.1362351;0.03814087;0;
-27210.13;-19272.51;153.4787;-32037.68;-7.948068;5.24902;-28924.93;-14290.54;-0.1887385;-0.09183214;0;
-20297.05;-13685.37;-81.02645;-25705.58;-11.62378;4.841848;-21892.7;-10883.17;-0.2535161;-0.09173986;0;
-25378.42;-17150.87;-12.76056;-30655.72;-9.737063;6.846471;-27012.26;-12681.4;-0.1882941;-0.02668034;0;
-20444.46;-14881.63;-133.9993;-24794.24;-11.66966;7.30835;-21458.02;-11244.7;0.2016992;0.1032812;0;
4742.303;2707.835;-377.2267;5017.625;-6.701444;7.434972;5159.688;1514.955;0.3963985;0.1681447;0;
10778.92;7679.411;-299.2929;14204.76;-7.163225;8.29828;11764.29;6843.738;-0.05877116;-0.09189361;0;
8345.248;5736.401;-134.7154;11299.89;5.637347;5.275832;9118.824;4955.354;0.006255237;-0.221736;0;
10478.72;7842.248;-169.1095;13590.54;13.40121;5.94036;11338.28;7139.509;0.4610204;-0.2215132;0;
9746.541;6591.461;-45.95453;12645.8;-10.9262;1.647544;10470.13;5393.787;0.2656551;-0.4161926;0;
-8817.629;-7022.337;284.5974;-9630.385;-14.19775;0.5072401;-9513.964;-5802.805;0.005518785;-0.6106764;0;
-23398.03;-16581.77;237.132;-28323.35;-5.141156;7.67366;-25158.82;-11832.6;0.2004153;-0.2852261;0;
-15922.86;-11295.85;33.66777;-21523.63;-8.216474;9.407506;-17581.11;-9192.497;0.0702792;-0.1550048;0;
-21201.99;-14095.32;85.233;-26686.29;8.737367;13.14898;-22923.77;-11078.57;-0.0597261;-0.2847838;0;
-17047.41;-12220.28;-55.17273;-20827.31;15.42737;15.81508;-17923.29;-9357.332;-0.05966608;0.04033909;0;
6479.373;3843.288;-355.8411;7422.961;-4.883595;16.66997;7053.367;2628.332;-0.1245735;0.2352006;0;
11873.43;8942.877;-297.8094;15283.86;-6.285208;17.59086;12834.89;8099.205;0.005486383;-0.2198071;0;
9698.195;6995.584;-129.3447;12670.07;-1.590819;20.78836;10511.46;6257.645;0.1354156;-0.544423;0;
11803.26;9232.739;-180.0017;14808.03;-3.396906;22.37494;12586.1;8395.154;0.07031214;-0.3489739;0;
11005.91;7691.279;-44.51389;14275.16;5.314044;14.71665;11937.59;6747.09;0.3950782;-0.02378656;0;
-4671.621;-4099.417;296.1253;-4859.87;6.916295;13.3622;-5001.523;-4105.707;0.7195179;0.106172;0;
-16916.19;-11611.61;270.6685;-21137.01;4.966962;11.0045;-18303.87;-9631.895;0.2640236;0.1710327;0;
-10270.06;-7747.914;77.80582;-14539.09;6.16742;8.71602;-11016.48;-7252.611;-0.1260458;0.04092615;0;
-14349.95;-9515.549;136.4169;-19420.22;0.2667254;12.45818;-15650.42;-8626.285;-0.3208211;-0.2189843;0;
-11484.6;-8141.033;49.29229;-14763.34;-1.542204;11.57501;-12383.48;-7013.814;-0.4504335;-0.08882962;0;
7946.02;4769.225;-254.7607;9821.647;-1.608003;16.92189;8733.494;3753.855;-0.3200462;0.1061617;0;
12783.8;9982.372;-236.4981;16078.43;-3.949936;18.91425;13709.6;9146.637;-0.1897899;0.04108765;0;
10799.29;8083.9;-70.92171;13730.1;-1.937211;12.86691;11595.7;7291.436;0.2651722;-0.08888832;0;
12521.32;9922.334;-119.0918;15545.26;-2.403779;11.64841;13327.11;9136.491;0.4598078;-0.1537663;0;
11631.95;8340.498;6.964532;14917.02;-3.473091;12.50736;12546.44;7385.655;0.1994764;0.1712249;0;
-3693.748;-3356.96;319.1288;-3497.481;-1.92936;11.3562;-3906.133;-3639.603;-0.06059343;0.04111813;0;
-15602.06;-10487.22;287.6206;-19668.46;-9.898024;6.856937;-16930.08;-9311.265;-0.1254999;-0.2187925;0;
-9779.979;-7358.906;120.1813;-13903.52;-11.76311;4.706715;-10500.2;-7146.243;0.1994629;-0.28354;0;
-14608.2;-9774.825;186.3085;-19632.92;-1.838307;1.419883;-15896.12;-8703.213;0.004360476;-0.3482225;0;
-11888.76;-8356.82;79.11255;-15553.25;-0.3625911;-1.595715;-12876.97;-7250.429;-0.5153826;-0.3478726;0;
7420.111;4327.549;-248.1931;9117.91;0.03893883;2.826701;8171.99;3350.5;-0.1900281;-0.08765368;0;
12310.87;9452.747;-247.9437;15642.73;-0.5633367;3.627595;13255.09;8620.515;0.1349996;0.1723038;0;
10057.03;7388.782;-68.6127;12907.33;7.943696;-2.002494;10812.64;6523.964;0.06989659;-0.0227714;0;
11371.62;8715.937;-100.3403;14543.72;11.28462;-2.067465;12238.58;8076.75;-0.1250757;-0.1526832;0;
10805.19;7573.608;-4.537562;13718.02;-4.735277;-0.1228825;11591.31;6347.063;-0.5147541;-0.08756244;0;
-6498.243;-5612.44;306.8261;-7028.066;-6.06969;0.9489069;-6996.877;-4834.338;-0.2543674;-0.02250711;0;
-20417.2;-14520.32;283.6231;-25447.16;-14.90583;3.225312;-22163.74;-10632.14;-0.05920983;0.3023522;0;
-13725.94;-10029.84;81.92371;-19451.64;-20.18213;4.226815;-15296.91;-8377.321;-0.3190197;0.2370811;0;
-19884.42;-13280.12;116.1054;-25457.12;-5.827263;10.18393;-21540.87;-10693.63;-0.05882979;0.2368429;0;
-16849.94;-11826.88;-3.060783;-20974.9;-4.749681;12.25004;-17806.19;-9265.749;0.006196666;0.3665396;0;
5840.436;3208.938;-298.4249;6616.582;0.07688624;11.76898;6434.168;2114.314;-0.5135483;0.04133454;0;
11231.06;8211.589;-262.393;14630;3.024546;12.62781;12199.08;7316.042;-0.1881956;-0.02367434;0;
8807.032;6210.308;-87.81068;11699.48;4.830168;8.26135;9569.125;5411.239;0.2017976;0.1062841;0;
10629.39;7864.999;-121.1119;13773.64;7.973146;6.578597;11508.53;7167.541;-0.1232419;0.04121;0;
9819.218;6776.202;10.03766;12664.37;-1.210917;7.643591;10524.39;5514.401;-0.1880854;0.1711033;0;
-9233.576;-7483.193;322.9953;-10081.57;-2.81729;8.238758;-9926.876;-6150.982;0.2019076;0.105964;0;
-25081.13;-17733.16;227.9839;-30075.35;-3.819813;-0.6780066;-26854.93;-12868.66;0.07177007;0.04089019;0;
-18431.6;-12618.51;-0.2399172;-23994.42;-5.959429;-3.021667;-20084.87;-10102.59;-0.05823672;-0.02411824;0;
-23865.63;-16067.09;45.87777;-29282.74;-6.489305;6.760572;-25543.36;-12064.97;0.2016912;0.1058407;0;
-19213.78;-13835.67;-90.5529;-23533.64;-8.49154;8.495336;-20196.1;-10477.25;0.006586475;0.235669;0;
5233.549;2998.183;-364.8865;5664.543;-4.397171;13.71135;5710.399;1754.03;-0.1883222;-0.1543718;0;
11010.67;7910.512;-282.4048;14450.79;-4.527451;17.44849;11997.97;7056.585;0.4615405;-0.08924939;0;
8538.167;5875.145;-94.3561;11490.08;-0.9055788;16.35935;9316.3;5059.604;0.5910114;0.04077498;0;
10402.12;7734.726;-124.6367;13535.14;2.042092;17.61547;11267.81;6999.122;0.1356462;-0.08920068;0;
9856.088;6626.054;7.312949;12786.99;-8.542531;20.07614;10595.99;5413.21;0.1355099;-0.1540784;0;
-8382.918;-6805.309;320.1952;-9144.311;-9.806746;20.72579;-9062.761;-5682.732;0.3302757;-0.2188909;0;
-23163.11;-16531.45;240.6477;-28056.13;-9.127306;16.68612;-24914.03;-11807.96;0.1350418;-0.02376894;0;
-15237.24;-10911.33;17.7053;-20868.29;-11.93117;15.59762;-16872.72;-8989.768;-0.5147673;0.3010917;0;
-19452.34;-12701.88;77.57928;-24985.22;-0.6660528;12.90263;-21158.06;-10317.08;-0.3843153;0.2358218;0;
-15672;-11155.06;-25.74365;-19263.2;2.482448;11.75096;-16487.69;-8686.511;0.005874865;0.04068279;0;
6777.742;3968.392;-315.4628;7955.923;-7.566754;9.662802;7412.283;2760.89;-0.3189678;-0.1542601;0;
11993.28;9046.304;-274.4006;15411.99;-8.630877;8.112485;12954.29;8178.125;0.07115681;-0.2840398;0;
9851.014;7115.04;-103.8199;12836.48;-6.277681;14.66854;10671.48;6339.422;0.395922;0.171017;0;
11884.45;9256.981;-131.8264;14922.27;-7.143005;15.92648;12676.11;8409.82;0.1356548;0.2358125;0;
11185.21;7842.637;-2.00918;14461.15;-8.273928;18.25475;12118.94;6853.633;0.07055117;-0.3491305;0;
-4541.535;-3936.171;318.5192;-4610.025;-10.00693;20.58081;-4851.433;-3994.383;0.005512943;-0.218845;0;
-16983.57;-11668.41;296.8505;-21268.24;-5.375171;16.80909;-18388.31;-9665.563;-0.1244273;0.1062116;0;
-10771.2;-8042.138;99.55753;-15318.35;-2.958872;16.25646;-11549.13;-7428.533;-0.1892696;-0.02382983;0;
-15346.32;-10039.67;150.0414;-20539.55;-16.68728;17.57966;-16645.59;-8873.761;0.07078995;-0.08877323;0;
-12135.82;-8570.133;47.98877;-15553.52;-20.15314;16.7582;-13057.88;-7203.492;0.3305882;-0.08868402;0;
8022.277;4812.647;-280.4256;9738.088;-8.612309;16.54053;8787;3751.306;0.0054193;0.1063071;0;
12963.54;10132.28;-262.4809;16293.67;-7.129787;16.99267;13900.3;9242.618;-0.3194228;0.431037;0;
10936.11;8162.579;-85.08742;13916.29;-9.869289;10.0766;11743.33;7382.886;-0.05923253;0.3006692;0;
12910.65;10282.46;-134.1179;15907.51;-9.792024;8.525869;13715.05;9416.474;0.07076167;0.1704324;0;
12148.96;8810.133;-23.30435;15538.75;-4.088757;11.79934;13080.69;7902.143;0.07069057;-0.02464087;0;
-2896.003;-2694.41;305.0072;-2553.913;-1.539053;11.38571;-3048.634;-3212.714;0.3954563;-0.4144202;0;
-14566.99;-9601.823;291.6604;-18420.82;-6.76242;18.67517;-15824.68;-9015.364;0.1351895;-0.2840691;0;
-8629.331;-6692.758;86.53278;-12307.44;-5.550176;21.53667;-9269.252;-6734.229;-0.189783;0.1060204;0;
-12791.53;-8732.457;131.3451;-17588.96;-12.10868;19.84046;-14025.26;-8181.685;0.2651791;-0.02402079;0;
-10353.35;-7302.584;45.02211;-13707.6;-15.84756;21.69592;-11252.6;-6677.513;0.3948473;0.2358727;0;
8313.642;5091.042;-259.5576;10296.22;-1.02853;18.52604;9123.905;4110.653;0.2645159;0.1706684;0;
13307.85;10460.77;-235.871;16592.27;0.8475376;16.96682;14233.85;9598.777;0.06934805;-0.4791765;0;
11311.9;8556.136;-60.72194;14288.59;-2.100075;22.6432;12120.62;7739.312;-0.2555583;-0.3487604;0;
13102.66;10460.08;-108.5743;16122.87;-0.3566526;22.95536;13907.22;9635.547;-0.2553015;0.04139411;0;
12255.52;8925.801;0.8860384;15660;-7.657312;17.30585;13187.46;8002.9;0.1997264;-0.02361483;0;
-2630.271;-2488.856;320.334;-2040.722;-9.323581;15.94893;-2709.661;-3066.16;0.1995257;0.1713109;0;
-14073.47;-9123.52;313.531;-17725.88;-10.72073;13.38755;-15292.6;-8894.944;-0.1904788;0.04120411;0;
-8715.014;-6569.663;125.4509;-12217.11;-13.85877;11.63254;-9373.292;-6782.189;-0.3851895;-0.1537393;0;
-13521.15;-9223.646;140.6453;-18156.03;-7.079688;12.15672;-14754.34;-8326.188;-0.3198351;0.4311213;0;
-10957.19;-7762.764;23.20357;-14293.98;-6.33564;11.7426;-11865.94;-6864.334;-0.189579;0.6255901;0;
8072.839;4896.115;-276.0131;10068.76;-10.28139;12.33365;8875.095;3918.397;-0.05945387;0.1052228;0;
13202;10339.78;-252.3725;16505.11;-9.600497;12.99109;14132.98;9474.04;0.005573212;-0.1547524;0;
11192.7;8441.422;-70.58517;14163.44;-12.47124;13.17898;11993.19;7617.511;0.07053495;-0.02466218;0;
12971.85;10329.75;-116.8816;16026.14;-12.59341;13.09876;13781.88;9537.295;-0.1894053;0.04032994;0;
12313.18;8983.045;-19.87533;15676.13;-9.901434;17.7073;13237.33;8005.508;-0.2541823;0.1052568;0;
-2985.599;-2784.587;306.4962;-2426.576;-8.95348;18.35933;-3125.91;-3156.195;0.1358771;0.105151;0;
-15064.35;-10081.96;294.3505;-18884.55;-4.456505;19.88149;-16347.76;-9155.085;0.200708;-0.2197914;0;
-9255.738;-7090.972;97.79397;-13188.66;-1.706337;22.2058;-9943.063;-6974.149;0.1355389;-0.2845379;0;
-13903.44;-9411.599;150.6847;-18760.92;0.03766583;9.992957;-15160.37;-8468.73;-0.1244666;-0.1543173;0;
-11556.05;-8123.971;60.20369;-15089.25;2.850667;7.370582;-12522.54;-7112.633;-0.5791129;0.1057072;0;
7822.217;4695.455;-255.3076;9601.466;4.455393;11.31505;8586.215;3699.473;-0.2536944;0.2355356;0;
13036.54;10146.64;-245.7433;16366.08;6.460649;9.763192;13977.69;9281.808;0.3312666;0.1703316;0;
10921.58;8186.092;-74.06688;13884.11;8.663983;15.84871;11724.25;7365.439;0.2009991;0.3000952;0;
12748.23;10094.28;-132.3381;15809.33;10.19552;17.17232;13560.9;9317.804;-0.1240396;0.4946957;0;
12105.21;8778.87;-28.08562;15427.41;10.78849;16.55222;13028.63;7765.311;0.00601975;0.1693619;0;
-3423.127;-3210.117;303.9788;-3003.195;11.17979;17.13843;-3584.915;-3394.621;0.1359484;-0.09067769;0;
-15725.77;-10719.52;289.5555;-19800.67;13.98159;15.31279;-17050.59;-9337.003;-0.3189596;-0.02561923;0;
-10244.74;-7592.333;112.3378;-14626.68;15.57514;13.95775;-10999.71;-7289.317;-0.2536718;0.1693085;0;
-15275.75;-10085.1;169.1807;-20303.48;9.933408;12.872;-16549.78;-8834.415;0.3962565;0.1041711;0;
-12284.08;-8647.297;50.36723;-15837.3;8.382209;11.58639;-13210.01;-7298.9;0.2659237;-0.02586828;0;
7713.281;4566.724;-279.9861;9388.819;13.12921;6.015284;8496.249;3539.646;-0.1891149;0.2989944;0;
12800.33;9922.206;-267.5234;16140.08;12.58015;4.669703;13739.45;9054.55;-0.3838269;0.493596;0;
10758.08;8018.235;-82.5037;13699.61;12.43379;-0.02373319;11558.18;7197.443;-0.2535065;0.1682633;0;
12605.32;9950.953;-122.635;15664.04;11.08213;-1.698222;13424.39;9176.213;0.2664869;-0.2217098;0;
11978.92;8658.708;-22.81185;15244.79;13.34817;4.130878;12891.07;7626.361;0.5910559;-0.416389;0;
-3860.554;-3451.082;302.2977;-3625.149;14.5402;5.265437;-4071.721;-3570.209;0.2656252;-0.286036;0;
-16544.53;-11295.29;295.0287;-20785.43;-0.009093468;12.69501;-17921.31;-9556.908;0.395293;0.1690229;0;
-10694.71;-7949.714;104.8901;-15240.93;-4.295992;16.23223;-11453.79;-7419.562;0.8496673;0.4287224;0;
-15883.67;-10465.54;158.3828;-21030.13;1.602823;18.42635;-17157.27;-9052.688;0.4590094;0.2333896;0;
-13200.56;-9182.535;64.67694;-17023.6;0.3284144;21.35496;-14236.66;-7681.855;0.1337115;0.03825303;0;
7267.856;4265.437;-250.9013;8718.232;2.003024;17.85052;7967.428;3228.009;0.003642465;-0.0917201;0;
12559.25;9630.046;-236.6563;15931.34;3.340182;17.3637;13515.93;8760.421;-0.06132854;-0.09162793;0;
10357.67;7630.745;-64.03636;13286.53;1.260721;16.20754;11149.82;6805.69;0.003700428;-0.2864379;0;
12192.54;9520.421;-114.431;15285.97;1.661595;14.44982;13021.13;8778.7;-0.3861073;-0.6109868;0;
11691.05;8376.487;-2.57534;14887.71;6.682792;12.0909;12587.01;7275.443;-0.06088267;-0.1556015;0;
-4609.217;-4141.001;330.8846;-4519.959;8.81953;10.73909;-4848.369;-3934.768;0.5238846;0.2343589;0;
-17752.95;-12392.58;320.3698;-22264.37;8.408527;6.776431;-19235.17;-9896.628;0.1335541;0.2341235;0;
-12056.31;-8777.347;116.697;-17186.81;10.54353;4.961205;-13109.75;-7863.31;0.06845259;-0.09094851;0;
-17776.71;-11724.03;133.4462;-23042.65;5.911238;8.573176;-19138.03;-9714.756;0.3282532;-0.4806612;0;
-14414.82;-10195.45;17.40165;-18138.28;3.829193;8.564562;-15348.15;-8144.263;0.1979887;-0.2203088;0;
7041.531;4050.644;-279.045;8360.826;16.08286;12.30688;7738.99;2962.123;0.1328224;-0.02518545;0;
12220.75;9281.911;-236.1454;15629.97;19.14816;13.50021;13180.41;8405.753;0.1976563;-0.1550948;0;
10046.59;7321.846;-66.33707;12989.21;10.28766;13.08474;10838.9;6497.636;0.06752297;0.1698977;0;
11874.39;9188.266;-145.6368;15001.25;9.94155;12.93763;12717.75;8456.932;-0.1924142;0.169727;0;
11357.35;8061.736;-33.93714;14490.72;9.731465;12.52273;12224.98;6908.083;0.1975832;0.1045891;0;
-5592.36;-4787.207;304.6143;-5722.279;8.44889;12.44317;-5907.965;-4307.38;0.7820906;0.1044841;0;
-19426.83;-13597.83;284.4432;-24093.7;10.38278;4.794853;-21034.45;-10266.34;0.3265334;-0.4153597;0;
-12886.21;-9401.562;93.90928;-18274.79;9.501695;3.048478;-14249.61;-8106.46;-0.3234681;-0.6098443;0;
-18488.3;-12230.64;113.4301;-23824.68;10.96504;-0.9734386;-20013.56;-10037.7;-0.128241;-0.0245255;0;
-15603.59;-10910.34;-14.16671;-19337.82;10.35179;-3.785683;-16538.89;-8573.641;-0.1930795;0.3653032;0;
6598.314;3850.868;-309.8476;7771.301;9.269657;4.523822;7244.846;2740.619;-0.1279182;0.1700341;0;
12178.06;9171.4;-271.1337;15608.89;8.790853;6.193727;13151.14;8282.235;0.1970471;0.03992857;0;
9785.913;7069.643;-83.03378;12752.68;3.490734;9.469667;10579.78;6253.772;-0.06302027;-0.1550136;0;
11618.47;8925.024;-125.835;14765.55;2.281777;13.27806;12468.47;8180.767;-0.3877937;-0.4796945;0;
11176.49;7873.44;-15.09233;14293.81;-1.873701;10.92031;12026.27;6716.029;-0.1275346;-0.3492779;0;
-5704.913;-4894.026;307.7293;-5935.644;-3.479409;12.18202;-6095.37;-4421.344;0.06749553;-0.1540249;0;
-19628.96;-13822.45;287.7425;-24362.93;0.4098295;16.85846;-21323.48;-10337.11;0.1323951;-0.08890276;0;
-13463.62;-9816.127;96.26823;-18957.97;1.949659;17.91325;-14997.36;-8270.4;-0.06264;-0.2187481;0;
-19242.98;-12846.59;107.1504;-24624.87;3.0858;20.4406;-20837.6;-10367.97;0.002390283;-0.08859362;0;
-15838.55;-11258.82;-34.01141;-19623.49;4.221775;22.29546;-16730.4;-8759.979;0.1323226;0.1713648;0;
6679.415;3848.028;-328.6104;7762.675;13.05879;14.77121;7317.235;2719.979;0.392059;-0.02370945;0;
12088.95;9088.058;-284.0524;15533.29;15.39019;12.6799;13062.44;8192.431;0.391665;0.04128171;0;
9830.041;7102.888;-116.4136;12810.45;20.59964;15.61429;10635.64;6288.621;-0.3883366;0.3011096;0;
11762.16;9062.762;-173.9708;14899.82;25.46809;13.99113;12606.4;8305.816;-0.2580117;0.4957091;0;
11198.41;7884.962;-57.90112;14347.24;6.286112;15.58454;12070.13;6727.15;0.1320516;0.5601783;0;
-5744.376;-4894.088;283.1575;-5930.846;1.323303;14.96615;-6071.085;-4400.441;-0.1279505;0.1698114;0;
-19670.46;-13864.07;287.6206;-24370.12;8.622991;13.41051;-21293.66;-10329.51;-0.1927893;-0.09022859;0;
-13228.72;-9704.594;102.9868;-18712.68;5.265424;13.39703;-14700.8;-8218.12;-0.1276282;-0.02517059;0;
-18636.3;-12322.44;142.4884;-24013.53;9.144899;6.819367;-20202.33;-10093.71;-0.322402;-0.15508;0;
-15424.16;-10855.64;24.10778;-19114.74;9.470503;4.334269;-16314.2;-8543.126;0.06772602;-0.02498947;0;
6799.721;3964.264;-315.4489;7988.539;3.030625;6.473245;7446.198;2829.574;0.3924947;0.04000298;0;
12298.56;9291.836;-289.9727;15747.89;3.161302;5.395014;13278.62;8399.242;0.002296242;-0.2199066;0;
9873.335;7139.373;-89.46947;12849.64;-5.950577;6.260371;10679.19;6317.86;-0.3225428;-0.08975094;0;
11640.29;8934.122;-140.6975;14792.56;-10.43258;6.321064;12488.54;8169.969;0.06758537;0.04027393;0;
11127.78;7806.91;-31.61092;14252.21;3.576729;7.453422;11999.63;6655.563;0.7171909;-0.1546686;0;
-5734.103;-4880.78;299.7231;-6021.18;4.979655;9.45542;-6113.8;-4444.907;0.9113722;0.2352909;0;
-19375.71;-13617.58;290.7231;-24101.41;4.237717;2.144902;-21011.74;-10267.82;-0.06405361;0.1700871;0;
-13023.1;-9534.094;104.1965;-18411.39;7.984503;-0.1346115;-14403.88;-8132.716;-0.4537933;-0.4147899;0;
-18603.75;-12304.9;116.8666;-23943.27;-3.677818;10.24769;-20122.28;-10038.74;0.1313687;-0.219471;0;
-15157.09;-10716.04;-14.06003;-18815.43;-5.21534;11.50995;-16034.55;-8398.533;0.1312367;0.04061885;0;
6934.18;4010.029;-315.9098;8186.222;2.827852;9.355055;7611.306;2877.914;0.1311049;0.1705127;0;
12198.17;9204.605;-274.2382;15655.97;3.561945;9.881518;13177.51;8312.039;0.1959405;0.1053741;0;
9940.231;7197.689;-69.94016;12912.53;8.582208;6.321494;10743.43;6361.882;-0.5188972;-0.2195685;0;
11705.79;8984.898;-120.0478;14875.39;10.51597;5.377381;12563.37;8234.451;-0.4534084;0.1054888;0;
11064.87;7750.564;-28.39504;14174.48;15.26082;1.48709;11923.67;6567.527;0.0667859;0.4302195;0;
-5960.176;-5057.867;295.8455;-6262.825;19.39867;-1.394549;-6330.41;-4540.57;-0.2581179;0.1049505;0;
-19890.65;-14017.62;280.7588;-24650.91;11.34123;2.223809;-21540.07;-10368.47;-0.1279239;-0.02508963;0;
-13418.77;-9848.111;112.5143;-18905.33;11.46356;1.819677;-14902.82;-8252.888;0.1970414;0.1048703;0;
-18888.78;-12515.4;156.0355;-24268.55;12.12162;-1.39721;-20456.61;-10168.57;-0.1279933;0.03979755;0;
-15633.52;-10954.92;14.21557;-19384.83;10.77027;-2.065636;-16540.68;-8598.164;-0.3227668;-0.09017713;0;
6593.198;3799.165;-302.5145;7734.17;18.26154;-2.264509;7227.313;2659.79;-0.1925077;-0.02511917;0;
12025.79;8983.178;-270.2891;15495.79;19.58236;-2.664131;13015.75;8078.845;0.2624571;-0.1550286;0;
9567.017;6844.94;-89.28023;12537.23;20.1659;-2.393522;10359.73;6000.409;0.1322587;-0.2848075;0;
11265.5;8503.882;-139.915;14467.83;22.28909;-2.190169;12147.7;7767.973;-0.2576783;-0.02465198;0;
10756.83;7497.276;-21.25588;13781.38;16.70699;-2.991763;11559.38;6251.223;0.3922541;-0.08959455;0;
-6983.266;-5836.59;313.7377;-7442.542;15.81954;-3.457638;-7468.96;-5023.457;0.6517293;-0.2844065;0;
-21751.06;-15304.07;267.9297;-26577.22;18.14817;-1.712607;-23464.51;-11144.13;-0.06356632;-0.1541861;0;
-15382.66;-10868.59;61.56098;-20990.17;16.85714;-1.844852;-17050.38;-8893.742;-0.2584045;0.04087086;0;
-21082.9;-14154.65;82.56666;-26471.88;18.71523;-0.3024518;-22738.98;-11027.74;-0.1931775;-0.3489743;0;
-17189.93;-12228.02;-69.08075;-21061.94;17.7594;1.104494;-18075.67;-9340.912;-0.128016;-0.08875424;0;
6167.452;3578.676;-353.1342;7084.572;15.12861;-5.795736;6760.892;2384.1;0.06701462;0.4310737;0;
11741.93;8635.162;-285.5943;15231.56;12.83624;-7.062527;12741.5;7723.551;0.001979941;-0.08909821;0;
9301.388;6594.834;-100.1504;12281.63;13.3592;-4.979021;10095.38;5744.859;-0.1929241;-0.02404134;0;
11035.9;8236.629;-145.0897;14244.86;14.01536;-6.313677;11923.68;7493.47;-0.1927302;0.3657869;0;
10404.43;7204.461;-34.06211;13398.91;-0.5997795;-0.6808883;11184.47;5926.334;-0.06260189;-0.08935207;0;
-7987.234;-6516.15;296.9464;-8541.302;-4.350221;0.123591;-8523.755;-5493.181;0.3272651;-0.219197;0;
-23621.77;-16609.96;251.7487;-28433.31;0.5432941;-0.5463625;-25316.06;-12010.1;0.3919036;0.04089265;0;
-17224.63;-11890.79;41.24204;-22747.49;-1.265913;0.6598793;-18867.51;-9536.802;0.001705737;-0.1540505;0;
-23075.62;-15576.77;79.13466;-28406.45;11.46236;-4.900245;-24713.04;-11846.91;0.001704023;-0.3487977;0;
-19103.54;-13645.3;-61.87402;-23290.38;16.54106;-4.962304;-20065.01;-10355.6;-0.06326503;-0.02361052;0;
5440.794;3167.297;-354.2274;5981.284;12.57232;-8.44037;5935.995;1944.819;-0.4530055;0.1713152;0;
11567.81;8368.062;-299.7424;15066.88;16.5118;-9.972435;12582.69;7447.645;-0.06274628;0.3660451;0;
8915.308;6209.89;-98.55781;11917.64;10.66806;-2.259561;9713.683;5361.066;0.3920881;0.690514;0;
10700.45;7889.74;-108.9535;13899.04;8.179098;-0.6497608;11594.88;7128.147;0.1967922;0.6248528;0;
10291.29;7091.475;6.519862;13256.73;20.89691;3.704722;11050.79;5807.271;0.06665974;0.5592577;0;
-8390.637;-6837.668;318.8719;-9076.479;20.60846;7.050024;-9020.822;-5768.577;0.1315601;0.03895697;0;
-24667.18;-17469.37;218.8516;-29516.6;23.80294;4.966591;-26381.95;-12793.08;0.06646057;-0.1559842;0;
-18215.06;-12421.38;-26.88548;-23694.6;27.73016;4.894618;-19823.57;-9968.212;-0.1934756;0.2339766;0;
-23484.33;-15827.65;30.0192;-28805.54;0.7090278;9.04252;-25109.03;-11944.73;-0.2582485;-0.2210299;0;
-18991.26;-13742.96;-109.394;-23233.32;-6.592702;9.033433;-19946.07;-10419.08;-0.257989;-0.2208078;0;
5641.446;3295.249;-388.7999;6138.807;1.920389;6.947886;6137.154;2038.131;-0.6475338;0.3641202;0;
11537.5;8334.013;-317.4136;15053.33;-2.703241;7.610734;12552.09;7411.054;-0.4519812;0.4287216;0;
8914.031;6195.491;-135.8108;11921.3;6.342781;-4.386554;9712.459;5329.337;0.003244369;0.2983561;0;
10652.23;7822.226;-150.3389;13858.79;7.474507;-7.128385;11546.96;7049.208;-0.2566282;0.03818698;0;
10035.81;6836.92;-23.84505;12995.37;3.715953;-4.977829;10788.45;5539.943;-0.3213377;-0.02681873;0;
-8669.03;-7009.603;297.9078;-9396.389;5.721951;-6.580357;-9308.948;-5885.602;0.06878919;0.2330776;0;
-24903.09;-17630.2;222.7399;-29762.91;-3.995714;5.415833;-26614.34;-12840.19;0.1336874;0.2978107;0;
-18218.06;-12475.46;2.158063;-23696.96;-4.929704;9.228418;-19818.19;-10018.21;-0.1263163;-0.2222272;0;
-23373.39;-15711.45;73.0109;-28698.03;-4.321538;11.09455;-24998.98;-11884.1;-0.3860587;-0.416906;0;
-19215.68;-13784.65;-64.36844;-23444.49;-5.05413;14.70048;-20198.43;-10455.37;-0.1907688;-0.1566177;0;
5444.381;3198.31;-363.419;5946.509;4.461792;15.75731;5917.326;1946.082;0.1992269;0.103409;0;
11653.71;8412.505;-291.2618;15170.44;8.007283;18.62174;12674.95;7469.896;0.3289615;0.1682725;0;
8948.759;6225.912;-83.32355;11967.3;10.41111;11.90486;9748.787;5351.591;0.06876154;0.1031361;0;
10650.27;7793.396;-113.4122;13875.51;13.14634;10.08448;11549.5;7008.957;-0.1262096;0.2979344;0;
10187.31;7006.66;-16.47187;13141.95;18.22432;14.56208;10930.91;5697.851;0.5235906;0.2326677;0;
-8733.235;-7052.816;291.0308;-9464.229;20.28211;14.21254;-9407.968;-5925.644;1.042803;0.1674666;0;
-25514.74;-18077.09;192.4908;-30331.62;17.84986;14.86808;-27227.13;-13274.92;0.19718;0.4271677;0;
-19063.18;-12862.87;-49.33113;-24473.13;16.49275;16.39363;-20639.55;-10307.09;0.1969819;0.03693443;0;
-24073.26;-16200.98;6.128085;-29329.41;15.27073;9.813075;-25688.03;-12175.76;0.586588;-0.2879394;0;
-19600.76;-14206.72;-122.0949;-23872.42;15.12167;7.056915;-20584.03;-10769.91;-0.5184462;0.03718664;0;
5361.04;3136.81;-394.7257;5765.602;-1.907435;19.70935;5826.564;1874.261;-0.9077293;0.1021166;0;
11604.46;8335.074;-309.3406;15129.5;-7.732667;21.364;12624.73;7377.22;-0.06224177;-0.09288801;0;
8921.132;6195.208;-100.8531;11968.76;-0.2228094;18.46239;9724.478;5312.56;-0.1271466;0.232042;0;
10645.84;7762.192;-146.9161;13887.07;-2.031247;19.85048;11546.11;6966.013;-0.3868882;0.3617436;0;
9957.425;6797.624;-46.19402;12931.61;6.678331;10.72098;10701.34;5472.089;-0.1915974;0.03654337;0;
-9188.806;-7299.858;296.4614;-9885.078;10.28894;8.834806;-9847.17;-6122.99;0.1983992;-0.3532974;0;
-25967.65;-18327.7;216.3287;-30683.65;6.192768;7.285321;-27644.06;-13420.6;0.06826512;-0.2230077;0;
-19455.55;-13117.37;-25.65779;-24785.2;6.722409;4.665789;-20999.59;-10437.31;-0.2566402;0.2319878;0;
-24403.6;-16475.98;23.48393;-29625.38;12.40908;12.16294;-25991.38;-12278.58;0.1983891;-0.02811472;0;
-19851.62;-14393.37;-101.1333;-24089.47;13.93685;13.69133;-20824.52;-10852.68;0.3930918;-0.2229885;0;
5136.823;2980.927;-361.0728;5564.029;8.363145;12.67283;5605.679;1720.384;-0.2569766;0.232007;0;
11391.28;8091.877;-295.1336;14926.53;8.019949;13.79881;12418.34;7109.164;-0.1917511;0.1018392;0;
8573.246;5848.338;-110.8202;11629.69;0.2423586;16.33017;9381.864;4968.14;-0.06162372;-0.0931652;0;
10398.77;7469.066;-152.063;13642.29;-3.508929;17.85437;11308.26;6649.676;-0.1914965;0.1667978;0;
9829.308;6740.408;-28.44106;12771.78;1.584811;15.49203;10562.52;5406.646;-0.06136939;0.03669549;0;
-10166.6;-7980.063;314.8681;-10858.92;-0.09074419;15.40948;-10812.47;-6707.137;0.1335943;-0.1582434;0;
-27443.26;-19488.63;185.0699;-32145.27;8.08102;14.45635;-29080.6;-14532.73;0.1984274;-0.1580844;0;
-20732.28;-14066.36;-70.61262;-26054.63;13.02939;13.43708;-22248.36;-11044.54;0.1332607;-0.2228929;0;
-26036.68;-17874.27;-6.433265;-31234.47;-3.930258;14.83022;-27593.42;-13055.33;0.3929962;-0.2876363;0;
-21055.1;-15371.51;-150.4325;-25468.1;-7.207862;15.08313;-22064.79;-11617.2;0.3276339;-0.1574126;0;
4925.15;2913.702;-400.3432;5138.28;9.812313;12.79068;5334.732;1622.763;-0.06249933;0.297517;0;
11344.24;7990.737;-308.9398;14869.91;12.81656;12.37593;12377.14;7010.174;-0.1923712;0.5570874;0;
8658.215;5920.275;-120.0523;11713.05;10.99502;14.64091;9472.315;5010.913;-0.3221126;0.3616256;0;
10446.08;7508.4;-143.9508;13680.46;14.6013;15.29591;11355.1;6681.348;-0.2568216;0.03642554;0;
9672.468;6564.03;-16.54203;12627.29;6.414953;14.20894;10410.09;5215.571;0.1332405;0.03638894;0;
-10235.73;-8071.478;305.6096;-10958.28;4.063983;13.2569;-10884.95;-6767.602;0.2630413;-0.0935823;0;
-27674.62;-19699.66;159.2977;-32383.05;16.25006;19.80778;-29302.59;-14688.32;0.3927117;-0.1584556;0;
-20919.94;-14095.63;-109.9302;-26211.95;16.90429;21.79725;-22421.48;-11140.02;0.4572844;-0.1582964;0;
-25685.75;-17491.04;-42.30681;-30858.91;16.88731;15.68002;-27228.51;-12818.56;0.2619229;-0.3530394;0;
-20575.98;-15068.24;-171.0121;-24962.75;17.87472;16.33409;-21558.79;-11408.25;0.1317251;-0.2227499;0;
5170.017;3068.728;-420.8396;5407.567;8.479635;10.02141;5598.894;1747.633;-0.06330933;0.2322453;0;
11546.27;8195.457;-315.1571;15092.95;5.658075;7.399124;12582.04;7217.517;-0.06324571;0.2320119;0;
8824.938;6050.577;-103.4467;11909.71;3.240517;16.36716;9641.975;5123.923;0.1966872;0.2967461;0;
10542.64;7616.566;-133.7181;13788.4;0.3568725;16.95356;11451.7;6787.686;0.3913916;0.03657858;0;
10006.65;6817.561;-21.31208;13000.45;-0.3804203;20.28555;10758.18;5461.263;0.5859004;-0.5481642;0;
-9483.125;-7511.137;312.9007;-10129.28;-1.719209;22.67655;-10124.95;-6338.827;0.455377;-0.2227767;0;
-26637.02;-18978.74;195.4733;-31318.33;-0.7131033;19.17077;-28282.52;-14083.14;0.19505;0.1672512;0;
-19647.95;-13366.8;-79.74111;-24978.13;-0.5113159;19.82122;-21169.21;-10625.22;0.3897561;-0.222721;0;
-24609.61;-16677.91;-23.92338;-29805.33;1.23051;18.52875;-26170.75;-12336.16;0.3893644;-0.09256247;0;
-20146.49;-14651.04;-134.0471;-24421.6;1.765137;18.44315;-21108.73;-11083.33;-0.0008308565;0.2323672;0;
5369.795;3197.684;-389.5964;5732.559;6.385064;16.75004;5829.872;1884.936;-0.1307647;-0.02773561;0;
11773.9;8424.92;-310.0416;15331.85;8.38838;15.66149;12809.69;7425.615;-0.0006986287;-0.3525445;0;
9144.71;6341.654;-121.356;12223.76;6.102776;19.79857;9963.711;5409.523;-0.06566527;-0.09232084;0;
10967.6;8055.089;-172.1616;14220.37;8.172749;20.58247;11881.5;7214.505;0.0643354;-0.02726074;0;
10321.32;7038.768;-53.81362;13338.79;-0.6093736;21.43257;11084.8;5672.73;0.2591728;-0.157168;0;
-8566.389;-6900.286;310.1357;-9228.045;-2.685842;22.48276;-9210.49;-5832.533;0.3888471;-0.02707542;0;
-25046.24;-17743.18;222.899;-29786.31;5.153738;21.25447;-26713.17;-12966.27;0.1935543;0.1028865;0;
-18423.08;-12560.07;-33.41501;-23782.16;5.751771;20.49631;-19969.25;-10035.21;-0.1314769;0.03781574;0;
-23556.64;-15888.85;26.10429;-28758.86;12.4438;22.15029;-25140.17;-11934.76;0.06355724;-0.0271896;0;
-19159.63;-13883.32;-101.1236;-23340.18;16.38341;21.25725;-20078.85;-10528.34;0.06349338;-0.157097;0;
5765.693;3399.93;-367.3569;6239.686;12.81697;19.96321;6282.809;2071.033;-0.00153776;-0.2219065;0;
11942.89;8610.097;-295.2582;15497.99;13.94219;19.80919;12980.13;7604.091;0.3882678;0.1031532;0;
9301.254;6494.988;-112.0691;12377.97;16.00527;10.34494;10121.45;5552.509;0.1929757;0.362919;0;
10995.05;8041.447;-122.9978;14262.81;15.3196;6.918534;11913.2;7189.792;-0.1970223;0.03771758;0;
10385.12;7131.742;-2.091174;13392.55;19.39004;10.39457;11143.61;5756.332;0.1280124;-0.1572223;0;
-8789.747;-7048.644;300.8368;-9451.963;20.04014;8.843643;-9428.248;-5954.101;0.3877531;-0.2220317;0;
-25655.12;-18241.42;192.6669;-30397.38;12.85271;11.51395;-27316.11;-13416;0.1274942;0.1679955;0;
-18529.64;-12577.49;-58.66613;-23937.06;11.567;11.90428;-20076.93;-10168.81;0.06239871;0.3627287;0;
-23283.86;-15554.35;0.08206479;-28553.25;4.389058;13.63387;-24882.75;-11735.72;-0.06759867;0.03752748;0;
-19398.19;-13960.5;-113.0018;-23595.16;0.09773999;16.43334;-20363.63;-10524.7;-0.3923675;-0.2223796;0;
5432.191;3190.684;-365.6987;5924.671;5.924791;9.383739;5913.915;1908.038;-0.5868752;-0.4820255;0;
11911.74;8548.893;-288.7916;15470.03;4.311247;9.709225;12949.39;7498.653;-0.5213182;-0.3516065;0;
9291.253;6465.08;-99.04974;12362.88;7.454747;11.64197;10111.09;5527.902;-0.001055637;0.3633876;0;
11013.72;8049.191;-123.922;14282.53;8.853776;11.1614;11931.2;7177.984;0.06391276;0.4279898;0;
10452.8;7192.202;-13.50921;13457.76;1.543862;22.33609;11213.04;5803.553;0.1288159;0.03775568;0;
-8921.076;-7167.842;317.3381;-9549.641;0.5379329;25.72965;-9559.577;-6051.479;0.3885558;0.3625545;0;
-26043.39;-18495.61;227.08;-30746.78;-2.342996;24.36414;-27706.66;-13682.28;-0.261508;0.2972228;0;
-19116.39;-12987.48;-14.85476;-24462.48;-5.756893;26.21518;-20648.6;-10420.74;-0.2612453;-0.3527493;0;
-24197.28;-16432.19;38.96124;-29395.13;1.416187;24.91616;-25767.4;-12325;0.258756;-0.4173622;0;
-20108.68;-14584.58;-121.4036;-24499.3;2.08435;25.29302;-21111.82;-11082.43;0.1935286;-0.09210607;0;
5266.982;3077.452;-405.8729;5504.716;-6.089418;22.18652;5694.028;1761.799;-0.1315025;-0.09201353;0;
11851.97;8446.55;-321.0856;15413.25;-7.48982;21.02551;12893.15;7397.508;-0.3262724;-0.2868231;0;
9221.363;6397.448;-117.2715;12319.4;-10.36268;19.19585;10047.83;5446.271;0.2587615;-0.09163287;0;
10941.09;7947.222;-138.2993;14205.12;-13.5001;16.56435;11859.08;7068.121;0.3234688;0.03839388;0;
10481.05;7230.921;-11.69267;13505.55;-6.051796;23.44682;11246.61;5830.903;-0.0016929;0.03835531;0;
-9075.902;-7287.16;333.7392;-9667.976;-4.304403;24.09309;-9690.333;-6152.03;0.3231455;0.1682515;0;
-26627.41;-18982.97;228.4098;-31270.45;-12.27068;22.79621;-28258.8;-14146.42;0.1279188;-0.3516563;0;
-19772.04;-13499.77;-20.00749;-25079.03;-12.52579;24.58172;-21287.12;-10711.27;-0.1970465;-0.351303;0;
-25282.96;-17384.42;38.63939;-30404;-11.50883;15.51457;-26826.79;-12824.83;0.06302091;0.03885404;0;
-21371.83;-15451.21;-115.7125;-25760.64;-11.69834;13.08772;-22384.15;-11703.06;0.1279249;0.038815;0;
4843.695;2919.013;-383.1961;4982.538;-5.993156;19.77262;5240.201;1609.979;0.1927637;0.1037434;0;
11867.84;8387.768;-281.5651;15413.41;-4.312195;19.81973;12912.67;7318.444;0.3874721;0.1036391;0;
9171.454;6355.653;-70.76297;12285.3;0.2464892;19.93378;10004.23;5396.975;0.3221154;-0.09136706;0;
10992.22;7960.941;-109.235;14257.57;4.666871;19.84677;11913.12;7066.148;0.3217917;0.1036268;0;
10370.78;7167.556;-20.20118;13396.68;-6.858395;21.97028;11131.41;5760.216;0.5163704;0.2984247;0;
-9662.104;-7689.994;289.9132;-10254.18;-10.26775;23.01993;-10274.75;-6479.844;0.4508842;0.1681901;0;
-27635.67;-19730.84;150.0983;-32255.48;6.957542;16.23165;-29245.53;-14794.42;0.1255945;0.1030538;0;
-20877.02;-14101.14;-120.0574;-26151.28;9.964661;13.93792;-22367.31;-11112.6;0.06050092;0.2328849;0;
-26050.71;-17918.13;-50.73717;-31145.67;0.5765499;17.13909;-27565.49;-13102.71;0.1254075;0.0377489;0;
-21666.05;-15793.54;-177.9035;-26114.65;0.5759705;16.51903;-22686.13;-11980.46;-0.1995552;-0.1571911;0;
4770.408;2882.762;-414.8712;4828.877;-5.385479;13.68914;5141.152;1556.392;-0.4592241;-0.3519351;0;
11769.38;8263.69;-299.965;15322.28;-9.131112;13.54154;12816.66;7193.244;-0.06895863;-0.3515815;0;
8993.235;6159.3;-103.1217;12122.86;-0.6818435;8.906116;9828.337;5182.132;-0.003921992;-0.1563262;0;
10832.21;7788.68;-142.9043;14105.39;0.3905685;6.351937;11756.03;6887.894;-0.4586895;-0.2211365;0;
10232.7;7021.423;-26.05376;13245.8;-7.514054;15.05309;10992.55;5601.428;-0.003457158;-0.2858816;0;
-9855.711;-7797.438;305.9305;-10484.95;-9.247816;16.31064;-10479.03;-6562.854;0.1914483;0.03924234;0;
-27659.03;-19741.59;168.1142;-32286.07;-1.200572;14.01683;-29265.41;-14784.11;-0.1985481;0.2341049;0;
-20540.13;-13813.06;-108.2128;-25838.62;1.814744;15.20844;-22024.53;-10982.86;-0.06841389;0.103935;0;
-25553.66;-17431.93;-43.2617;-30671.32;-9.507561;12.91586;-27068.19;-12835.71;-0.003377808;-0.2210061;0;
-21361.41;-15508.76;-159.4567;-25752.13;-13.04798;13.97449;-22366.17;-11764.71;-0.003374414;-0.09084937;0;
4856.859;2950.847;-402.4086;4979.65;1.232372;9.941595;5246.106;1615.643;0.1265637;0.1691113;0;
11858.69;8342.202;-317.1407;15425.52;2.436583;8.859879;12909.2;7258.463;-0.003498195;0.2339087;0;
9093.44;6239.138;-124.8404;12233.9;-1.51798;18.56338;9930.297;5254.064;0.1914073;-0.09116304;0;
10916.57;7861.472;-155.7775;14200.59;-0.3100303;21.62582;11843.42;6947.822;0.2561824;-0.09107144;0;
10371.29;7137.246;-37.57091;13400.86;-11.22806;21.73806;11136.93;5709.053;0.1909576;-0.02601259;0;
-9696.813;-7683.277;296.0492;-10307.7;-13.69502;24.19446;-10312.52;-6518.556;0.06083105;-0.0909538;0;
-27728.5;-19819.67;165.1923;-32331.56;-13.74861;26.24662;-29338.78;-14906.04;-0.06916476;0.03907228;0;
-20827.48;-14081.08;-90.45462;-26068.08;-15.54248;27.09102;-22312.77;-11124.5;0.06083942;0.1689677;0;
-25663.71;-17577.36;-8.670423;-30736.95;-10.90516;33.15913;-27173.02;-12811.7;-0.2640584;0.2337653;0;
-21270.46;-15493.33;-141.2201;-25616.06;-10.96156;36.00595;-22281.39;-11683.79;-0.2637931;0.1685631;0;
4901.954;2971.278;-414.3627;5085.074;-0.3006213;26.79336;5285.65;1626.682;0.2562107;0.1683937;0;
11853.92;8332.315;-334.3145;15436.4;4.924593;25.56074;12908.05;7236.946;0.1909859;0.3631265;0;
9139.369;6257.497;-128.8161;12281.58;-2.917236;25.80299;9977.767;5257.15;-0.004108011;-0.2219445;0;
10958.64;7900.63;-143.4761;14259.59;-1.842578;24.30344;11887.56;6978.234;-0.2639732;-0.4166235;0;
10405.09;7128.514;-5.354387;13439;-0.9036972;27.8961;11169.76;5688.477;-0.1337733;0.2334686;0;
-9442.627;-7504.157;338.1346;-10055.92;-1.371304;28.26996;-10068.24;-6348.567;0.4510672;0.1032993;0;
-27166.85;-19421.45;192.6647;-31761.92;2.180048;30.78679;-28775.31;-14511.04;0.3856466;0.1681629;0;
-19844.21;-13387.02;-83.35904;-25095.24;3.316933;32.56439;-21333.05;-10762.44;0.3202918;0.4278632;0;
-24467.48;-16502.65;-2.846956;-29580.32;0.433212;29.24951;-26004.46;-12322.81;0.3849373;0.1025966;0;
-20599.17;-14863.68;-130.4518;-24964.09;0.7002204;28.41632;-21604.91;-11325.06;0.1896484;0.1024935;0;
5104.573;3086.642;-391.502;5290.25;0.8342147;34.0812;5515.36;1726.516;-0.1353788;0.1673579;0;
12042.19;8513.404;-290.6591;15634.97;0.3638859;35.58756;13099.21;7405.925;0.05965924;-0.2875817;0;
9272.537;6371.563;-84.73601;12428.55;4.382984;28.51872;10113.29;5359.852;0.1245666;-0.3522601;0;
11071.05;8014.504;-118.3839;14363.66;4.243882;27.35147;12000.97;7079.568;-0.1354279;0.03789794;0;
10654.28;7318.687;-14.73886;13725.96;10.26881;26.45321;11437.19;5865.92;-0.005357139;0.3626966;0;
-8955.354;-7147.883;320.9978;-9484.109;14.07591;24.48413;-9547.636;-6074.038;0.1245829;0.2973648;0;
-26447.43;-18877.16;212.0736;-31015.89;0.1293195;28.94726;-28050.08;-14068.05;0.2543924;-0.2226727;0;
-19181.65;-13045.3;-60.893;-24434.63;-1.678496;29.25309;-20675.78;-10454.01;0.1891695;-0.4823183;0;
-24023.02;-16261.51;8.289691;-29101.91;2.27433;27.21433;-25554.35;-12091.85;0.05904471;-0.09202968;0;
-20207.27;-14597.5;-96.24422;-24467.68;1.335016;27.25397;-21180.58;-11080.93;-0.2658513;-0.02696986;0;
5322.48;3173.573;-344.6008;5614.388;6.826031;25.68597;5766.264;1788.33;-0.2006169;-0.2218448;0;
12012.91;8495.114;-256.736;15624.26;7.957272;24.85637;13072.48;7382.689;0.3842908;-0.2865892;0;
9316.843;6400.595;-61.07624;12474.73;12.43725;25.5682;10157.91;5378.556;0.25397;-0.1563666;0;
11133.52;8058.64;-89.06327;14440.31;15.57259;25.34156;12066.12;7114.198;0.1237801;-0.02627477;0;
10706.18;7352.472;17.50395;13781.79;10.26566;22.9717;11488.67;5890.802;0.5134598;0.1686537;0;
-8673.108;-6985.463;334.9986;-9205.911;10.52376;22.27891;-9267.729;-5977.576;0.7078459;0.3633862;0;
-26258.11;-18706.8;218.8921;-30845.37;9.106668;21.85463;-27874.67;-13952.18;0.5122326;0.03818438;0;
-19189.5;-13009.95;-30.59318;-24456.06;7.221507;21.16284;-20700.96;-10427.74;-0.2029229;-0.09178867;0;
-24025.56;-16245.4;36.41952;-29120.79;12.17074;22.48123;-25566.65;-12085.71;0.1221178;0.1681729;0;
-20441.71;-14639.55;-116.9775;-24783.78;12.69438;22.32468;-21435.67;-11102.53;0.3818644;0.1030366;0;
5085.665;3054.666;-403.6064;5290.655;8.663135;21.49845;5507.747;1684.231;-0.2681927;0.1679004;0;
11994.7;8423.115;-311.3252;15589.52;8.319637;20.40512;13052.54;7281.521;-0.2679232;-0.02717032;0;
9130.383;6237.387;-87.10931;12282.7;5.564611;21.85824;9973.952;5216.661;-0.3975887;-0.2870124;0;
10909.14;7765.785;-102.7482;14216.1;3.683986;21.43438;11844.84;6801.292;-0.3322218;-0.1567893;0;
10404.66;7165.827;4.426177;13445.18;7.363979;17.12606;11174.12;5691.809;0.1878507;0.03827026;0;
-9850.433;-7801.854;320.8096;-10428.23;6.485924;16.03712;-10452.2;-6636.998;0.2526293;0.2331338;0;
-28089.39;-20107.29;177.6215;-32674.86;9.895658;10.79646;-29685.37;-15151.97;-0.2023959;0.1029649;0;
-20958.21;-14085.23;-94.77949;-26229.77;12.16289;8.374228;-22433.73;-11156.1;-0.2021926;-0.4818446;0;
-25760.01;-17623.46;-26.15619;-30848.34;0.8301879;11.04513;-27257.36;-12904.02;0.3177493;-0.4163931;0;
-21610.15;-15770.65;-165.1225;-26057.6;-0.8446096;10.96705;-22630.63;-11917.81;0.1874954;-0.09113804;0;
4760.821;2846.817;-421.7182;4802.506;-0.1741756;9.81732;5128.745;1499.596;-0.007595053;-0.4158832;0;
11858.41;8251.332;-308.3981;15449.03;-2.98704;9.137626;12921.69;7086.608;0.05737992;-0.2205633;0;
9060.265;6152.576;-91.15036;12236.97;9.340821;15.15679;9912.163;5124.033;-0.3324818;0.2993971;0;
10919.94;7753.852;-111.1268;14222.53;12.68034;16.28027;11859.13;6774.396;-0.4620824;0.2341289;0;
10288.11;7078.178;9.830355;13341.68;2.084049;15.79503;11062.12;5597.771;0.3829573;0.298861;0;
-10313.22;-8122.172;315.901;-10873.44;0.2742704;16.7839;-10909.36;-6872.948;0.8373439;0.2335934;0;
-28970.55;-20804.16;141.3274;-33524;5.09579;9.466019;-30551.12;-15738.93;0.4466985;0.03845662;0;
-21894.06;-14728.33;-135.4412;-27121.48;4.421084;7.380036;-23345.06;-11611.87;0.05644564;-0.2214514;0;
-26673.43;-18401.49;-54.00219;-31717.14;3.747057;7.975467;-28137.35;-13400.93;-0.3983825;-0.09129418;0;
-22425.13;-16424.16;-183.3048;-26917.21;5.819396;7.230641;-23477.72;-12400.35;-0.7228189;0.03873223;0;
4458.058;2739.921;-440.6161;4425.809;-9.390722;4.477198;4768.389;1422.913;-0.5271906;-0.3511107;0;
11884.22;8243.385;-331.0252;15478.7;-13.19968;3.267006;12950.19;7061.852;-0.3967262;-0.09088857;0;
9008.092;6072.235;-100.5114;12194.41;1.080826;8.555253;9867.56;5028.306;-0.2663929;0.03913743;0;
10841.83;7671.515;-127.4437;14143.87;3.155845;9.08252;11779.33;6682.372;-0.2011578;-0.2857386;0;
10416.99;7183.954;-20.10388;13477.37;5.430825;14.63286;11198.02;5689.622;0.3837504;-0.09054946;0;
-10166.2;-8030.871;315.4352;-10711.06;7.031983;17.76623;-10756.78;-6822.777;0.5132995;0.1044436;0;
-29212.17;-21042.19;155.7921;-33764.62;15.73343;13.72952;-30789.54;-15979.83;-0.2018571;0.169306;0;
-22302.96;-14992.28;-131.1734;-27547.29;19.66876;15.92616;-23748.79;-11799.95;-0.07171956;0.03920114;0;
-27093.35;-18748.76;-56.09494;-32105.52;11.14253;7.671382;-28540.03;-13710.59;0.3831239;0.03916175;0;
-22824.01;-16792.43;-194.3597;-27339.46;11.39975;4.649564;-23869.34;-12759.82;-0.007065114;0.2340244;0;
4367.095;2659.176;-431.5138;4239.875;0.1351672;16.96951;4668.327;1355.119;-0.07202536;0.1038546;0;
11881.75;8200.312;-312.1713;15465.39;-6.429052;18.29199;12944.41;6994.328;0.1879164;0.1037503;0;
8974.21;6032.079;-107.554;12177.64;4.227328;18.80948;9832.041;4980.809;0.1227602;0.2335807;0;
10912.35;7716.403;-129.4661;14218.67;2.414419;20.80006;11849.35;6710.948;-0.1372325;0.1683786;0;
10333.99;7093.817;-17.98577;13391.33;0.2685395;17.43002;11108.62;5585.283;0.05780742;-0.09165993;0;
-10342.21;-8164.691;298.67;-10933.9;0.4693404;17.34552;-10952.87;-6921.452;0.8373575;-0.1565352;0;
-29306.91;-21079.24;151.4906;-33857.29;-8.238668;15.98856;-30899.41;-16009.63;0.5116794;-0.0264432;0;
-22602.49;-15191.23;-129.4423;-27794.24;-9.971703;14.43188;-24056.77;-11883.5;-0.2684429;-0.09138397;0;
-27338.27;-18963.76;-72.29407;-32341.12;-12.77472;14.95325;-28789.73;-13755.74;-0.1382385;-0.1562595;0;
-22663.38;-16698.67;-207.1848;-27184.64;-16.44656;13.33063;-23705.33;-12701.64;-0.592871;-0.1561025;0;
4539.22;2807.832;-445.1382;4427.41;-4.573687;14.32198;4844.227;1443.05;-0.7871773;-0.3508477;0;
11973.28;8285.6;-329.9361;15569.81;-2.024472;14.44155;13039.61;7091.604;-0.07174555;-0.2205604;0;
9095.642;6124.84;-111.1206;12308.13;-10.12676;6.99206;9957.162;5043.691;0.1232286;-0.09040413;0;
10992.86;7795.609;-125.8609;14307.79;-9.915516;4.77472;11932.96;6787.776;0.1231047;0.1045887;0;
10563.46;7273.128;-5.48238;13634.09;-11.78156;7.650066;11344.66;5749.115;0.122981;0.2993857;0;
-9965.748;-7884.439;319.4692;-10528.64;-13.57839;7.173499;-10572.85;-6721.896;-0.007077208;-0.2206539;0;
-28934.57;-20804.63;163.9605;-33456.19;-6.531168;7.83612;-30515.64;-15819.85;-0.3319068;-0.1554648;0;
-21929.19;-14678.07;-118.9215;-27128.48;-3.97901;8.431092;-23381.33;-11599.27;-0.461508;0.2344954;0;
-26493.16;-18204.94;-53.63161;-31516.65;-13.75428;8.824519;-27967.56;-13273.33;-0.07124021;-0.1555442;0;
-22258.85;-16299.95;-195.3658;-26711.56;-15.34805;9.68643;-23284.78;-12365.66;-0.2660707;-0.02545327;0;
4693.297;2917.823;-438.7502;4674.028;-8.702168;11.82015;5034.671;1556.649;-0.6556073;0.2344417;0;
12153.78;8445.392;-309.8895;15760.05;-8.827146;13.68367;13221.49;7226.859;-0.3950792;-0.02566326;0;
9246.649;6258.97;-87.75215;12459.56;0.1576805;12.26328;10108.85;5175.875;-0.3297149;0.3641666;0;
11112.17;7903.444;-103.2499;14443.75;5.984671;13.45665;12056.08;6878.956;-0.5892529;0.62367;0;
10521.14;7189.733;16.62178;13598.53;-8.891797;11.56773;11301.15;5653.328;0.06101252;0.4281414;0;
-9654.769;-7676.46;333.9924;-10228.99;-9.88724;9.479638;-10263.39;-6534.323;0.7106246;0.1028744;0;
-28331.19;-20278.88;183.2324;-32834.77;-4.451323;21.86171;-29916.78;-15331.5;0.06023718;-0.02716362;0;
-21765.2;-14534.8;-93.71882;-26900.29;-7.528309;24.71989;-23222.96;-11427.24;-0.3296274;0.5575697;0;
-25843.59;-17642.66;-21.02052;-30857.38;13.04216;15.78656;-27337.27;-12763.82;0.1904425;0.4920422;0;
-21059.74;-15396.81;-157.3059;-25501.04;19.45942;15.56975;-22094.22;-11687.67;-0.004650838;-0.417995;0;
5094.726;3121.496;-422.5457;5136.607;-1.056668;10.39654;5449.337;1656.846;-0.4594176;-0.2876403;0;
12140.66;8453.475;-317.7985;15772.35;-2.729569;7.840746;13212.55;7263.659;-0.2640539;-0.02748196;0;
9340.827;6326.343;-102.6653;12573.22;-4.802931;10.4452;10201.73;5215.433;-0.3287559;0.037513;0;
11126.54;7912.467;-139.6373;14478.02;-8.080635;9.764877;12073.12;6885.397;-0.1984909;0.557214;0;
10841.34;7465.94;-39.922;13953.16;-3.91933;10.75981;11631.5;5920.851;0.1915126;0.4916868;0;
-9138.5;-7289.993;300.041;-9610.19;-3.98274;11.01693;-9733.363;-6226.339;0.1263528;0.1013887;0;
-27755.49;-19871.37;181.5645;-32211.37;-3.777668;16.02946;-29343.96;-14991.96;0.1262259;0.2961889;0;
-21013.52;-14107.57;-84.87469;-26176.55;-2.769494;19.22841;-22470.38;-11149.85;0.1910664;0.1659566;0;
-26021.77;-17938.82;-17.60442;-30988.3;-0.8907011;15.19024;-27495.79;-13071.59;0.2558417;0.2307572;0;
-22018.32;-16153.13;-164.5285;-26389.45;-0.3539426;16.38066;-23061.26;-12152.6;-0.06925206;0.165558;0;
4960.83;3069.639;-428.293;5001.569;6.545289;17.97167;5287.708;1722.875;-0.3290519;-0.4842818;0;
12462.51;8741.858;-320.729;16088.06;8.748539;17.95362;13536.92;7488.229;-0.1987865;-0.4188279;0;
9579.102;6555.216;-108.482;12812;6.462573;23.629;10451.69;5457.066;-0.1336194;0.166299;0;
11566.46;8336.434;-130.9866;14900.29;8.867952;24.67699;12511.24;7290.627;-0.2634199;0.2310993;0;
11052.62;7657.426;-19.97327;14187.05;-4.738615;24.31728;11855.12;6099.069;-0.1332205;0.1009324;0;
-8864.543;-7065.309;292.218;-9321.805;-9.221832;25.02966;-9430.54;-5997.716;0.1917501;-0.02910372;0;
-27165.18;-19312.54;152.1353;-31661.63;2.241637;18.23935;-28734.26;-14448.36;0.06162272;-0.2239765;0;
-20995.16;-14016.72;-115.555;-26170.85;2.506829;15.34088;-22443.3;-10954.09;-0.4581779;-0.1587841;0;
-25969.93;-17882.9;-62.16877;-30977.66;3.040173;17.0669;-27431.16;-13016.89;-0.3927502;0.1012448;0;
-21216.1;-15564.22;-198.2879;-25636.31;3.841402;15.44228;-22202.22;-11838.61;-0.06751887;-0.0287916;0;
5438.672;3399.649;-434.501;5508.837;6.182066;10.73808;5829.46;1923.216;-0.002483681;-0.09373002;0;
12538.25;8823.161;-316.358;16170.71;8.453031;8.248925;13617.15;7606.52;0.3223555;0.2312009;0;
9745.466;6701.936;-92.54307;12957.66;1.410963;7.63779;10611.76;5569.678;0.4519663;0.1010339;0;
11624.07;8381.635;-120.6859;14955.94;0.2040963;5.352818;12572.95;7332.521;0.06170812;-0.02900233;0;
11160.01;7736.096;-24.80026;14266.88;2.012552;7.289823;11959.63;6164.767;-0.1982233;0.03599416;0;
-8753.578;-6992.872;300.8266;-9272.65;0.6040106;7.014566;-9334.829;-5990.227;-0.0680894;0.1009253;0;
-27133.98;-19360.22;178.1327;-31678.5;5.024033;1.180125;-28722.98;-14550.51;-0.1329883;0.1008239;0;
-20493.04;-13735.91;-86.42898;-25729.46;6.492854;-1.366291;-21955.34;-10857.01;-0.2627894;-0.1591468;0;
-25253.78;-17256.3;-25.45087;-30324.25;-1.752693;-0.09224203;-26739.19;-12577.57;-0.1325906;0.3607519;0;
-21103.22;-15320.13;-167.4164;-25464.29;-4.697693;-1.230859;-22094.22;-11571.07;0.322314;0.4903241;0;
5380.163;3406.077;-428.2264;5534.464;5.622155;-6.253221;5783.917;1953.512;0.2570228;-0.159842;0;
12691.13;8946.399;-317.5859;16330.21;7.96103;-8.256364;13771.12;7696.662;-0.2629742;0.03522063;0;
9749.752;6690.368;-92.69215;12981.16;-2.094653;-9.520743;10617.92;5561.341;-0.3276773;0.03518524;0;
11608.2;8359.49;-121.2409;14960.96;-2.359992;-11.31966;12560.24;7293.645;0.06245598;-0.2896868;0;
11140.25;7677.914;-13.11084;14267.27;-3.898838;-9.700752;11942.64;6097.804;0.3222626;-0.1594611;0;
-8626.479;-6928.338;316.393;-9116.211;-5.435162;-9.557038;-9211.152;-5920.488;0.06206941;0.1005685;0;
-26697.68;-19001.38;179.2376;-31202.16;2.407181;-12.62859;-28287.21;-14219.29;-0.2628297;0.4253042;0;
-20341.52;-13566.01;-91.88445;-25494.09;3.476489;-13.68757;-21807.69;-10684.05;-0.06766355;0.4898442;0;
-24841.71;-16895.26;-28.23032;-29876.32;8.429488;-10.45869;-26342.19;-12234.51;0.06233912;0.3594173;0;
-20007.23;-14662.88;-170.1931;-24323.5;11.50248;-10.04635;-20968.79;-11040.14;-0.5224296;0.2291215;0;
5910.669;3646.777;-430.4693;6175.861;5.261629;-10.70602;6355.738;2120.059;-0.39197;0.1639239;0;
12683.18;8981.648;-333.9444;16354.19;4.720479;-9.623598;13764.12;7751.597;0.19313;0.09879187;0;
9905.047;6814.427;-109.0967;13131.32;5.050528;-13.76675;10773.17;5652.579;0.06300122;-0.1611768;0;
11597.89;8354.818;-106.7851;14970.45;4.107448;-14.2218;12549.88;7287.808;-0.1319641;0.09885456;0;
11179.26;7659.596;-5.228781;14329.6;2.830523;-13.33673;11988.97;6071;-0.06686417;0.1637226;0;
-8123.341;-6519.383;319.3946;-8603.923;2.761306;-14.66298;-8705.512;-5631.112;0.0631377;-0.09631132;0;
-25787.86;-18381.91;221.2322;-30319.81;-4.14132;-6.744449;-27394.54;-13677.02;-0.001893083;-0.03124721;0;
-18733.81;-12655.28;-50.93155;-23946.74;-8.490439;-5.063159;-20210.8;-10194.91;-0.4566626;-0.2910852;0;
-23097.83;-15466.71;5.591242;-28183.11;4.311466;-7.603363;-24616.61;-11541.78;-0.7810404;-0.2907927;0;
-19277.79;-13850.58;-112.4488;-23474.32;4.440855;-5.988132;-20224.69;-10494.84;-0.3254842;0.2292382;0;
6076.469;3767.753;-386.6354;6508.727;3.298293;-12.21141;6564.518;2264.795;0.06464686;0.1640406;0;
12858.86;9147.792;-309.2856;16537.49;5.170013;-12.26612;13943.41;7887.598;-0.0003854402;-0.0310263;0;
9951.126;6856.888;-99.59572;13168.23;-11.04481;-13.92831;10819.06;5705.468;0.2594843;0.09893957;0;
11691.15;8418.913;-119.5637;15078.25;-14.91848;-14.98604;12651.92;7335.616;0.1942562;0.1638075;0;
11300.83;7792.217;-6.156739;14449.2;-15.77414;-5.727518;12110.66;6197.47;-0.195743;0.09867556;0;
-7990.771;-6447.724;309.8937;-8458.138;-19.84413;-3.712336;-8554.677;-5565.176;-0.130579;-0.2262603;0;
-25888.93;-18389.16;183.4426;-30426.11;-10.98293;1.850794;-27474.33;-13686.44;0.1294216;-0.1610656;0;
-19465.05;-13030.76;-78.78188;-24647.16;-9.631747;4.662218;-20921.07;-10356.57;-0.06561047;0.4887697;0;
-23836.26;-16070.52;-9.378185;-28881.41;-9.421975;5.997192;-25322.42;-11833.68;0.1943248;0.6831806;0;
-19471.91;-14177.24;-124.9357;-23813.06;-6.532119;8.603378;-20431.45;-10720.69;0.7788356;0.4226247;0;
6064.987;3711.771;-389.8019;6308.173;-7.731005;-0.9165989;6514.904;2187.476;0.3232817;0.09736336;0;
12892.94;9186.226;-304.8903;16557.24;-5.446061;-3.26002;13978.24;7925.83;-0.1967819;0.03229817;0;
10101.4;6980.193;-98.21887;13332.09;-5.038447;-3.85959;10975.97;5812.112;-0.06664949;0.09723308;0;
11725.46;8457.917;-118.4537;15093.38;-3.827935;-6.534968;12681.59;7368.081;-0.001615175;-0.09776666;0;
11311.79;7766.949;20.17382;14495.71;0.4628185;-5.255726;12137.08;6164.732;0.06335379;-0.2276031;0;
-7892.48;-6422.648;355.5475;-8316.658;1.936222;-6.456138;-8424.907;-5607.939;0.1932248;-0.4222764;0;
-25790.94;-18354.15;211.0439;-30319.1;6.153835;-6.382668;-27362.04;-13702.62;0.06309598;-0.1619828;0;
-19028.64;-12811.01;-73.22849;-24247.22;8.424828;-7.715852;-20496.22;-10226.39;-0.1968368;0.09804937;0;
-23355.81;-15690.06;6.820515;-28415.84;6.541328;-3.019416;-24856.82;-11658.7;-0.2616063;0.0329835;0;
-19490.9;-13988.55;-94.36985;-23661.44;6.869548;-1.475836;-20429.76;-10655.86;-0.6511475;-0.09698433;0;
6068.131;3806.256;-383.286;6503.057;3.781187;-8.507378;6552.158;2271.056;-0.4555912;-0.5516583;0;
13084.57;9333.401;-312.7799;16767.86;0.4958335;-8.364863;14173.62;8062.19;0.389442;-0.2912346;0;
10174.88;7048.073;-89.0935;13406.99;5.58555;-14.25083;11046.02;5868.484;0.3240833;0.2287968;0;
11917.22;8645.575;-118.1768;15304.18;4.173418;-16.58086;12875.9;7546.101;-0.001079014;-0.09626983;0;
11657.89;8068.97;-7.722903;14838.8;-3.868727;-10.40189;12480.03;6454.157;0.1938241;-0.2261078;0;
-7428.174;-6072.002;340.4536;-7845.235;-7.08002;-10.72635;-7986.746;-5304.202;0.1936293;-0.03097856;0;
-25131.51;-17852.09;244.6283;-29633.55;-14.03913;-3.816514;-26726.05;-13303;0.1934348;-0.03094743;0;
-18657.77;-12546.03;-10.09901;-23817.72;-18.04351;-1.334372;-20126.39;-10060.06;0.5830445;0.09901836;0;
-23194.42;-15668.58;58.6266;-28218.9;-20.10149;-3.074527;-24702.56;-11638.35;0.3875566;0.2288536;0;
-19030.79;-13881.49;-69.44609;-23214.3;-22.22474;-1.06201;-19959.29;-10500.7;-0.3274736;0.2935909;0;
6312.904;3826.69;-357.0442;6741.917;-23.94372;-7.960002;6815.843;2295.117;-0.1322425;-0.09650813;0;
12985.59;9267.889;-289.032;16680.79;-25.99675;-9.291662;14074.33;7985.012;0.2576944;-0.2263458;0;
10262.63;7119.589;-81.64251;13503.02;-18.80333;-7.942668;11136.72;5938.685;-0.06740122;0.03375096;0;
11988.27;8694.203;-95.27233;15386.81;-18.98551;-9.073397;12953.31;7588.354;0.06260119;0.2286191;0;
11551.89;7964.517;17.78224;14738.45;-10.99583;-5.983126;12375.78;6341.649;0.192473;0.3583241;0;
-7401.101;-6087.021;346.6616;-7818.468;-5.827214;-5.508234;-7967.574;-5282.977;-0.1325571;0.2280293;0;
-25012.17;-17745.7;241.5222;-29491.06;-26.04947;-4.765947;-26614.27;-13155.94;-0.1973913;0.1628329;0;
-18599.5;-12478.08;-30.47456;-23733.91;-28.36782;-4.56021;-20054.36;-10002.04;-0.002290922;0.0977019;0;
-23208.67;-15617.04;18.93749;-28212.6;-26.59801;-1.474474;-24698.39;-11578.7;-0.06725596;0.03263637;0;
-19238.47;-13867.14;-108.0802;-23389.63;-27.9778;0.06761511;-20171.36;-10466.17;-0.3920251;0.2275056;0;
6177.686;3823.829;-365.4047;6627.452;-20.4476;-5.491914;6672.664;2285.473;-0.1317618;-0.03259236;0;
13095.75;9338.042;-256.4984;16795.57;-18.14988;-5.955276;14191.18;8045.312;0.1282399;-0.2274616;0;
10236.82;7092.845;-37.22571;13487.74;-14.31325;-8.829497;11116.8;5907.22;0.06314375;-0.0972984;0;
11884.32;8568.582;-78.33949;15293.71;-13.62928;-10.89704;12853.11;7452.911;0.2579823;0.1626687;0;
11575.51;8005.033;12.00635;14753.85;3.330975;-5.393608;12399.32;6374.851;0.4526251;0.29244;0;
-7552.445;-6170.671;344.1711;-7967.291;10.29385;-4.71842;-8106.679;-5364.47;0.387203;0.2921461;0;
-25557.35;-18124.3;228.0553;-30038.28;-8.003197;-4.579713;-27135.64;-13523.77;-0.1978921;0.5517219;0;
