Fp1;Fp2;O1;O2;POLY3;POLY4;A1;A2;Video;Audio;event;
24395.45;14759.41;-2816.172;23544.08;11.16727;-7.947074;19666.2;10352.86;0.304437;-0.2701342;0;13:05:09 Глаза закрыты;
20504.37;12246.86;-815.4871;19778.46;10.55284;-11.02018;16428.2;7987.599;-0.08567299;0.1199413;0;
23241.99;14137.12;1600.415;22400.97;14.35965;-1.899674;18798.16;9830.611;-0.3454563;-0.01011393;0;
19357.37;12160.52;2561.261;18870.57;15.4843;3.460748;15917.43;7501.836;-0.2151745;-0.3999078;0;
-11548.12;-8045.437;2102.651;-10650.94;16.67419;6.203449;-9855.696;-6041.632;-0.1499909;-0.204604;0;
-30985.21;-20295.97;936.7949;-29830.18;18.06396;12.42651;-26024.47;-13260.1;0.04506182;0.1204383;0;
-21149.48;-11645.43;-1063.938;-20561.6;15.43384;8.596115;-16820.67;-7797.298;0.1749512;-0.009617371;0;
-27279.19;-16948.43;-3341.302;-26303.9;14.61502;7.716699;-22519.69;-9652.949;0.2397428;-0.3994118;0;
-16845.49;-10707.25;-4289.623;-16489.43;10.58087;7.507997;-13403.14;-7250.952;-0.2802368;-0.2041084;0;
16504.08;11344.9;-3800.306;15724.82;5.546399;5.959845;14597.34;6502.44;-0.6697593;0.2508681;0;
24445.55;14790.79;-2808.999;23587.68;8.957078;4.815269;19712.23;10351.02;-0.08438027;-0.1391881;0;
20441.03;12182.33;-821.9086;19727.74;10.82409;3.269823;16358.03;7929.561;-0.01932814;-0.2689829;0;
23158.35;14051.7;1593.516;22309.03;5.588299;1.792913;18709.24;9738.867;-0.3441454;0.2510262;0;
19361.62;12188.54;2549.621;18877.28;1.028332;-0.5531693;15934.38;7538.651;0.1109718;0.1208392;0;
-11795.45;-8246.642;2084.479;-10857.83;5.782721;1.724684;-10076.83;-6222.807;-0.01907443;-0.2041189;0;
-31244.75;-20537.72;922.5145;-30082.09;7.719294;2.459764;-26293.13;-13490.73;-0.1489899;-0.3338485;0;
-21462.74;-11939.6;-1113.202;-20875.76;6.171296;2.725224;-17157.24;-7957.226;0.6307679;-0.3984804;0;
-28233.83;-17901.43;-3434.541;-27244.56;9.179205;2.320588;-23492.04;-10399.69;0.825036;-0.07324328;0;
-17706.33;-11458.2;-4380.503;-17371.05;0.3950955;5.399349;-14235.67;-7884.199;0.239501;0.1866997;0;
16321.96;11313.78;-3871.496;15523.95;-7.978046;10.35054;14475.64;6489.408;0.1093257;0.1865121;0;
24438.64;14780.12;-2848.4;23578.74;0.4027149;1.364669;19705.87;10326.81;-0.02071886;0.251292;0;
20631.44;12355.94;-829.551;19907.89;5.426152;-4.799009;16536.28;8090.979;-0.08566538;0.05613751;0;
23520.25;14443.9;1591.66;22670.01;-2.348832;-1.579007;19087.32;10141.8;0.04435538;-0.2037883;0;
19767.63;12476.69;2543.284;19267.75;-6.9018;-2.515181;16264.5;7777.541;0.04431081;0.05628587;0;
-11160.02;-7756.759;2064.14;-10259.85;-1.402508;-2.914551;-9539.11;-5837.59;0.1092336;0.381066;0;
-30486.2;-19840.89;896.3865;-29366.28;0.8760768;-1.906879;-25541.09;-12986.41;-0.2157128;0.1208138;0;
-20596.91;-11167.6;-1110.272;-20047.36;0.004540425;-5.120144;-16284.66;-7615.929;-0.1505287;0.05572503;0;
-27317.95;-17030.69;-3412.873;-26319.9;0.2056067;-6.253587;-22578.67;-9809.811;0.1744592;0.1206364;0;
-17106.73;-10966.55;-4356.515;-16740.08;0.5401927;-5.912388;-13727.98;-7359.29;-0.02061811;0.1205152;0;
16621.23;11444.86;-3834.741;15829.2;0.2048573;-7.714987;14643.58;6619.536;-0.2154994;0.1853614;0;
24598.75;14937.02;-2817.303;23741.02;0.2046514;-1.745876;19864.85;10477.77;-0.2152829;0.05524047;0;
20574.57;12313.83;-811.7294;19858.23;1.678314;2.944562;16495.16;8061.951;-0.08513188;-0.07474973;0;
23297.66;14193.11;1617.803;22453.51;-5.959182;0.9990979;18847.78;9884.852;-0.020079;-0.334544;0;
19517.73;12308.54;2577.444;19030.86;-13.38793;1.065077;16071.35;7634.655;0.1098759;-0.07433847;0;
-11454.42;-7941.545;2098.734;-10534.91;-9.758136;2.604614;-9769.643;-6035.056;0.4995695;0.2505729;0;
-30871.52;-20201.27;932.6168;-29707.92;-9.680982;3.003895;-25912.79;-13270.21;0.3041655;-0.3993523;0;
-20918.08;-11444.12;-1075.811;-20327.77;-13.22123;3.335791;-16595.96;-7684.975;0.1089579;-0.009146941;0;
-27330.82;-17032.18;-3371.56;-26339.59;-12.60473;5.408788;-22590.06;-9790.378;-0.151021;0.510601;0;
-16925.94;-10872.67;-4303.874;-16564.81;-18.75498;-0.8927983;-13504.45;-7402.83;-0.5406733;-0.3994549;0;
16671.75;11466.16;-3778.608;15889.67;-23.49156;-6.049465;14758.9;6610.396;-0.6050974;-0.3340861;0;
24510.57;14859.29;-2749.249;23650.19;-18.84625;-3.230225;19777.11;10409.76;-0.2146853;0.05605362;0;
20543.16;12275.16;-736.3872;19824.16;-17.48815;-4.566638;16454.78;8020.468;-0.2794369;-0.0739374;0;
23330.23;14227.43;1679.904;22474.74;-13.25004;-1.547818;18879.46;9918.825;-0.2791561;-0.1388305;0;
19424.02;12219.83;2654.46;18931.96;-7.476927;2.807506;15981.42;7535.724;0.1109284;-0.1386909;0;
-11460.24;-7920.287;2227.209;-10525.72;-7.402065;-1.883998;-9758.738;-5999.408;0.1757843;0.1213178;0;
-30594.52;-19958.68;1089.526;-29431.72;-5.988108;-3.422713;-25649.03;-13069.62;0.04567296;-0.008738815;0;
-20621.54;-11242.78;-908.4865;-20037.06;0.2471998;-1.27582;-16312.79;-7579.693;-0.01934027;-0.2036321;0;
-26852.58;-16573.01;-3188.208;-25861.07;3.595854;-2.614196;-22103.47;-9444.87;0.1755812;0.1214093;0;
-16415.77;-10372.75;-4125.376;-16067.04;7.8118;2.947892;-13017.56;-7036.242;0.3703068;-0.1385821;0;
16759.84;11505.34;-3623.653;15972.54;12.29193;7.700596;14806.9;6612.643;-0.01986935;-0.008508169;0;
24515.57;14863.75;-2608.63;23656.88;9.935053;4.879697;19777.52;10437.2;-0.2797188;0.2513698;0;
20578.3;12316.62;-598.3925;19860.84;10.19349;6.88416;16497.46;8049.952;-0.149503;-0.1386869;0;
23211.68;14098.89;1821.711;22366.1;5.963689;1.987611;18758.19;9795.56;-0.0194181;0.05635451;0;
19380.8;12191.25;2795.594;18887.47;0.1969203;-3.975745;15949.9;7516.264;0.04556875;0.1862326;0;
-11474.66;-7947.707;2357.222;-10562.67;4.282559;2.92737;-9765.318;-6033.044;-0.1493791;-0.268726;0;
-30718.73;-20048.63;1218.347;-29596.51;6.957573;3.862189;-25774.23;-13124.87;0.1106404;-0.2034886;0;
-20876.3;-11445.87;-767.0207;-20321.14;0.05170649;5.733708;-16569.81;-7740.098;0.3054312;0.05658524;0;
-27847.98;-17557.88;-3049.368;-26845.48;-4.034183;10.34965;-23106.48;-10247.81;-0.01971235;-0.00843897;0;
-17809.03;-11508.25;-4004.682;-17444.19;-1.41816;3.641199;-14316.54;-7822.161;0.0452748;-0.2682998;0;
16178.59;11198.93;-3504.876;15394.06;-3.29177;2.096933;14357.35;6432.491;-0.08470538;-0.1380956;0;
24411.34;14750.03;-2490.44;23557.66;4.078928;-1.254199;19682.47;10275.84;-0.4744243;0.3817819;0;
20443.69;12168.03;-497.7194;19728.59;12.51492;-7.549212;16350.47;7924.584;-0.1491109;0.3813983;0;
23306.23;14206.58;1918.863;22461.43;5.870916;-0.3075919;18862.38;9883.727;0.1109083;0.05617836;0;
19448.47;12257.16;2905.219;18960.28;5.998739;2.438895;16010.78;7604.936;-0.01913783;0.1210893;0;
-11723.49;-8192.619;2468.956;-10792.58;5.992712;1.967564;-10010;-6171.847;-0.08408594;-0.1389018;0;
-31129.33;-20428.06;1329.968;-29961.38;2.504065;4.30999;-26179.56;-13389.19;-0.2139361;-0.2037296;0;
-21390.72;-11876.18;-650.2799;-20791.5;12.61561;3.032983;-17088.79;-7922.115;-0.01881915;-0.1385575;0;
-28328.59;-18014.86;-2930.277;-27313.62;18.63115;4.570543;-23591.92;-10500.17;0.1111344;-0.268353;0;
-17957.93;-11653.5;-3883.633;-17593.14;17.5407;2.221548;-14471.96;-7981.034;-0.2138139;0.3166228;0;
16214.96;11255.86;-3394.319;15428.42;17.85787;0.4107768;14378.26;6466.821;-0.01869707;0.381272;0;
24407.7;14734.11;-2391.973;23547.75;21.3899;2.486835;19671.41;10262.52;0.1762237;-0.008915214;0;
20381.31;12106.82;-400.8969;19657.39;24.51624;0.675797;16288.18;7858.834;-0.14879;-0.07387359;0;
23242.5;14145.03;2003.953;22385.82;19.26767;7.306306;18794.79;9819.917;-0.01870584;-0.2037341;0;
19326.26;12127.89;2977.106;18858.24;17.30593;12.99239;15890.36;7500.804;0.176215;-0.2035293;0;
-11972.98;-8403.469;2540.239;-11007.14;11.66148;9.362381;-10246.46;-6243.999;0.1110706;-0.008422807;0;
-31031.4;-20387.11;1404.928;-29889.18;4.684515;10.42458;-26084.01;-13380.62;0.1759263;0.1215204;0;
-20614.5;-11184.75;-575.6765;-20069.35;6.889635;7.801891;-16320.93;-7599.401;0.1107822;-0.1384711;0;
-26884.06;-16582.97;-2864.775;-25891.39;7.284853;4.578993;-22138.27;-9521.03;-0.0192638;-0.4631687;0;
-16501.74;-10465.54;-3830.316;-16142.62;2.187319;7.387553;-13080.71;-7163.097;-0.1491791;-0.2028339;0;
16753.32;11533.09;-3338.51;15966.55;-1.766994;7.045216;14826.74;6633.201;-0.3439313;0.382076;0;
24484.75;14832.33;-2341.639;23625.09;1.851128;7.841932;19745.16;10405.29;-0.213651;0.2517574;0;
20511.46;12238.12;-384.2687;19788.98;2.385131;9.240694;16424.95;7967.635;0.1114004;-0.008364988;0;
23180.42;14081.96;1999.482;22338.21;5.19675;6.619074;18732.96;9780.792;-0.08361357;0.1215781;0;
19374.36;12152.05;2973.311;18879.42;10.08067;6.143543;15925.02;7459.095;-0.2134642;-0.1384134;0;
-11345.19;-7820.563;2541.398;-10456.82;3.640182;4.663867;-9656.813;-5928.784;0.04661962;-0.07330701;0;
-30277.18;-19695.92;1406.741;-29163.68;-1.051549;2.381761;-25349.87;-12883.26;-0.1483292;0.2516034;0;
-20160.57;-10861.78;-579.8774;-19598.59;3.101717;5.125546;-15870.72;-7373.958;-0.4080496;-0.1384535;0;
-26202.39;-15956.99;-2866.489;-25220.82;5.175681;6.661004;-21460.51;-9074.05;-0.08280285;-0.2032817;0;
-15683.65;-9805.114;-3839.181;-15357.84;-1.05881;4.577962;-12330.97;-6717.362;0.1121824;0.1867266;0;
17034.14;11629.69;-3383.238;16235.76;-3.938134;1.760079;15031.58;6650.484;-0.4726364;-0.008363066;0;
24480.55;14844.24;-2414.23;23628.23;-5.742838;6.045096;19740.74;10440.5;-0.4071942;-0.1382893;0;
20608.34;12343.25;-465.1419;19884;-7.7468;9.18722;16521.41;8055.924;-0.01698097;-0.3980198;0;
23207.08;14094.96;1907.508;22363.15;-8.408601;3.886458;18748.35;9797.122;-0.406768;-0.3326525;0;
19455.25;12243.26;2886.255;18944.73;-11.41426;3.413673;16006.24;7535.894;-0.1464899;0.4472899;0;
-11260.64;-7749.526;2463.722;-10402.73;-5.106153;-3.08698;-9577.678;-5924.479;0.2434614;0.5118078;0;
-30386.7;-19770.82;1320.991;-29284.11;-2.489054;-9.11222;-25457.83;-12933.94;-0.1465873;-0.1383799;0;
-20322.56;-11015.56;-661.1998;-19764.94;0.5275566;-7.763405;-16047.03;-7510.332;-0.01650533;-0.2032082;0;
-27087.21;-16832.03;-2946.136;-26103.67;6.756317;-11.03765;-22370.77;-9811.156;0.1784133;0.2517674;0;
-17018.29;-10931.23;-3926.838;-16670.54;-1.756938;-5.802009;-13626.91;-7475.717;0.1132667;-0.1382897;0;
16613.52;11382.98;-3453.613;15820.04;-7.247529;-0.5046492;14661.01;6541.612;-0.01678183;-0.3330527;0;
24468.75;14811.7;-2452.753;23606.8;-3.958693;-4.523118;19728.22;10341.66;-0.6014711;0.1870207;0;
20362.04;12097.14;-463.0063;19640.77;-1.542842;-4.049693;16274.13;7847.139;-0.5358993;0.1218654;0;
23151.39;14039.96;1943.234;22300.9;-9.914036;-2.772948;18688.46;9706.347;0.1143126;-0.1381264;0;
19164.84;12003.31;2902.595;18688.96;-14.4594;-3.105076;15749.02;7355.192;0.4390344;-0.202955;0;
-11885.67;-8236.041;2460.04;-10957.63;-14.5786;1.385778;-10138.2;-6129.096;-0.01617814;-0.3326857;0;
-30513.29;-19936.38;1348.969;-29421.23;-22.4672;3.594823;-25585.03;-13057.39;-0.4709333;-0.5272534;0;
-20034.81;-10854.4;-616.7737;-19519.3;-6.369697;5.399628;-15772.88;-7407.586;-0.3405254;-0.2668543;0;
-26377.84;-16159.4;-2899.006;-25416.82;3.549689;8.408434;-21656.94;-9178.702;-0.2752159;0.1232179;0;
-16030.46;-10048.62;-3856.611;-15719.27;0.1972197;5.117822;-12670.54;-6858.829;-0.3399067;-0.2017426;0;
16895.73;11555.25;-3382.722;16090.84;7.69911;2.969347;14912.25;6588.135;-0.01472845;-0.3314746;0;
24355.48;14714.28;-2392.85;23499.85;-5.034651;2.765415;19614.55;10297.3;0.3101231;0.05866251;0;
20450.24;12189.11;-407.2393;19722.56;-11.19251;-0.1846128;16363.87;7917.695;0.04994208;0.05860357;0;
23170.42;14047.46;1986.967;22320.97;-11.7835;0.8872996;18709.32;9726.607;-0.5348142;0.05854468;0;
19203.3;12050.87;2940.677;18714.5;-18.93896;2.092101;15771.01;7402.638;-0.2744074;0.1884205;0;
-11760.38;-8186.572;2490.182;-10863.34;-10.34611;-4.54119;-10060.99;-6138.451;0.05070501;-0.1366055;0;
-30732.41;-20060.15;1356.264;-29629.48;-8.996544;-7.61772;-25803.15;-13079.98;-0.4041173;-0.2664029;0;
-20805.98;-11414.94;-626.1031;-20256.38;-3.025657;-9.08369;-16513.1;-7684.494;-0.2737766;0.1236688;0;
-28005.58;-17713.96;-2918.821;-27006.62;3.206673;-9.94534;-23277.69;-10251.73;0.5061066;0.05857721;0;
-18030.58;-11666.99;-3876.078;-17658.31;3.136102;-11.27488;-14561.2;-7860.717;-0.07910801;-0.2663184;0;
16109.49;11172.84;-3378.806;15328.25;10.09918;-15.08158;14263.84;6429.814;-0.3388979;0.1237533;0;
24507.17;14830.24;-2371.868;23640.93;0.3097644;-4.684318;19772.26;10345.38;0.2461487;0.3834983;0;
20507;12226.34;-372.6295;19778.45;-3.710011;1.214765;16409.95;7972.144;-0.07893533;0.05827626;0;
23320.44;14228.18;2044.233;22466.95;-4.50959;3.557947;18868.15;9911.826;-0.1438234;-0.266619;0;
19483.56;12244.07;3007.303;18995.04;-11.20286;8.912885;16033.03;7564.62;0.3760599;-0.2013838;0;
-11561.03;-8063.77;2555.414;-10642.56;0.328969;6.961424;-9861.977;-6112.876;0.2457473;0.1236553;0;
-30861.54;-20239.53;1404.283;-29712.67;6.155787;8.896935;-25913.87;-13261.75;0.05059839;-0.006403649;0;
-20905.23;-11477.37;-600.059;-20324.89;8.561476;3.328533;-16597.72;-7666.383;-0.2742892;-0.3312339;0;
-27041.35;-16754.71;-2882.84;-26063.55;13.57574;-1.229529;-22315.44;-9572.343;-0.3389809;-0.07103173;0;
-16564.29;-10517.33;-3833.104;-16230.72;15.70555;-2.30002;-13138.21;-7178.251;-0.1437383;0.3188437;0;
16633.16;11436.06;-3360.098;15837.59;18.63751;-7.589239;14744.51;6557.249;-0.2085612;0.05865397;0;
24474.9;14830.73;-2358.739;23611.74;19.28837;-3.763708;19735.09;10380.78;0.1814524;-0.07133967;0;
20583.27;12306.07;-348.4721;19858.71;20.94295;-3.023114;16482.46;8038.273;0.5710742;0.5134381;0;
23296.03;14192.99;2059.387;22447.16;16.23383;-3.354991;18847.5;9872.036;0.505533;0.4479549;0;
19375.25;12170.7;3007.73;18879.43;12.93499;-0.136561;15910.37;7501.693;0.1801883;-0.072234;0;
-11597.1;-8064.314;2542.315;-10701.3;9.37202;-5.963695;-9938.835;-6043.102;0.2449746;0.05777328;0;
-30622;-19972.02;1391.416;-29511.04;3.870246;-9.306849;-25712.93;-13061.62;0.1147938;0.1226826;0;
-20590.18;-11192.12;-590.4394;-20045.65;5.406599;-6.953095;-16320.57;-7581.826;-0.4700276;-0.2672448;0;
-26857.04;-16556.27;-2863.391;-25884.05;6.004378;-7.749904;-22147.14;-9479.75;-0.1447186;0.1228278;0;
-16298.17;-10247.89;-3814.55;-15964.51;1.711438;-6.201509;-12963.05;-7019.519;0.2452308;0.7723778;0;
16821.85;11558.67;-3329.115;16024.69;-2.376119;-5.994329;14816.14;6629.021;-0.1448196;0.446765;0;
24507.73;14840.54;-2320.76;23650.91;3.855559;-4.782735;19762.57;10418.26;-0.01473943;0.1214794;0;
20572.21;12303.03;-311.5927;19848.98;7.871149;-1.763697;16479.31;8017.357;0.05024272;0.1213573;0;
23248.4;14149.93;2104.459;22401.71;6.25565;-6.852506;18794.5;9855.171;-0.07974245;-0.008699292;0;
19551.39;12278.05;3054.304;19038.86;8.660261;-8.721143;16060.67;7554.451;0.3751091;0.1862115;0;
-11067.67;-7610.729;2582.611;-10202.23;5.302657;-9.315226;-9462.961;-5778.817;0.4396995;0.2509917;0;
-29802.22;-19250.01;1422.16;-28689.34;2.618012;-10.44445;-24896.27;-12550.24;0.114421;0.1857722;0;
-19824.69;-10599.52;-597.4573;-19254.15;4.356693;-11.30474;-15539.75;-7265.065;0.1792734;0.4454549;0;
-26521.58;-16305.87;-2900.918;-25549.97;3.079518;-17.12077;-21814.88;-9391.317;0.6338646;0.38004;0;
-16071.5;-10136.72;-3835.375;-15773.51;5.488297;-5.180973;-12742.05;-6925.147;0.308391;0.1847561;0;
16977.97;11608.37;-3329.789;16159.11;8.965407;3.196978;14967.87;6651.568;-0.2116576;0.7692765;0;
24329.32;14685.68;-2317.404;23468.73;4.200976;-3.772337;19586.2;10271.72;0.1783591;0.5736015;0;
20358.4;12088.96;-302.8993;19631.79;3.52717;-1.893025;16265.95;7801.446;0.04824521;-0.206583;0;
23065.76;13959.04;2116.83;22227.22;1.916035;-10.39771;18606.67;9662.979;-0.3416073;-0.07644072;0;
19276.17;12041.78;3086.198;18776.09;-3.914015;-16.08069;15806.18;7315.086;0.243442;0.05357078;0;
-11098.68;-7560.815;2644.599;-10232.2;7.209329;-17.67212;-9458.588;-5726.962;0.3731321;-0.07641774;0;
-29377.72;-18871.25;1488.225;-28290.15;12.62709;-24.41946;-24473.39;-12201.86;-0.08201424;0.05359374;0;
-18891.8;-9889.12;-523.1664;-18368.28;11.54268;-15.75431;-14638.72;-6915.341;-0.08193184;0.4433439;0;
-25556.23;-15396.83;-2817.471;-24595.99;15.61692;-9.844223;-20873.24;-8904.779;0.1130525;0.4428985;0;
-15977.66;-9858.684;-3777.5;-15641.22;7.899041;-12.44654;-12628.43;-6697.233;-0.01699576;0.1825841;0;
16623.93;11349.65;-3287.824;15831.21;4.407504;-11.56326;14636.82;6421.624;-0.4067827;-0.01250143;0;
24143.24;14491.34;-2283.32;23289.72;-0.01755458;-6.394077;19395.2;10049.92;-0.1465046;-0.2073909;0;
20100.23;11837.81;-281.8904;19377.68;-6.447898;-2.770696;16007.42;7583.137;0.3733813;-0.2721498;0;
22963.24;13839.22;2150.264;22108.26;-4.833829;0.04524937;18493.3;9494.74;0.3080388;0.05296034;0;
19184.06;12023.8;3121.739;18693.8;-5.297487;4.399095;15748.31;7403.684;0.2427619;-0.2719296;0;
-12087.51;-8521.043;2661.098;-11172.49;-7.167198;2.318203;-10384.81;-6305.056;0.04761598;-0.6614604;0;
-30980.3;-20333.52;1517.966;-29871.14;-9.50452;2.44984;-26062.68;-13306.03;-0.1473339;-0.0760897;0;
-20531.36;-11160.66;-463.8917;-20002.69;-2.395024;0.772805;-16271.62;-7640.373;-0.4070552;0.3137908;0;
-27804.8;-17527.99;-2759.787;-26831.88;4.506259;-3.514757;-23102.58;-10235;-0.2117442;0.3784429;0;
-17965.04;-11653.79;-3728.369;-17627.75;1.019106;1.713321;-14501.19;-7903.005;-0.08159673;0.3130952;0;
16263.39;11296.92;-3228.982;15460.03;0.41487;3.520139;14418.37;6519.862;-0.3413841;-0.07702341;0;
24535.93;14869.2;-2209.873;23671.13;4.50029;2.310909;19796.48;10382.96;0.1786976;-0.07694601;0;
20512.49;12227.46;-205.7211;19782.39;5.567495;4.586007;16406.75;7978.543;0.5033548;-0.141836;0;
23346.49;14249.1;2206.289;22495.38;7.102142;-1.513926;18892.43;9919.219;0.2429797;-0.3365955;0;
19375.14;12172.29;3171.008;18879.5;9.43953;-6.134105;15930.08;7502.602;0.1128008;-0.3362573;0;
-11539.06;-7969.79;2728.246;-10657.76;5.612628;-4.520473;-9846.74;-5977.149;-0.2771166;-0.01108275;0;
-30590.48;-19948.77;1572.272;-29475.77;6.142852;-7.998922;-25677.79;-12972.91;-0.1469034;0.4436998;0;
-20839.35;-11432.44;-440.2818;-20281.62;-1.901272;-3.034269;-16566.18;-7585.166;0.2430482;0.2483519;0;
-26949.75;-16662.7;-2717.663;-26002;-12.28184;1.724446;-22243.69;-9484.164;0.3727387;-0.07673433;0;
-16126.89;-10166.78;-3652.633;-15811.01;-0.8826426;-5.98008;-12762.83;-6979.31;0.2424295;0.1832121;0;
16868.25;11562.67;-3162.692;16074.47;3.472501;-7.581662;14915.29;6633.551;-0.3425202;0.2479954;0;
24481.95;14829.63;-2164.795;23615.19;1.660351;-10.85609;19737.3;10414.42;-0.2772087;0.2477462;0;
20595.93;12321.76;-181.8342;19862.94;5.275029;-13.59148;16496.73;8029.727;0.04790657;0.3124646;0;
23334.8;14232.47;2229.824;22480.89;0.1795133;-13.77877;18878.49;9936.259;-0.3419456;0.05228128;0;
19827.47;12542.13;3214.525;19305;-1.896772;-17.3149;16332.45;7809.995;-0.2116673;0.05222875;0;
-10976.81;-7579.649;2757.679;-10123.66;-1.157932;-9.996604;-9379;-5769.609;0.2433167;-0.07775842;0;
-30166.05;-19601.72;1605.017;-29083.14;-2.899057;-6.637413;-25276.17;-12799.99;-0.01679712;-0.402517;0;
-20203.42;-10987.02;-375.257;-19687.71;0.4537351;-2.946804;-15934.54;-7420.923;-0.341617;-0.2072105;0;
-27444.69;-17225.9;-2660.934;-26495.27;3.266318;4.424157;-22757.06;-9975.102;-0.01643699;-0.336937;0;
-17607.76;-11278.93;-3628.288;-17286.05;1.253304;-2.479408;-14208.48;-7657.769;0.2434489;-0.2066638;0;
16365.44;11365.18;-3151.943;15549.72;-0.08712566;-5.424044;14463.57;6546.945;-0.1465998;0.37825;0;
24688.51;15014.63;-2126.758;23815.79;4.266243;-3.610177;19946.26;10547.67;-0.1464525;0.05303321;0;
20884.88;12592.5;-107.2289;20147.6;7.008622;-5.013069;16775.02;8312.81;0.2434987;-0.4667588;0;
23788.04;14714.21;2303.073;22935.91;7.202651;-4.874187;19340.81;10431.92;0.04835204;-0.1414531;0;
20254.24;12879.09;3274.661;19724.36;10.47697;-5.538997;16718.28;8083.784;-0.3415006;0.3784278;0;
-10265.53;-6947.25;2808.368;-9451.059;6.113159;-6.203261;-8733.324;-5360.913;-0.1462554;0.1831455;0;
-29214.2;-18755.14;1640.273;-28138.59;3.025558;-6.732892;-24328.19;-12171.49;0.1137609;-0.2068426;0;
-19442.62;-10429.71;-349.329;-18898.07;5.232344;-7.395956;-15168.37;-7098.414;0.04867925;0.118202;0;
-26778.23;-16638.84;-2640.529;-25805.39;1.208599;-8.125337;-22094;-9620.494;0.04863034;0.4429199;0;
-17015.26;-10772.56;-3607.092;-16669.34;10.11599;-7.715274;-13615.67;-7285.778;-0.1463206;0.5724095;0;
16618.97;11496.39;-3129.706;15825.8;18.41122;-7.573556;14699.83;6621.244;-0.1461735;0.6368017;0;
24655.37;14994.87;-2124.814;23790.95;6.604703;-6.695168;19909.81;10545.19;0.2437774;0.1164231;0;
20786.54;12499.01;-119.4677;20047.35;0.9710128;-3.138467;16680.06;8222.665;0.04863042;-0.2085306;0;
23704.86;14622.29;2303.153;22851.88;1.639622;-8.627792;19254.87;10325.92;-0.2112878;-0.2732884;0;
20216.22;12854.86;3282.237;19684.46;0.4998752;-12.83893;16685.47;8088.758;0.04879386;-0.01314443;0;
-10334.04;-7023.323;2815;-9526.448;-4.591818;-6.060871;-8808.641;-5401.437;0.1786795;0.05183614;0;
-29388.36;-18931.12;1660.813;-28315.49;-9.275277;-4.313347;-24519.23;-12307.35;0.1135326;-0.143118;0;
-19679.35;-10657.44;-307.1335;-19131.33;-7.859438;0.04487791;-15409.93;-7193.077;-0.01651612;-0.07800684;0;
-26889.55;-16753.78;-2589.865;-25916.76;-10.06234;4.867482;-22206.24;-9595.576;-0.01649953;-0.1428958;0;
-16955.45;-10753.96;-3555.823;-16621.27;-5.564254;3.991813;-13568.12;-7224.637;0.1784191;0.05214982;0;
16623.52;11468.06;-3079.878;15819.48;-1.339105;6.533031;14692.41;6603.082;-0.01666223;0.3769341;0;
24554.55;14896.51;-2096.526;23694.9;-4.887733;3.378391;19808.09;10434.33;-0.4064495;-0.07821602;0;
20690.51;12405.98;-118.0532;19961.19;-5.418685;0.6956792;16586.95;8136.043;-0.2761064;-0.2080721;0;
23598.14;14509.67;2286.107;22748.59;-4.407886;3.240332;19147.05;10207.03;0.0490077;0.1169737;0;
19943.32;12606.11;3271.626;19416.99;-1.121903;3.772939;16419.69;7851.823;-0.01600889;0.1168561;0;
-10523.76;-7172.915;2858.42;-9710.527;-9.358823;1.826643;-8972.009;-5439.936;0.3088439;0.1817061;0;
-29233.73;-18775.23;1723.257;-28162.46;-16.45034;-1.859132;-24340.98;-12151.48;0.5684029;0.05158881;0;
-19660.06;-10625.36;-274.1899;-19107.68;-9.266517;3.635215;-15381.2;-7228.149;0.4378971;-0.07839773;0;
-26904.7;-16761.89;-2548.131;-25921.64;-7.850686;7.51645;-22216.54;-9671.186;0.3724898;0.1165831;0;
-16701.39;-10548.79;-3494.515;-16353.72;-5.430924;2.753232;-13299.03;-7183.495;0.0472788;0.0514986;0;
16704.92;11517.45;-3001.719;15908.69;-1.942842;2.549516;14787.02;6596.285;-0.2126381;-0.1434552;0;
24531.79;14879.33;-1978.887;23667.05;-2.476754;-1.739831;19787.25;10445.23;0.1773796;-0.0783437;0;
20656.63;12373.35;21.22216;19926.81;-1.067746;-5.489005;16555.28;8095.415;0.3071361;-0.1432323;0;
23488.88;14390.29;2437.674;22635.16;-2.674263;-5.081592;19033.9;10086.42;0.1119254;-0.01315372;0;
19881.85;12620.34;3425.992;19369.58;-6.623691;-7.621838;16409.73;7890.802;0.4366497;0.05182686;0;
-11038.02;-7541.854;2980.506;-10177.32;-0.5878395;-4.934862;-9397.249;-5680.512;0.3712436;-0.2730619;0;
-29990.21;-19507.23;1846.08;-28894.57;5.976835;-4.12623;-25083.67;-12756.53;-0.2138355;-0.4676896;0;
-19725.67;-10713.55;-114.4155;-19178.19;-7.425757;-3.988118;-15453.54;-7317.155;-0.08368596;-0.1423829;0;
-26589.72;-16427.61;-2385.175;-25617.83;-14.2508;-3.649196;-21895.81;-9367.472;0.3062022;0.5074335;0;
-16518.47;-10436.2;-3337.532;-16186.72;-15.17351;-2.908717;-13150.37;-7044.597;-0.0189422;0.376989;0;
16900.51;11618.73;-2842.754;16101.63;-22.92877;1.046076;14955.82;6722.659;-0.1488578;-0.1431286;0;
24604.6;14955.36;-1838.495;23746.84;-11.98739;-8.265358;19861.56;10514.76;-0.2136756;0.0519173;0;
20630.31;12356.76;144.9502;19904.6;-3.26781;-13.81651;16527.04;8086.707;-0.5382976;0.2467672;0;
23450.79;14340.79;2551.517;22601.53;-11.77099;-12.93185;18993.64;10021.96;-0.7326587;-0.2732195;0;
19499.25;12281.21;3523.994;18985.81;-14.907;-17.13866;16025.5;7592.61;-0.1472165;-0.6627491;0;
-11357.81;-7823.301;3086.093;-10507.92;-9.734454;-10.75818;-9706.344;-5805.398;0.2427355;-0.4671811;0;
-29980.54;-19421.75;1960.338;-28905.25;-9.122437;-6.92947;-25082.14;-12589.4;-0.0173778;0.05302707;0;
-19774.54;-10551.01;-20.13727;-19245.59;-6.366604;-7.123456;-15535.74;-7227.285;0.1125743;0.0529738;0;
-26178.98;-15959.5;-2292.943;-25228.59;-2.207997;-3.767273;-21491.38;-9108.886;0.6321999;-0.1419815;0;
-15735.42;-9880.304;-3229.339;-15443.56;-8.769862;-5.437939;-12431.06;-6755.333;0.1767933;-0.2068062;0;
17101.79;11675.5;-2747.835;16279.15;-9.89915;-5.901356;15062.07;6685.108;-0.2131884;-0.01169633;0;
24489.52;14850.85;-1756.461;23630.54;-16.25319;-3.350197;19738.64;10446.36;0.3067646;0.4430868;0;
20665.2;12392.22;241.222;19932.22;-24.67598;-1.73924;16566.74;8092.381;0.1115543;0.2477396;0;
23471.31;14372.27;2659.077;22616.88;-16.61323;-2.407322;19009.57;10077.14;-0.01849245;-0.2722481;0;
19826.11;12540.11;3635.459;19306.82;-13.7835;-2.605852;16321.06;7801.637;0.6311995;0.05286219;0;
-10826.91;-7392.552;3182.454;-9986.143;-13.63593;-2.134353;-9248.507;-5596.909;0.6955326;0.2477111;0;
-29676.04;-19168.64;2042.687;-28614.65;-10.13863;-3.873764;-24802.53;-12490.96;0.04516036;0.1824949;0;
-19105.77;-10016.22;81.05733;-18610.14;-11.73603;0.01513806;-14880.52;-7060.489;-0.149787;0.1173441;0;
-25678.2;-15489.41;-2200.268;-24737.92;-12.79596;2.158455;-21026.24;-8958.953;0.1752002;-0.2076105;0;
-16110.44;-10104.55;-3165.009;-15793.03;-7.76024;0.6826614;-12820.66;-6797.236;0.1750241;-0.2723692;0;
16921.78;11556.92;-2676.682;16106.14;-5.675362;3.093361;14876.6;6673.779;0.3697503;0.05274118;0;
24671.26;15022.35;-1675.057;23806.35;-3.05769;-3.674901;19916.67;10566.13;0.4993134;0.1176555;0;
20766.38;12496.15;329.4946;20035.11;3.509465;-7.757046;16666.69;8223.294;0.173975;0.1825047;0;
23579.02;14475.3;2747.651;22727.5;-6.608118;-7.749251;19115.39;10164.99;-0.1510365;0.1173539;0;
19919.46;12619.35;3705.204;19391.44;-12.69705;-12.76506;16400.59;7867.362;-0.1508847;-0.01269869;0;
-10535.67;-7178.555;3237.48;-9709.77;-8.598452;-6.188031;-8991.574;-5495.893;0.2390709;0.1822161;0;
-29775.72;-19171.33;2057.584;-28694.42;-12.27351;-4.842155;-24913.23;-12469.22;0.5636674;0.3119677;0;
-20354.82;-10996.3;35.29779;-19827.01;-2.28084;-2.493009;-16111.38;-7443.4;-0.08657237;-0.07814983;0;
-26909.53;-16669.13;-2246.981;-25970.28;6.562711;3.738787;-22236.98;-9630.303;-0.3463548;-0.208006;0;
-16419.39;-10372.94;-3176.927;-16114.92;0.7963164;-5.776302;-13053.4;-7117.603;-0.2160721;-0.1428296;0;
16776.92;11543.42;-2672.736;15957.37;1.867243;-6.641276;14815.45;6600.36;-0.5406917;-0.1426861;0;
24483.8;14833.88;-1652.531;23624.86;0.860013;-15.878;19733.6;10411.54;-0.2153116;0.05235929;0;
20688.83;12408.52;356.6986;19966.49;-2.489754;-27.85175;16584.35;8118.292;-0.02019328;-0.01266068;0;
23423.98;14326.17;2760.835;22573.24;3.742039;-16.03501;18967.62;10026.94;-0.5399117;-0.3374847;0;
19792.96;12499.02;3720.327;19269.99;4.742657;-13.47367;16278.21;7772.24;-0.1495652;-0.2072109;0;
-10911.74;-7521.064;3251.057;-10066.58;6.747623;-9.642227;-9348.521;-5727.413;0.2403892;-0.1420353;0;
-30233.19;-19658.7;2075.411;-29138.46;11.02775;-1.862641;-25359.06;-12863.8;-0.01972174;-0.2718273;0;
-20108.73;-10853.16;73.72126;-19581.3;2.040713;-5.678674;-15871.12;-7477.843;0.2401674;-0.2065868;0;
-26857.92;-16632.52;-2217.967;-25887.96;-3.318996;-3.328688;-22185.91;-9622.31;0.1749588;-0.1414119;0;
-17145.18;-10938.16;-3160.466;-16768.21;-3.851524;-4.598019;-13760.95;-7312.157;-0.2799884;-0.2712045;0;
16483.36;11339.45;-2640.55;15700.45;-5.656316;-8.210355;14527.04;6558.315;-0.2147397;-0.465834;0;
24506.83;14836.95;-1616.161;23634.95;-9.401676;0.438571;19755.61;10344.94;-0.01962194;-0.5953006;0;
20391.19;12121.9;393.6258;19661.85;-12.54006;4.323019;16294.19;7870.429;0.1103325;-0.5297351;0;
23215.33;14102.49;2806.564;22366.13;-11.12094;4.787555;18753.79;9780.541;0.2401563;-0.3992682;0;
19409.82;12225.5;3763.402;18901.63;-12.24884;8.60065;15943.83;7518.064;0.4997843;0.2508065;0;
-11314.71;-7728.197;3301.57;-10457.26;-6.140966;4.171256;-9672.193;-5837.265;0.3693475;0.4454565;0;
-30180.36;-19543.74;2126.076;-29102.77;-1.178303;1.621714;-25298.6;-12762.7;-0.02082771;-0.3345992;0;
-20402.85;-11076.78;92.77309;-19871.71;0.8989859;3.093709;-16147.3;-7489.892;0.1091279;-0.2043283;0;
-26878.46;-16639.12;-2199.153;-25946.82;7.194722;1.683958;-22196.57;-9555.574;0.2389529;-0.1391557;0;
-16251.06;-10209.2;-3117.168;-15995.79;3.3691;3.35684;-12958.31;-7045.823;0.1087781;-0.3988852;0;
16812.78;11552.42;-2600.247;15977.27;1.088539;4.425194;14788.66;6556.126;0.1736362;-0.2685497;0;
24304.24;14642.99;-1580.177;23448.89;5.173282;2.88014;19558.55;10239.14;0.2384291;-0.3332472;0;
20465.22;12199.34;428.4333;19730.27;3.29305;2.073451;16367.93;7911.889;-0.08664722;-0.1380104;0;
23235.77;14111.66;2831.029;22378.47;10.0549;2.875162;18768.38;9795.426;-0.2814622;0.05703034;0;
19426.92;12247.52;3782.814;18920.62;17.6806;3.542103;15972;7578.614;-0.02131;-0.137929;0;
-11586.68;-8053.166;3316.152;-10713.9;7.481431;2.131902;-9938.082;-6125.944;0.04367876;-0.007855734;0;
-30853.33;-20186.3;2146.406;-29747.79;5.33046;1.794845;-25962.1;-13253.23;-0.4111365;0.2520216;0;
-20694.83;-11274.31;141.8499;-20158.3;0.03381791;0.6543318;-16445.08;-7691.457;-0.1508541;-0.2030031;0;
-27916.46;-17624.46;-2155.06;-26946.11;-10.88456;-1.020777;-23237.41;-10354.34;0.6289057;-0.3327338;0;
-18304.18;-11921.2;-3096.483;-17943.87;3.192553;0.3199073;-14867.39;-8017.198;0.1735023;0.05740459;0;
16097.87;11181.14;-2556.376;15301.74;8.48063;-0.01532876;14231.31;6511.075;-0.4763454;0.1223143;0;
24689.4;15003.07;-1530.915;23812.52;7.132938;0.654394;19937.55;10469.21;0.1088393;0.1871587;0;
20690.73;12402.95;455.6255;19957.22;12.14961;1.524515;16578.37;8157.286;0.1736972;0.251938;0;
23707.13;14615.67;2870.781;22848.36;3.094099;0.7861704;19252.69;10288;-0.151314;-0.1381192;0;
20094.19;12794.7;3830.616;19570.19;-0.8601487;3.799613;16577.73;8077.798;0.2386421;-0.2679151;0;
-11025.3;-7667.86;3346.587;-10183.76;-2.735295;-3.170308;-9463.584;-5805.968;0.368337;-0.007776565;0;
-30810.09;-20156.78;2159.866;-29711.43;-4.808651;-8.592618;-25949.03;-13200.77;0.1080975;0.1221659;0;
-21641.53;-12124.63;144.5199;-21075.79;-9.158076;-3.493404;-17387.66;-8025.589;-0.2818151;0.3169452;0;
-28663.22;-18376.96;-2135.198;-27701.69;-15.9804;-5.566242;-23984.53;-10775.01;-0.2165646;0.5115288;0;
-17891.21;-11608.71;-3062.851;-17583.2;-6.65457;3.213871;-14463.96;-8046.288;0.1084897;0.3810801;0;
16409.9;11446.14;-2548.733;15592.06;-2.82949;10.24373;14535.35;6605.593;-0.1514887;0.1857952;0;
24598.29;14920.04;-1528.309;23726.93;0.1874626;7.286185;19846.16;10457.16;-0.1513365;0.1856085;0;
20851.75;12561.3;469.801;20119.52;5.74698;12.36944;16734.62;8279.599;-0.2161518;0.1204546;0;
23756.88;14667.2;2864.734;22899.57;4.669478;1.706974;19298.54;10356.46;-0.5407713;0.05536627;0;
19892.7;12599.86;3815.08;19388.33;7.745269;-6.80133;16384.62;7877.737;-0.08545652;-0.2695261;0;
-11111.12;-7683.311;3353.883;-10235.88;3.049413;-0.3642561;-9522.206;-5786.595;0.1744987;-0.3991899;0;
-30355.87;-19783.69;2212.6;-29271.93;-1.174186;-0.430873;-25492.86;-12915.51;-0.4103827;-0.008984795;0;
-20489.91;-11187.81;252.7984;-19962.03;1.037797;1.043062;-16252.4;-7615.093;-0.4749377;0.315861;0;
-27181.12;-16932.32;-2007.085;-26222.2;0.03237634;3.185468;-22508.95;-9832.62;0.1102456;0.05567421;0;
-16757.29;-10694.43;-2932.868;-16442.52;-1.174081;4.053046;-13441.97;-7285.016;0.1101348;-0.2692184;0;
16865.09;11617;-2412.119;16057.87;-2.10993;5.85739;14859.75;6757.905;-0.2148125;-0.46385;0;
24701.23;15032.45;-1413.711;23838.3;-4.452335;9.133668;19946.32;10574.62;-0.1496294;-0.07357984;0;
20753.58;12476.6;552.9088;20020.59;-8.734769;12.47352;16641.64;8184.607;-0.08451166;0.3162982;0;
23504.82;14409.45;2938.591;22652.1;-1.291253;12.59495;19039.21;10105.57;-0.4092635;-0.07382372;0;
19780.28;12478.82;3896.156;19255.55;9.293592;12.44833;16270.02;7728.84;-0.3438849;0.05618515;0;
-10852.41;-7425;3447.98;-10036.36;-5.586201;15.651;-9290.327;-5650.751;0.3061341;0.1860634;0;
-29831.71;-19328.52;2311.351;-28789.42;-11.60881;17.64464;-24998.5;-12594.72;0.3707938;-0.2039276;0;
-19823.21;-10621.28;348.1856;-19305.81;-8.04717;15.0147;-15611.66;-7266.753;-0.01938281;-0.07378805;0;
-25698.63;-15513.44;-1902.689;-24778.37;-17.28248;13.92788;-21042.69;-8917.103;0.1105713;0.4460248;0;
-14847.1;-9227.112;-2838.01;-14598.19;6.781387;10.89966;-11625.29;-6415.037;0.1754276;0.3806093;0;
17627.05;11982.46;-2353.025;16795.97;23.65378;7.606663;15512.31;6938.841;0.2402187;-0.009577171;0;
24667.88;15045.82;-1339.294;23810.8;15.45834;6.393327;19912.86;10656.23;0.04507526;-0.1395022;0;
20930;12659.46;667.4029;20188.04;23.14597;3.908656;16831.2;8352.426;-0.3447741;-0.3342641;0;
23637.25;14518.13;3052.439;22787.61;9.323984;3.301883;19169.75;10227.82;0.1753111;-0.2039935;0;
19717.6;12471.62;4000.644;19193.24;1.142942;3.566497;16209.6;7701.387;0.564939;0.3159502;0;
-10608.65;-7111.541;3543.071;-9809.582;2.01245;0.4147151;-9030.381;-5392.695;0.3694693;0.2506654;0;
-29210.5;-18652.36;2376.767;-28162.92;-7.567766;-1.929982;-24340;-12003.97;-0.08567334;0.05551149;0;
-19440.12;-10310.22;383.7546;-18919.3;6.037496;1.019084;-15203.87;-7097.24;-0.1505546;0.1853904;0;
-25985.57;-15801.72;-1885.022;-25072.06;10.51941;2.15677;-21316.25;-9080.858;0.1094661;0.05526943;0;
-15533.68;-9699.729;-2827.856;-15272.05;14.12518;3.561244;-12358.24;-6588.935;-0.4103827;-0.3345902;0;
17334.13;11807.77;-2330.966;16503.13;22.35001;5.098273;15149.95;6828.554;-0.2150683;-0.2692866;0;
24661.29;15007.42;-1330.11;23797.09;14.35695;6.432687;19908.95;10583.96;0.1749519;-0.4639181;0;
20624.38;12362.72;639.9084;19894.38;13.20345;8.971575;16538.13;8085.433;-0.6048321;-0.6583539;0;
23417.82;14298.43;3031.532;22564.29;7.966248;6.149277;18940.08;9981.867;-0.6042243;-0.3328557;0;
19598.45;12361.44;3995.952;19083.39;4.13985;4.468647;16134.9;7648.583;-0.0189111;-0.5274233;0;
-10932.23;-7423.762;3544.74;-10090.18;-1.155595;4.598123;-9300.191;-5560.857;-0.01889209;-0.461926;0;
-29514.26;-18993.58;2397.378;-28459.55;-7.986937;2.985912;-24640.1;-12257.62;0.04609423;-0.2665598;0;
-19815.98;-10647.22;410.4982;-19291.52;-5.567038;3.585758;-15574.2;-7217.549;-0.08388676;-0.2013246;0;
-26041.21;-15860.34;-1847.139;-25097.47;-9.71463;4.653883;-21365.83;-9090.805;-0.01883514;0.3186164;0;
-15011.76;-9324.351;-2777.502;-14749.13;1.413566;-0.3074089;-11779.02;-6477.557;0.4359552;0.2533289;0;
17477.89;11877.37;-2302.074;16645.98;11.59355;-5.732595;15373.44;6824.8;0.3055824;-0.1367297;0;
24440.32;14815.64;-1311.211;23589.02;5.15154;-0.2343569;19688.21;10436.08;-0.2144633;-0.2015597;0;
20689.26;12426.63;672.9853;19956.32;4.945293;2.913954;16595.92;8132.556;-0.1492805;-0.00645511;0;
23398.49;14265.98;3048.162;22546.53;5.677258;-1.643691;18923.8;9957.728;0.1757062;0.05851873;0;
19304.99;12130.48;4008.099;18802.32;4.332384;-1.240142;15858.07;7424.944;0.3054643;-0.3313441;0;
-11280.46;-7725.223;3596.355;-10421.75;4.394403;-5.994562;-9609.898;-5832.903;0.3051574;-0.2660438;0;
-30096.1;-19454.86;2456.359;-29010.68;5.662786;-10.67722;-25209.65;-12611.38;0.1749161;-0.1358418;0;
-20542.87;-11187.88;449.7423;-20008.97;-2.849371;-6.982554;-16312.03;-7521.591;0.2397077;-0.1357054;0;
-27110.45;-16841.04;-1822.115;-26154.07;-8.606308;-8.315196;-22442.19;-9612.291;0.4343688;-0.2005363;0;
-16478.79;-10477.03;-2750.426;-16156.19;-9.200872;-3.21626;-13169.77;-7100.406;0.04412834;-0.3952368;0;
16895.35;11594.94;-2235.217;16087.03;-14.21547;2.346433;14878.62;6710.041;-0.150818;0.319801;0;
24673.92;15013.02;-1232.63;23806;-7.436032;-3.148404;19917.62;10566.9;0.3041049;0.5143817;0;
20659.53;12390.15;724.4384;19928.43;-2.80686;-4.350933;16556.78;8115.434;0.1738647;-0.3307106;0;
23395.72;14277.25;3096.424;22544.98;-5.549729;-4.212595;18922.67;9954.289;-0.4759834;-0.2654109;0;
19420.98;12238.48;4047.942;18923.3;-6.147366;-3.404567;15975.97;7549.428;-0.2156358;-0.005274883;0;
-11456.16;-7873.881;3609.656;-10586.09;-0.4477614;-7.152068;-9782.083;-5852.284;0.3692869;0.1896325;0;
-30320.46;-19718.46;2463.837;-29233.2;7.925433;-11.36469;-25448.44;-12811.25;0.2389812;0.3193766;0;
-20528.07;-11238.01;457.7592;-19993.33;-2.933522;-4.990009;-16306.23;-7590.773;-0.08609565;-0.07074838;0;
-26986.81;-16748.73;-1816.792;-26025.09;-9.695728;-2.238816;-22317.63;-9538.803;-0.2159438;0.2541594;0;
-16357.62;-10352.96;-2748.778;-16033.03;-2.251246;-0.4280279;-13020.91;-7010.656;-0.4106289;0.5137734;0;
16867.36;11589.21;-2246.752;16060.79;-2.784848;1.916683;14890.71;6678.932;-0.3452489;0.3833225;0;
24599.41;14944.59;-1225.975;23731.8;4.451619;5.062955;19846.16;10503.22;0.04490203;0.512872;0;
20841.02;12564.95;772.3156;20106.72;12.08393;9.009739;16735.42;8285.227;0.3696936;0.4473893;0;
23730.76;14619.91;3148.142;22877.92;6.779529;7.995942;19265.64;10301.21;-0.0204819;-0.007831611;0;
19798.41;12547.27;4076.792;19284.01;5.433546;10.33231;16299.92;7830.239;-0.08542866;-0.3326604;0;
-11062.5;-7606.68;3609.631;-10222.93;7.705262;4.762466;-9474.542;-5721.462;0.3694286;-0.07245682;0;
-30046.68;-19431.93;2430.486;-28980.76;6.558444;-3.012217;-25193.04;-12587.46;0.04422066;0.4473547;0;
-20853.72;-11512.05;397.8607;-20318.21;8.159445;7.038005;-16624.46;-7703.591;-0.2806605;0.3819379;0;
-28185.98;-17940.65;-1896.761;-27218.08;8.687109;12.72436;-23523.17;-10453.34;0.2393603;0.2516194;0;
-17419.41;-11275.22;-2826.793;-17100.9;4.927336;5.812455;-14059.45;-7663.92;0.3690544;-0.1384375;0;
16676.99;11524.27;-2300.2;15865.44;3.784285;4.400095;14729.72;6716.432;0.2387489;-0.3332004;0;
24686.94;15018.11;-1283.04;23817.9;-0.9749393;2.185237;19936.18;10541.23;0.4983784;-0.008028879;0;
20767.43;12489.51;702.4554;20027.38;-2.648899;-1.433915;16657.04;8226.339;0.3679429;-0.008020812;0;
23710.17;14599.14;3099.966;22851.46;-8.071245;1.849568;19244.74;10270.12;-0.08719817;-0.008012752;0;
19658.95;12465.04;4028.32;19169.92;-15.23043;3.92418;16193.9;7794.82;0.04282413;0.1868973;0;
-11732.91;-8145.495;3537.064;-10851.76;-6.77601;0.1023321;-10069.09;-6014.325;0.3026505;-0.008192496;0;
-30476.63;-19895.51;2375.577;-29407.2;-4.96054;-3.380883;-25600.71;-13023.3;0.1074443;0.05678309;0;
-20472.02;-11173.92;371.3211;-19940.97;-0.3338551;0.6413679;-16240.13;-7638.385;-0.0225983;-0.008241321;0;
-27188.77;-16956.97;-1910.296;-26230.42;4.824044;1.779433;-22493.8;-9813.55;0.1723264;-0.2681024;0;
-15976.57;-10234.46;-2833.63;-15699.39;4.082263;0.9068671;-12761.33;-7057.992;-0.2176508;0.121971;0;
17416.08;11893.83;-2322.741;16583.85;9.906286;3.317342;15269.32;6908.333;-0.3473668;0.3817179;0;
24614.34;14963.5;-1290.097;23747.58;-2.495877;-3.853044;19854.79;10556.98;0.1077537;0.1214649;0;
20898.81;12632.1;731.5273;20161.29;-11.40198;-7.198196;16806.69;8334.23;-0.152224;-0.07355915;0;
23628.72;14512;3118.514;22781.69;-7.906919;-8.530622;19157.31;10214.06;-0.2170384;-0.008517894;0;
19603.91;12357.37;4050.395;19085.22;-10.51192;-11.40219;16110.92;7611.432;0.4328531;0.1214254;0;
-10890.67;-7393.763;3585.073;-10053.94;-10.36666;-8.845509;-9297.494;-5592.677;0.4324182;-0.008631344;0;
-29734.84;-19187.57;2419.257;-28657.03;-11.83011;-9.908347;-24874.5;-12466.99;-0.08775502;0.121312;0;
-20055.97;-10825.97;419.8459;-19523.67;-6.995452;-3.267203;-15829.73;-7399.316;-0.0226995;0.3810595;0;
-26119.2;-15922.81;-1836.723;-25189.67;0.2452453;-0.04873957;-21455.6;-9138.207;0.2371927;0.3157093;0;
-15159.12;-9479.491;-2767.362;-14897.64;-7.323462;5.577631;-11937.83;-6577.042;0.1070197;0.12049;0;
17419.23;11820.41;-2285.385;16590.63;-12.80846;16.15509;15300.34;6791.538;-0.2179246;0.1203689;0;
24559.88;14927.9;-1263.148;23707.38;-2.41409;4.015309;19807.74;10536.61;-0.08777093;0.05528066;0;
20782.71;12516.56;763.4783;20049.8;2.210036;-1.146289;16684.6;8223.539;0.04225194;-0.07470959;0;
23532.04;14398.98;3171.891;22679.08;2.408886;1.199143;19053.31;10085.32;-0.02275785;0.1202675;0;
19603.31;12406.74;4117.789;19090.91;7.898822;-1.816172;16137.62;7696.819;0.3670691;0.05517934;0;
-11174.22;-7645.04;3635.329;-10332.38;-1.553586;1.668644;-9544.509;-5756.875;0.5616022;-0.3346802;0;
-30259.36;-19637.94;2442.165;-29195.23;-9.589001;0.3273084;-25404.74;-12772.75;0.3661359;-0.1394419;0;
-20773.6;-11419.21;404.5937;-20261;-1.877182;6.891185;-16563.74;-7670.004;0.170866;-0.009367066;0;
-27223.33;-16979.92;-1884.022;-26296.1;0.7376482;12.57769;-22570.64;-9781.185;0.300629;-0.074325;0;
-16159;-10316.8;-2785.238;-15872.56;-3.416279;10.55556;-12896.16;-7096.186;0.4302616;0.2505864;0;
17130.36;11697.48;-2246.443;16308.75;-5.288857;15.63554;15063.28;6764.684;0.1049926;0.5751714;0;
24536.56;14882.32;-1216.14;23666.21;-3.541254;5.706595;19778.63;10443.27;-0.0250476;0.119822;0;
20651.36;12385.1;806.1601;19911.32;-1.394242;-2.537795;16550.15;8107.054;-0.1549571;-0.07520044;0;
23490.92;14356.78;3215.201;22631.12;-4.541648;4.765773;19008.01;10030.58;-0.02486673;0.3146792;0;
19254.32;12130.58;4153.56;18753.48;-6.880634;4.627018;15831.15;7437.968;0.3649623;0.1844283;0;
-11704.31;-7998.547;3697.691;-10843.67;-3.793237;7.43553;-9984.894;-5946.688;-0.02520846;-0.1405937;0;
-30108.53;-19515.04;2541.337;-29064.55;-5.530738;10.7101;-25248.34;-12670.19;-0.2200852;-0.2054198;0;
-20303.83;-11033.46;519.4543;-19822.76;0.4356904;7.819195;-16104.07;-7484.292;0.16994;-0.07527871;0;
-26572.44;-16352.53;-1750.193;-25688.88;5.459095;6.538662;-21913.52;-9381.175;0.0398346;0.2496337;0;
-15174.17;-9569.847;-2646.732;-14947.2;-1.043125;8.54158;-12005.8;-6647.961;-0.09014011;0.1194481;0;
17541.88;11899.17;-2132.627;16702.99;-1.042077;11.94901;15382.41;6860.417;0.1048525;0.1193281;0;
24495.08;14862.72;-1111.809;23633.47;-10.08336;3.966274;19738.02;10475.47;-0.1551222;0.05424088;0;
20789.77;12526.53;919.007;20043.14;-18.04481;-0.9943266;16691.04;8221.742;-0.4798031;-0.2706504;0;
23611.24;14472.18;3330.152;22750.78;-16.75388;0.2792262;19126.25;10158.49;-0.6092557;-0.3353457;0;
19488.53;12346.7;4264.101;18977.73;-19.41636;-3.271028;16051.8;7643.711;-0.4137414;-0.3999761;0;
-11481.59;-7851.439;3781.432;-10650.03;-18.72629;2.224737;-9805.648;-5880.8;0.106413;-0.2046722;0;
-30306.81;-19692.77;2609.875;-29272.79;-18.77482;4.767853;-25465.89;-12796.54;0.1063061;0.2503048;0;
-20448.65;-11139.86;603.4475;-19970.51;-15.54078;6.035616;-16260.43;-7542.923;0.04123193;-0.009816027;0;
-26722.29;-16467.73;-1675.389;-25818.4;-12.4437;11.656;-22071.54;-9470.434;0.1711252;-0.3996102;0;
-15715.85;-9923.281;-2596.226;-15431.07;-10.08765;3.606576;-12507.53;-6825.477;0.04101856;-0.009404633;0;
17272.43;11778.29;-2091.604;16458.58;-6.661263;-1.487629;15154.45;6817.247;-0.3488267;0.1205395;0;
24584.05;14931.74;-1088.365;23719.67;-5.850286;2.867635;19827.18;10506.55;-0.4134435;0.1853857;0;
20743.75;12480.77;912.7234;20005.6;-4.236817;2.931736;16640.46;8192.64;0.2366453;-0.009702579;0;
23492.25;14367.52;3303.057;22634.91;-3.160833;3.263705;19014.96;10053.12;0.2364075;-0.2695622;0;
19392.43;12213.97;4235.971;18880.9;0.592411;4.399136;15941.31;7507.313;-0.08866673;0.3154148;0;
-11476.11;-7857.949;3763.294;-10638.07;-6.440782;2.787125;-9827.217;-5857.454;0.2362591;0.5749672;0;
-30047.15;-19492.84;2596.238;-29004.1;-13.46691;1.511649;-25204.56;-12645.42;0.4309237;0.5094221;0;
-20050.94;-10795.74;597.1796;-19550.91;-4.880538;4.323413;-15849.55;-7401.139;0.3655234;0.1191062;0;
-26112.96;-15897.5;-1663.253;-25189.45;-3.200694;7.199213;-21454.75;-9179.477;-0.21955;-0.4657196;0;
-14886.84;-9375.512;-2583.088;-14615.38;0.5535663;3.842954;-11702.82;-6515.525;-0.2842967;-0.07544757;0;
17715.21;12007.32;-2094.268;16890.35;6.916023;1.360725;15560.82;6978.055;0.1707603;0.3793997;0;
24632.72;15018.21;-1101.88;23775.93;0.1439192;4.909453;19874.46;10624.07;-0.154248;0.05418172;0;
20888.63;12619.34;889.2582;20161.78;-3.874713;6.11009;16789.36;8322.027;-0.154093;-0.1407748;0;
23691.65;14570.93;3275.602;22843.74;0.8172532;6.170934;19216.11;10268.51;-0.02400346;-0.2056006;0;
19598.39;12376.83;4215.228;19084.84;2.491371;7.90629;16120.14;7656.173;0.1059553;-0.01049204;0;
-10962.99;-7431.479;3749.208;-10120.17;0.8139287;4.683287;-9357.665;-5578.122;0.4306856;0.1194532;0;
-29350;-18813.51;2582.698;-28282.74;3.224984;2.803059;-24510.5;-12155.58;-0.1544532;-0.2055036;0;
-19597.96;-10450.26;588.6816;-19066.38;-3.141268;2.867225;-15383.71;-7170.54;-0.2842327;-0.3352318;0;
-25899.44;-15732.45;-1670.337;-24982.71;-8.765166;-0.08278291;-21262.14;-9050.324;-0.02407776;0.1198765;0;
-14866.24;-9243.955;-2600.472;-14646.85;-2.728139;4.204086;-11766.07;-6378.584;-0.08902092;0.2496907;0;
17644.63;11952.26;-2114.992;16796.54;-5.337367;7.950784;15421.22;6926.828;0.2359052;0.2494399;0;
24625.18;14994.04;-1129.002;23778.5;6.389644;1.110658;19871.98;10603.03;0.2356682;0.4440912;0;
20800.84;12544.09;848.186;20072.34;18.0385;-3.713107;16707.5;8251.258;-0.08940531;0.443645;0;
23488.6;14347.73;3229.418;22646.46;7.303103;-0.6951444;19002.97;10034.04;-0.1542828;0.3782319;0;
19516.12;12333.79;4170.354;18999.45;7.228416;1.448886;16063.3;7614.57;0.04077424;0.3128845;0;
-11195.14;-7693.559;3697.15;-10385.43;0.5233477;-5.384585;-9573.666;-5846.272;0.3006026;0.3775375;0;
-30070.76;-19448.24;2516.651;-29016.08;-6.911918;-7.857543;-25233.67;-12673.98;0.1053986;0.2472234;0;
-20795.71;-11482.79;509.7707;-20266.12;-3.354999;-10.32789;-16597.92;-7743.403;-0.1545767;-0.07786171;0;
-28370.69;-18129.03;-1769.174;-27419.2;-6.901601;-15.47508;-23725.48;-10622.31;-0.08945405;-0.01281614;0;
-17797.78;-11550.94;-2715.342;-17488.62;-0.7327248;-7.756738;-14438.11;-7908.481;-0.2192988;-0.01280326;0;
16461.69;11416.92;-2230.012;15643.58;3.286499;-4.466902;14529.14;6600.863;-0.4139805;-0.1427251;0;
24639.04;14963.46;-1224.214;23769.57;1.541885;-1.783097;19891.06;10498.71;-0.3485972;0.1822551;0;
20895.68;12604.88;779.213;20154.43;2.880482;3.242293;16779.42;8309.985;-0.2183122;0.7018107;0;
23893.94;14809.56;3177.256;23033.33;2.207026;1.229547;19434.11;10518.72;-0.08815821;0.5711708;0;
20258.84;12919.82;4121.524;19722.65;5.085197;2.367022;16724.4;8127.102;0.2367671;0.1807928;0;
-10473.88;-7101.492;3620.195;-9685.222;-2.756794;1.091967;-8963.328;-5499.906;0.1065945;-0.1442256;0;
-29456.98;-19002.12;2423.907;-28435.7;-7.576795;0.08612625;-24647.04;-12442.76;0.1064874;-0.6638194;0;
-19808.65;-10788.12;429.0982;-19324.97;-7.033318;-0.4497017;-15602.91;-7350.125;-0.0235543;-0.793087;0;
-27270.37;-17132.39;-1866.429;-26359.14;-12.45126;-2.324772;-22643.71;-9934.922;-0.3483673;0.05228531;0;
-17234.82;-11043.59;-2830.35;-16945.62;-1.386686;-0.04501634;-13927.11;-7452.385;-0.1531153;0.3121021;0;
16629.37;11461.25;-2338.751;15801.66;6.517962;1.62948;14640.42;6643.491;-0.08799408;-0.4028522;0;
24651.23;14977.63;-1349.46;23774.53;3.229859;0.489133;19895.47;10507.73;-0.08790566;-0.5323821;0;
20805.71;12524.35;629.2145;20061.48;4.230991;-0.7169292;16689.84;8234.808;-0.217752;0.0528589;0;
23746.64;14648.74;3023.191;22885.47;6.906057;4.240406;19277.3;10358.82;-0.6723046;-0.01216157;0;
20041.09;12747.98;3963.664;19498.31;8.975223;7.786119;16531.86;7953.288;-0.1518903;-0.2070514;0;
-10580.26;-7110.208;3480.031;-9809.234;8.029176;7.44338;-9026.335;-5506.629;0.173099;-0.07690865;0;
-29148.45;-18723.71;2318.82;-28143.42;9.76242;9.311423;-24333.96;-12254.76;-0.1519116;0.05310333;0;
-19129.84;-10158.19;340.2486;-18640.05;2.920108;7.694477;-14935.14;-7103.439;0.04314302;0.1829847;0;
-26052.09;-15934.25;-1933.451;-25149.41;-4.450217;5.342343;-21433.86;-9288.2;-0.1518024;-0.01210125;0;
-15722.3;-9924.811;-2875.362;-15476.88;1.783545;8.485172;-12514.19;-6788.088;-0.2815845;-0.1420238;0;
17303.44;11772.62;-2380.032;16457.58;3.188273;9.615356;15203.93;6803.076;0.04353514;0.05302097;0;
24588.76;14953.25;-1385.483;23722.4;2.581857;7.462241;19832.88;10529.52;0.1084587;-0.076967;0;
20756.03;12488.88;585.2626;20019.3;4.991136;7.320777;16654.18;8208.539;-0.02158493;0.1180124;0;
23582.21;14456.58;2957.872;22731.66;1.30145;3.763448;19108.05;10148.78;-0.1514979;0.3127958;0;
19656.32;12442.12;3909.53;19134.88;-1.512897;1.214315;16173.69;7705.228;-0.02141102;-0.2722246;0;
-10913.75;-7402.503;3460.2;-10110.88;2.976601;0.5432655;-9327.017;-5614.792;-0.2162915;-0.4018857;0;
-29541.68;-18997.9;2289.966;-28519.1;4.915994;-2.270442;-24714.05;-12287.53;-0.3460089;-0.01167785;0;
-19776.53;-10554.64;271.007;-19291.05;5.112125;0.6119839;-15583.49;-7244.538;0.1091102;0.1182686;0;
-26396.99;-16175.91;-2009.041;-25482.38;7.049371;1.750079;-21764.02;-9442.354;-0.02093414;-0.01178495;0;
-15798.27;-9911.75;-2926.857;-15509.66;3.559663;1.480389;-12514.4;-6828.3;-0.4756845;-0.2066751;0;
17142.56;11733.94;-2411.533;16325.58;-1.200312;2.349679;15109.36;6786.019;-0.5401739;-0.07653279;0;
24585.3;14940.77;-1404.896;23720.44;5.298605;1.677489;19827.29;10521.18;-0.149827;0.1184462;0;
20781.86;12509.39;586.7496;20046.46;11.18778;3.015462;16676.31;8228.02;0.1101929;-0.2065096;0;
23552.82;14432.46;2972.789;22696.53;0.4592682;-0.5375413;19079.26;10120.81;-0.01985254;-0.5961061;0;
19562.85;12364.9;3902.083;19051.49;-5.168248;-1.87666;16093.35;7647.412;0.1101021;-0.5305398;0;
-11123.06;-7575.23;3425.4;-10286;-3.420766;-3.750296;-9501.779;-5765.519;0.2399261;-0.2701374;0;
-29861.18;-19252.15;2249.922;-28821.86;-5.49441;-8.770125;-25041.95;-12549.36;-0.08515164;-0.2048986;0;
-20391.42;-11065.33;232.6116;-19895.1;-4.349813;0.6160529;-16216.85;-7468.329;-0.08506608;-0.3346274;0;
-26973.61;-16736.61;-2043.322;-26064.33;-6.221453;7.849469;-22349.18;-9654.675;0.1099214;0.1854476;0;
-15899.02;-10051.64;-2960.291;-15654.26;0.08143827;3.42083;-12684.42;-6934.633;-0.2150257;0.5750653;0;
17185.37;11744.74;-2455.709;16338.39;7.985587;3.551358;15083.71;6769.606;-0.084875;-0.01021861;0;
24516.36;14864.43;-1448.638;23646.09;-2.203843;6.695866;19756.71;10448.12;0.3050143;-0.2700777;0;
20766.69;12505.15;554.4213;20023.04;-8.163476;8.229745;16662.75;8210.354;-0.2799982;-0.07490431;0;
23547.18;14417.96;2932.075;22686.33;-2.595568;9.628118;19067.05;10102.98;-0.2147495;0.314975;0;
19455.68;12289.99;3848.354;18936.83;-1.587606;8.747665;15986.31;7565.814;0.5650743;0.3796259;0;
-11473.68;-7891.89;3368.977;-10653.8;-3.059879;15.2361;-9860.101;-6082.806;0.6944412;-0.1404943;0;
-30381.22;-19751.9;2179.375;-29352.12;-1.985077;23.45945;-25558.86;-13012.21;0.1090374;0.05454888;0;
-20710.33;-11348.58;145.8;-20223.13;-7.475439;12.58488;-16529.47;-7654.882;0.04396049;0.1844288;0;
-27247.4;-16992.74;-2135.184;-26355.1;-13.96564;6.409929;-22630.68;-9827.172;0.2388183;-0.1405933;0;
-16276.68;-10338.44;-3057.418;-16039.43;-6.78431;11.89597;-13042.99;-7172.409;-0.2811604;-0.01051733;0;
17007.16;11665.63;-2553.145;16161.79;-2.490585;11.75005;14939.16;6717.023;-0.2159105;-0.01050676;0;
24498.47;14834.1;-1544.569;23629.27;-8.651;14.88644;19738.23;10407.9;0.3040452;-0.07546355;0;
20683.24;12413.75;458.5234;19940.65;-10.04883;17.48369;16571.68;8123.429;0.173805;-0.01042038;0;
23495.64;14375.24;2851.328;22633.88;-11.98111;17.80104;19015.47;10057.32;0.3685324;-0.2053119;0;
19504.53;12309.48;3777.059;18981.46;-14.91584;18.31902;16021.86;7605.146;0.5630641;-0.01020361;0;
-11462.79;-7894.769;3291.74;-10655.86;-11.35087;21.51567;-9865.989;-5951.95;0.3675963;0.1847087;0;
-30250.13;-19674.49;2123.55;-29245.49;-7.722147;26.04877;-25439.09;-12900.24;0.04239023;0.0545884;0;
-20316.6;-11038.16;124.5602;-19856.52;-11.60013;20.32917;-16152.68;-7553.818;-0.5423585;0.1195009;0;
-26787.61;-16569.22;-2145.158;-25924.43;-14.40151;17.83049;-22203.62;-9618.562;-0.4118788;-0.1404886;0;
-15872.27;-10040.53;-3067.726;-15665.12;-7.353468;17.07576;-12680.47;-6971.503;-0.02166089;-0.2702821;0;
17207.66;11768.96;-2569.002;16351.17;-5.136253;11.96803;15118.6;6793.196;-0.2165411;-0.01014114;0;
24549.08;14901.93;-1551.493;23682.15;0.8971277;18.45322;19788.29;10480.72;-0.2163236;-0.205033;0;
20814.51;12545.96;474.8918;20067.41;9.0679;22.05164;16701.32;8250.973;-0.3460409;-0.399729;0;
23646.07;14523.45;2871.147;22785.46;2.829498;17.87666;19167.95;10208.85;-0.5405952;-0.2693926;0;
19705.23;12478.87;3787.832;19165.69;2.157069;17.92568;16201.43;7742.654;0.04465406;-0.2041546;0;
-11040.98;-7566.207;3294.069;-10276.56;0.3462409;13.88881;-9494.143;-5753.83;0.2395112;-0.2039495;0;
-29878.55;-19278.01;2095.422;-28876.47;-5.883398;10.65968;-25076.59;-12559.98;0.1743032;-0.1387772;0;
-20640.75;-11320.15;47.36061;-20150.08;2.8974;10.78293;-16460.76;-7619.075;0.4339975;-0.008703082;0;
-27990.84;-17751.08;-2244.504;-27095.22;7.71726;10.10227;-23382.95;-10397.03;0.04375731;-0.138629;0;
-17141.08;-11004.94;-3156.336;-16892.96;3.824739;8.350684;-13827.22;-7609.483;0.04371334;-0.4633264;0;
16755.37;11614.82;-2625.586;15913.51;7.036077;6.265822;14790.66;6730.896;0.1736041;-0.1380242;0;
24647.76;14978.67;-1576.521;23773.63;-1.277364;10.47933;19891.76;10535.44;-0.02147236;0.1869512;0;
20895.29;12608.83;451.6231;20149.51;-9.983618;14.75571;16776.23;8320.099;-0.02145079;0.0568287;0;
23821.41;14726.11;2855.945;22954.67;2.083829;12.73139;19355.51;10419.57;-0.2163313;-0.2030978;0;
19996.74;12710.66;3780.14;19468.16;7.305672;12.91955;16479.51;7970.638;-0.02121186;-0.267861;0;
-10968.8;-7509.78;3265.896;-10154.07;6.762468;16.85844;-9418.571;-5654.339;0.3036461;-0.07268988;0;
-29873.63;-19376.89;2071.713;-28845.71;9.502339;17.57831;-25064.6;-12659.65;-0.3463324;-0.3974535;0;
-20178.34;-11001.37;47.00707;-19706.61;9.29172;23.38804;-15992.37;-7528.283;-0.475919;-0.5919562;0;
-26872.27;-16677.86;-2241.437;-25990.93;10.28676;27.71831;-22250.44;-9723.143;0.1092652;-0.07162267;0;
-15767.64;-10001.39;-3135.859;-15521.11;9.405769;26.28382;-12545.73;-6967.597;0.3690248;-0.006583362;0;
17516.63;12003.13;-2598.992;16676.57;7.989799;27.59706;15427.09;7008.352;0.173752;-0.07154409;0;
24759.41;15117.53;-1577.58;23891.2;8.115493;23.68445;19997.47;10717.04;0.1086101;0.1234298;0;
21047.13;12775.93;445.2861;20306.57;7.638824;22.32099;16936.01;8466.814;0.3683703;-0.006628882;0;
23886.16;14776.94;2839.9;23023.92;3.679033;16.3372;19410.3;10488.18;0.2380655;0.1233125;0;
19826;12564.22;3748.12;19292.35;-1.281156;9.153857;16336.32;7778.496;0.3677609;0.2531233;0;
-10385.76;-6865.383;3246.901;-9601.318;1.734241;13.09653;-8800.639;-5269.578;0.5622934;0.1879016;0;
-28487.68;-18005.08;2050.113;-27483.49;4.278094;13.08337;-23675.92;-11621.88;0.3018591;0.2526801;0;
-19164.46;-10123.65;24.10201;-18674.18;-3.831506;13.47212;-14987.9;-6973.896;0.1716211;0.1224915;0;
-25854.46;-15739.2;-2239.566;-24979.28;-8.850522;15.53493;-21253.27;-9099.239;-0.02345339;-0.007566244;0;
-14635.82;-9105.223;-3150.388;-14445.09;-6.363382;14.04582;-11541.19;-6319.957;-0.2183318;0.3822454;0;
17793.15;12046.81;-2666.292;16931.24;-4.348232;12.75903;15577.89;6972.621;-0.08817779;0.7066981;0;
24589.29;14974.34;-1667.036;23725.44;-9.434078;16.96602;19833.02;10593.71;0.1068128;0.5760533;0;
20868.28;12604.31;342.7394;20120.84;-15.52017;19.96308;16769.27;8306.447;0.04173817;0.5105071;0;
23683.29;14554.44;2725.213;22823.11;-4.586233;17.39779;19199.58;10246.98;-0.3481078;0.2501248;0;
19619.59;12423.58;3643.855;19098.71;2.116181;17.58126;16153.67;7710.688;-0.4127254;-0.1399306;0;
-11146.7;-7584.916;3154.438;-10337.11;-0.9674044;14.48238;-9539.315;-5669.541;0.04246073;-0.2697247;0;
-29475.52;-18968.46;1983.574;-28447.82;0.7085069;12.32449;-24664.97;-12266.73;0.2373201;0.1853177;0;
-19590.8;-10486.42;-11.18294;-19084.2;-0.09551213;11.24038;-15415.05;-7224.649;0.3670163;0.3150662;0;
-26226.99;-16055.78;-2273.613;-25303.43;2.18176;8.95179;-21598.95;-9304.263;0.1717455;-0.07505443;0;
-15152.6;-9562.747;-3185.947;-14895.54;-4.92038;10.4163;-12045.54;-6587.119;-0.2182311;0.2498577;0;
17665.93;11948.51;-2689.837;16831.02;-13.08711;9.869968;15435.01;6955.149;0.1068249;0.3795413;0;
24627.3;14996.18;-1688.745;23767.46;-5.840291;12.8073;19868.67;10591.22;0.3665869;0.1192906;0;
20836.06;12578.01;319.5837;20100.66;-7.844154;14.93776;16740.63;8295.836;-0.3484222;0.2491054;0;
23630.02;14500.4;2706.094;22780.46;-1.606982;15.05672;19146.4;10190.43;-0.3480721;0.1189204;0;
19419.74;12234.29;3633.251;18910.82;7.303241;15.44349;15958.68;7519.704;0.2369837;-0.01113376;0;
-11205.89;-7613.426;3162.788;-10391.71;-5.56482;15.82987;-9593.991;-5678.956;-0.02312378;-0.07608991;0;
-29400.17;-18886.26;1995.664;-28378.43;-6.362536;17.42155;-24587.7;-12192.27;-0.2829699;-0.4658175;0;
-19742.59;-10617.7;-1.58815;-19247.96;-17.87672;11.84459;-15569.89;-7262.193;-0.2826856;-0.3354148;0;
-26012.9;-15863.65;-2250.503;-25138.33;-33.86731;9.153366;-21401.57;-9137.466;-0.02253217;0.7043998;0;
-14552.45;-9076.381;-3165.531;-14359.87;-14.74424;6.866871;-11466.97;-6354.991;0.04245781;0.5737573;0;
17778.05;11999.68;-2675.532;16922.09;-6.556779;5.721262;15540.23;6922.474;-0.2824216;-0.07649267;0;
24461.95;14846.91;-1679.609;23606.95;-8.157781;2.902352;19704.92;10479.32;-0.1522031;0.05351889;0;
20750.31;12490.91;300.2567;20011.31;-2.188713;-2.124162;16657.97;8194.044;-0.02211548;0.1833998;0;
23654.34;14524.99;2676.557;22795.81;-4.597411;7.255339;19171.32;10217.02;0.3027435;0.1182482;0;
19560.85;12377.25;3616.519;19050.48;-3.990556;9.525346;16098.78;7692.006;0.5623086;-0.14174;0;
-11420.99;-7846.748;3150.696;-10594.21;-1.44095;18.22343;-9797.638;-5820.497;0.1069722;-0.1415976;0;
-29677.74;-19172.88;2006.197;-28652.06;-0.9709879;29.32405;-24859.94;-12437.63;-0.217972;-0.1414553;0;
-19787.39;-10683.96;36.24862;-19302.14;1.307163;20.45296;-15625.49;-7345.735;0.04211641;-0.01137851;0;
-26635.78;-16464.5;-2216.671;-25726.34;1.976411;19.22683;-22018.37;-9540.575;0.6267802;0.2485023;0;
-15359.98;-9747.071;-3122.956;-15097.46;4.385323;14.92061;-12246.38;-6714.748;0.366281;-0.07658412;0;
17699.97;12003.44;-2622.037;16866.2;9.203688;7.805668;15480.53;7014.055;-0.3487278;-0.2064418;0;
24609.52;14978.12;-1643.549;23745.93;4.036876;9.204345;19851.52;10578.59;-0.2184427;0.1186023;0;
20807.31;12552.14;343.1672;20073.98;2.760022;5.913054;16713.25;8268.895;-0.1532559;0.2484178;0;
23696.68;14567.64;2727.124;22840.61;4.900702;3.763781;19216.03;10264.8;-0.08813453;0.05326619;0;
19445.35;12275.43;3650.168;18933.24;1.614225;2.688272;15993.88;7565.178;0.2367907;-0.1416894;0;
-11293.58;-7688.817;3178.626;-10474.13;11.52559;-2.672942;-9649.512;-5752.545;0.1066181;-0.07657966;0;
-29418.69;-18893.13;2017.983;-28393.57;10.97814;-4.746727;-24591.33;-12240;-0.0234237;-0.2064374;0;
-19811.07;-10609.84;19.63077;-19300.55;25.43445;-8.291931;-15620.79;-7246.706;0.04156718;-0.20623;0;
-25994.84;-15812.56;-2231.648;-25132.25;45.83905;-11.36481;-21371.12;-9064.726;-0.08840927;0.118814;0;
-14191.74;-8832.02;-3124.549;-14046.4;14.78026;-9.477872;-11185.22;-6200.818;0.1065816;0.2486293;0;
18028.09;12157.4;-2626.034;17161.05;-0.6399302;-10.54008;15719.08;7036.574;-0.02346019;0.1184448;0;
24529.87;14919.87;-1639.39;23677.59;1.369469;-4.300194;19782.25;10574.36;-0.283306;0.3132278;0;
20854.74;12599.08;358.7695;20105.02;-5.195991;0.3928096;16760.47;8291.255;-0.3479887;0.2479457;0;
23592.54;14460.61;2749.801;22729.55;-8.740743;1.598108;19101.98;10164.31;-0.2826717;0.1827292;0;
19400.26;12239.31;3687.627;18894.83;-17.97536;5.950271;15967.68;7531.833;-0.1524529;0.3124803;0;
-11462.06;-7810.679;3222.263;-10616.55;-6.034581;2.595267;-9804.967;-5843.531;0.04260227;-0.2075724;0;
-29557.54;-19096.65;2081.707;-28532.38;-0.6698832;0.4492055;-24741.12;-12393.13;0.04255946;-0.4022659;0;
-19119.01;-10164.07;122.7862;-18650.88;1.607966;2.257293;-14963.64;-7052.903;-0.08741798;-0.3368943;0;
-25237.43;-15110.94;-2120.772;-24357.09;10.38124;2.121059;-20628.57;-8669.047;-0.0223628;0.1182156;0;
-14193.72;-8733.631;-3037.414;-13987.14;1.060055;0.1094401;-11163.34;-6061.533;0.237529;0.4429335;0;
17989.2;12129.22;-2545.592;17135.65;0.3220559;-0.6944651;15686.36;7082.017;-0.022579;0.05268439;0;
24688.16;15071.13;-1537.492;23835.84;-8.586876;-3.105031;19929.55;10707.03;-0.347393;-0.2722053;0;
20968.72;12715.99;475.2916;20229.66;-20.56734;-4.977433;16878.49;8416.821;0.1077274;-0.1419971;0;
23698.04;14571.53;2859.709;22844.08;-11.77179;-3.56579;19213.64;10287;0.3025212;0.118015;0;
19667.21;12448.88;3792.193;19142.48;-8.411056;-2.892378;16188.81;7697.536;0.2372499;-0.2719077;0;
-10877.17;-7350.198;3314.09;-10087.62;-15.10139;0.05765548;-9297.571;-5582.417;0.3669462;-0.5964711;0;
-29181.67;-18681.38;2129.213;-28161.56;-17.22966;2.937864;-24368.95;-12125.7;-0.08819392;0.05380161;0;
-19643.21;-10537.1;124.3307;-19131.48;-14.73411;5.815056;-15460.8;-7241.891;-0.2830073;0.3785843;0;
-26263.46;-16128.88;-2131.145;-25375.83;-13.51288;7.684735;-21651;-9373.195;-0.08782093;-0.01160021;0;
-14727.87;-9261.775;-3029.629;-14541.46;-11.35584;14.37506;-11636.98;-6481.039;-0.4775367;-0.01158855;0;
17909.91;12115.99;-2521.432;17044.82;-11.41178;20.58991;15674.9;7039.025;-0.2171875;0.1183578;0;
24516.17;14909.89;-1528.006;23662.92;-4.635162;19.1627;19761.09;10543.78;0.1728347;-0.01169583;0;
20789.95;12536.58;468.9791;20052.29;0.5944079;20.68393;16697;8249.6;-0.217143;-0.07665142;0;
23617.58;14482.63;2856.417;22759.06;-1.214851;18.5868;19134.61;10174.85;0.1728793;0.05336029;0;
19338.31;12203.62;3782.221;18827.73;3.876585;14.95105;15893.05;7515.711;0.3676076;0.313176;0;
-11591.39;-7951.536;3309.265;-10761;-9.255477;17.95025;-9960.306;-5951.059;-0.08753319;0.1179593;0;
-29855;-19309.43;2143.743;-28815.99;-20.90145;19.13779;-25041.59;-12574.97;-0.2823473;0.05287347;0;
-19888.59;-10706.26;151.8862;-19389.17;-12.64143;15.03272;-15719.02;-7370.206;-0.2170962;0.5725591;0;
-26244.29;-16035.35;-2088.953;-25343.92;-13.16459;13.94601;-21623.64;-9261.643;-0.02197605;0.1821797;0;
-14915.75;-9318.106;-2990.29;-14679.21;-11.47642;10.18095;-11792.56;-6479.714;-0.411758;-0.1428401;0;
17693.41;12012.48;-2485.288;16854.15;-7.04426;4.745229;15483.65;6987.905;-0.2814096;0.1171728;0;
24534.59;14905.32;-1483.184;23674.33;-14.00341;10.43389;19772.85;10533.97;0.3035792;0.5068592;0;
20761.67;12508.18;513.9442;20020.19;-19.68276;11.42815;16667.08;8211.19;0.1733395;0.6362845;0;
23548.39;14426.35;2906.1;22686.57;-10.01744;14.36379;19066;10132.21;0.3031;0.2458412;0;
19360.23;12180.94;3841.208;18848.46;-1.299841;22.05227;15897.73;7471.106;0.4976975;-0.07924259;0;
-11305.32;-7680.305;3380.375;-10477.44;-12.81911;11.17912;-9700.966;-5756.787;0.6271321;-0.2090977;0;
-29135.64;-18666.94;2226.885;-28115.82;-19.8398;5.206533;-24339.43;-12060.03;0.2366979;-0.1439202;0;
-19126.01;-10140.97;215.954;-18641.86;-11.91564;10.2249;-14971.75;-7019.959;-0.348246;0.4409305;0;
-26093.02;-15964.08;-2059.354;-25191.91;-9.291698;8.473191;-21489.8;-9259.136;-0.2179614;0.3105528;0;
-15230.43;-9578.012;-2973.371;-14999.8;-10.75623;14.29195;-12081.97;-6627.712;0.04212696;-0.014596;0;
17570.03;11930.43;-2468.448;16718.85;-11.34766;18.49751;15405.7;6917.283;0.4318887;0.05038602;0;
24598.42;14979.81;-1445.559;23733.41;-8.523217;16.33547;19841.33;10592.43;0.6263567;-0.1445666;0;
20824.88;12563.92;581.1257;20085.45;-4.897331;17.45777;16723.71;8278.23;0.2359233;-0.1444214;0;
23632.38;14516.1;2967.842;22780.99;-9.514111;15.29677;19159.29;10224.49;-0.3490198;-0.01434159;0;
19503.21;12328.34;3875.667;18992.18;-11.11214;14.74554;16045.37;7589.366;-0.2837018;-0.2092292;0;
-11128.45;-7480.514;3379.661;-10319.54;-10.90088;11.3817;-9504.431;-5681.109;-0.2184494;-0.1440516;0;
-29127.54;-18664.82;2194.188;-28120.49;-13.0324;7.887271;-24313.84;-12132.33;-0.2831972;0.05099516;0;
-19179.36;-10240.44;172.5135;-18695.43;-8.799751;8.080295;-15000.9;-7092.788;-0.34788;-0.2089255;0;
-25762.97;-15616.31;-2106.421;-24871.17;-6.312663;5.258893;-21142.02;-8985.722;-0.6073998;-0.5335522;0;
-14652.41;-9079.291;-3003.321;-14440.15;-5.971527;8.602633;-11654.36;-6281.095;-0.6067895;-0.1432121;0;
17843.04;12041.47;-2473.474;16989.79;-4.491658;11.47426;15502.59;6994.688;-0.08644104;-0.01313349;0;
24530.8;14903.89;-1468.18;23678.21;-3.683838;8.247667;19782;10533.05;0.0435805;0.05184706;0;
20629.74;12391.07;537.1001;19894.59;-2.742131;7.435585;16550.56;8112.739;0.2384387;0.5065663;0;
23475.15;14336.52;2931.763;22622.25;-2.471932;7.963977;18987.39;10036.74;0.5630358;0.05128596;0;
19238.3;12132.89;3844.169;18730.21;-1.933585;8.357872;15819.66;7437.426;-0.02223596;0.1162018;0;
-11413.54;-7684.208;3351.49;-10607.68;-2.533879;6.942832;-9756.451;-5733.758;0.2376557;0.9606605;0;
-29039.79;-18542.84;2160.079;-28031.14;-1.660676;5.998096;-24221.45;-11971.86;0.8870904;0.5049238;0;
-19127.85;-10102.17;116.4344;-18623.38;-4.539396;5.925086;-14954.15;-6991.295;0.3664603;0.1795797;0;
-25613.19;-15488.7;-2157.508;-24710.51;-7.214152;4.51249;-20996.64;-8954.858;0.3011247;0.0494646;0;
-14156.35;-8733.649;-3033.618;-13940.79;-4.125444;6.986325;-11066.34;-6139.005;0.1059201;-0.0805198;0;
17936.37;12116.29;-2499.992;17093.24;-4.389719;9.457551;15709.72;7017.678;-0.3489577;0.1144632;0;
24309.25;14711.98;-1489.456;23458.95;0.3710904;6.433939;19556.42;10378.84;-0.0887377;-0.01558656;0;
20652.49;12400.69;527.7618;19916.38;5.460932;5.087815;16561.26;8097.818;-0.2185832;0.1793311;0;
23681.33;14557.06;2931.273;22830.7;1.704401;5.752532;19205.78;10283.84;-0.2183636;0.1791509;0;
19649.36;12478.66;3852.114;19132.39;0.3635178;4.072178;16182.84;7742.892;0.6264313;-0.1458658;0;
-10884.26;-7278.343;3359.816;-10088.8;1.434879;6.88137;-9291.221;-5498.517;0.4958671;-0.2756539;0;
-28877.03;-18361.55;2157.231;-27851.99;-0.7773651;9.419684;-24080.87;-11832.18;0.1055648;-0.2104096;0;
-19282.35;-10213.97;109.4352;-18763.79;2.237526;5.458349;-15123.1;-7029.106;0.2353935;-0.01529614;0;
-26150.73;-15975.36;-2165.625;-25250.14;6.924327;4.44812;-21542.54;-9206.648;-0.1546471;0.04968658;0;
-15164.76;-9455.659;-3048.754;-14936.45;-4.737905;2.434285;-12039.48;-6444.266;-0.02455704;-0.0153307;0;
17420.68;11790.35;-2513.24;16580.71;-11.89946;0.1544192;15215.93;6822.169;-0.0894997;0.04965206;0;
24362.2;14733.4;-1491.508;23505.07;-11.28527;0.8910763;19604.74;10330.3;-0.6741158;-0.01536518;0;
20460.84;12218.68;528.1796;19730.67;-16.90001;-0.3824948;16371.73;7960.838;-0.2836345;-0.08031709;0;
23324.3;14186.19;2920.774;22465.99;-10.31894;2.163241;18835.21;9861.801;0.3013566;0.04969832;0;
19058.34;11994.87;3829.647;18569.1;-5.08464;4.304399;15650.67;7355.568;0.2360865;0.1795831;0;
-12064.68;-8297.66;3344.01;-11192.22;-10.1024;3.563262;-10359.04;-6151.568;0.2358493;0.04946793;0;
-30115.8;-19545.85;2181.591;-29079.9;-8.685726;5.100289;-25298.87;-12756.92;0.1706449;-0.08051647;0;
-20183.57;-10959.78;180.1386;-19704.66;-11.95953;3.688523;-16027.26;-7438.85;-0.2842979;0.3093685;0;
-26607.08;-16389.27;-2069.583;-25719.98;-15.63121;3.082092;-21976.46;-9411.333;-0.413947;0.2440903;0;
-14965.59;-9417.783;-2955.604;-14743.41;-8.917695;4.753446;-11821.97;-6592.289;-0.02372696;-0.145959;0;
17636.47;11954.72;-2442.344;16798.17;-6.899003;5.686431;15460.83;6918.641;0.1711989;-0.01587768;0;
24370.21;14756.61;-1424.166;23522.24;-2.873583;5.948649;19615.88;10395;0.2359942;0.3739423;0;
20787.19;12535.22;601.5596;20058.65;2.555288;4.335082;16693.6;8248.177;0.1058224;0.2436319;0;
23852.21;14729.73;2991.535;22992.1;-0.2603185;9.622255;19376.31;10430.91;0.04074875;-0.08144961;0;
19571.91;12422.63;3905.084;19076.75;-0.6621985;12.55984;16121.24;7750.164;0.1706425;-0.1463351;0;
-11628.83;-7999.874;3409.938;-10758.94;-0.1930186;12.2123;-9984.927;-5946.602;-0.024431;-0.2761227;0;
-29900.52;-19341.65;2221.748;-28863.93;-2.402651;16.1519;-25084.94;-12561.19;0.04056089;-0.1459106;0;
-20062.45;-10833.95;219.3178;-19587.48;0.01066032;7.294168;-15900.45;-7345.995;0.3003895;-0.01582933;0;
-26554.22;-16332.07;-2025.54;-25649.17;2.355174;1.593412;-21935.02;-9397.017;0.3000877;-0.3406501;0;
-15034.55;-9446.24;-2905.593;-14780.27;-3.139549;2.864486;-11935.72;-6538.866;-0.1549852;0.04949622;0;
17755.72;12057.67;-2361.398;16921.36;-3.069045;-0.7554701;15525.17;7069.133;-0.4796662;0.6341525;0;
24654.78;15028.61;-1338.538;23796.27;-8.559294;3.063316;19900.66;10652.43;-0.2193149;0.178744;0;
20830.03;12585.86;657.5851;20095.97;-13.70826;4.399775;16740.58;8309.709;0.04077484;0.5034011;0;
23624.85;14496.65;3032.105;22770.83;-6.794631;5.132166;19146.4;10196.19;0.1706686;0.8926992;0;
19408.22;12280.47;3943.349;18894.45;-7.85953;7.940292;15970.41;7600.071;0.1055297;0.3720636;0;
-11538.64;-7902.135;3452.772;-10740.18;5.075463;5.31998;-9902.72;-5913.089;0.1054237;0.5665917;0;
-29832.97;-19260.75;2273.378;-28837.63;14.58218;5.247651;-25036.97;-12540.64;-0.02461693;0.1762184;0;
-20415.57;-11133.53;269.4283;-19942.44;15.16977;3.166029;-16262.12;-7501.286;-0.2844616;-0.4736321;0;
-27048.65;-16827.43;-1976.167;-26177.74;23.12513;0.08163328;-22445.3;-9712.914;-0.1542411;-0.2132868;0;
-15117.27;-9556.199;-2875.806;-14908.95;12.3856;3.0288;-12053.3;-6691.872;-0.2840208;-0.3430072;0;
17732.96;12053.2;-2377.869;16878.72;5.339579;4.834174;15479.3;7002.02;-0.218768;-0.2776952;0;
24428.82;14804.67;-1366.986;23562.03;7.142875;2.150121;19673.65;10453.09;0.1062885;0.3072899;0;
20879.31;12631.94;642.6904;20135.32;6.13132;1.813046;16788.35;8334.63;-0.218655;0.1120791;0;
23876.92;14756.57;3019.849;23021.26;-1.376929;1.007429;19394.54;10481.91;-0.4133373;-0.2778375;0;
19759.69;12572.58;3943.006;19231.95;-8.743913;-2.007693;16284.67;7823.939;-0.02311795;-0.08265636;0;
-10924.41;-7362.134;3467.344;-10167.41;-2.572209;4.558408;-9376.773;-5628.211;0.301742;-0.212508;0;
-29217.7;-18710.17;2286.795;-28251.85;-0.2260754;8.840613;-24448.93;-12137.3;-0.02339791;-0.2772618;0;
-19945.32;-10887.51;271.5869;-19474.01;0.9132276;6.755381;-15790.47;-7349.268;-0.3482111;0.04785351;0;
-27556.46;-17401.46;-2003.433;-26657.25;1.984037;8.289079;-22966.31;-10108.48;-0.2179265;-0.1470966;0;
-16787.45;-10735.77;-2920.724;-16527.76;9.550505;5.601554;-13513.41;-7327.978;-0.1527402;-0.08198147;0;
16825.25;11549.68;-2408.076;15995.54;17.77993;3.988336;14813.1;6695.23;0.1072826;0.2429376;0;
24361.16;14717.54;-1415.764;23495.05;14.21209;3.850362;19605.8;10281.79;0.4320115;-0.1471105;0;
20393.7;12135.49;561.1659;19655.19;16.34126;2.372991;16287.01;7884.784;0.2366754;-0.08199538;0;
23361.84;14242.14;2945.622;22500.47;12.64115;2.90647;18885.19;9932.578;0.1065029;0.3728584;0;
19100.65;12030.09;3872.741;18593.91;6.465531;1.76484;15701.62;7373.754;0.2363306;-0.0173203;0;
-11966.38;-8190.403;3396.291;-11145.68;15.03285;4.241313;-10241.95;-6066.294;0.1711258;-0.2122049;0;
-29785.73;-19220.77;2234.008;-28798.73;18.36665;6.514471;-24982.56;-12543.05;-0.1538829;-0.08205701;0;
-19699.7;-10487.25;235.7193;-19251.4;14.26236;3.895591;-15567.69;-7237.918;-0.02379357;-0.3418439;0;
-26279.3;-16066.05;-2019.4;-25407.64;11.16754;2.351191;-21680.91;-9266.747;-0.08873701;-0.2115658;0;
-15025.35;-9382.896;-2935.659;-14808.79;12.09335;3.889314;-11896.45;-6535.507;-0.2185825;0.3733529;0;
17494.45;11879.91;-2449.64;16645.07;11.88013;5.426013;15322.72;6853.661;0.1064738;-0.0168263;0;
24291.28;14666.61;-1436.015;23433.94;6.375834;-0.2728658;19535.98;10292.82;0.3012688;-0.6015155;0;
20598.71;12355.44;585.2412;19860.27;5.56612;-5.497139;16505.88;8091.457;0.1060641;-0.1461397;0;
23629.54;14492.32;2960.521;22768.31;-4.152364;-2.745315;19144.89;10166.92;0.2358922;0.4387133;0;
19239.56;12182.99;3860.577;18734.26;-10.44386;-2.13971;15829.72;7559.432;0.4955246;0.4382724;0;
-12196.7;-8452.81;3362.259;-11375.9;-12.1083;-4.816877;-10519.84;-6263.47;0.4300593;0.04802801;0;
-30439.33;-19824.38;2185.299;-29438.39;-18.79394;-2.802549;-25649.05;-12970.91;0.1047905;-0.08195494;0;
-20914.88;-11610.01;188.1213;-20439.8;-7.589272;-9.63187;-16769.23;-7789.054;0.03971785;0.2429641;0;
-28086.73;-17841.04;-2065.013;-27189.66;-2.02194;-15.24864;-23481.65;-10383.53;-0.09025675;0.04781798;0;
-16282.58;-10472.76;-2964.563;-16049.55;2.19965;-8.066262;-13071.33;-7311.915;-0.2850681;-0.2770668;0;
17309.38;11869.29;-2456.495;16464.18;9.765902;-8.460055;15228.68;6927.231;-0.154847;0.1130157;0;
24404.26;14764.54;-1449.75;23552.41;8.416918;1.528658;19647.95;10372.88;-0.08972403;0.1778695;0;
20585.93;12333.5;551.7639;19856.72;11.75736;11.37337;16481.76;8056.428;0.1702355;-0.4070154;0;
23507.26;14381.59;2924.876;22650.66;7.458642;6.338344;19026.1;10074.78;0.6898031;-0.4715737;0;
19111.56;12045.35;3836.274;18615;3.901174;8.341341;15710.84;7386.288;0.5591754;-0.08129585;0;
-12034.73;-8250.449;3353.707;-11214.47;4.566839;5.452815;-10326.13;-6098.594;0.2987441;0.04872054;0;
-29932.65;-19378.37;2192.419;-28934.63;3.356801;3.973712;-25144.82;-12616.38;-0.2212948;-0.4060998;0;
-20008.22;-10791.27;195.0315;-19523.56;0.2729456;2.295268;-15877.14;-7385.789;-0.4809418;-0.5356264;0;
-26576.6;-16365.67;-2059.969;-25688.35;-4.349029;-2.060807;-21974.71;-9459.743;-0.3505238;0.04961783;0;
-14923.95;-9410.056;-2948.966;-14710.07;0.4107631;2.897878;-11821.29;-6563.939;-0.7399757;0.1145353;0;
17693.41;11975.36;-2446.208;16844.46;2.420082;2.761001;15492.91;6952.928;-0.1545261;0.04945289;0;
24409.86;14793.89;-1450.64;23547.88;2.417651;7.178978;19654.37;10424.82;0.6252373;0.3092726;0;
20769.76;12523.94;557.9811;20030.91;5.294633;11.05665;16674.31;8244.684;0.03990297;0.3089618;0;
23556.48;14419.35;2919.764;22702.63;2.409901;10.30873;19073.04;10116.75;-0.02510446;0.3736187;0;
19117.18;12039.3;3810.959;18611.85;2.071711;14.31723;15694.89;7364.511;0.2997575;0.3082759;0;
-11840.96;-8103.322;3326.668;-11027.38;1.734837;6.734013;-10167.09;-6064.939;0.2344889;-0.1468052;0;
-29873.97;-19281.38;2155.85;-28877.82;0.1928522;2.64141;-25080.86;-12584.77;-0.09058339;-0.211625;0;
-20200.32;-10923.44;159.3737;-19735.67;1.7329;1.968926;-16063.41;-7448.261;-0.3503617;0.3083263;0;
-26884.45;-16668.74;-2080.145;-26025.51;-0.8134608;-3.257599;-22281.29;-9639.969;0.169729;0.1131145;0;
-15126.19;-9646.637;-2960.814;-14942.96;6.353676;1.769272;-12088.19;-6711.171;-0.02534353;-0.4717052;0;
17780.25;12021.53;-2438.772;16910.98;14.51897;2.035426;15487.11;7013.083;-0.4800895;-0.2763292;0;
24490.2;14869.12;-1430.031;23622.97;3.587013;4.377662;19728.28;10483.77;0.1700664;0.2436872;0;
20648.99;12408.46;571.9319;19900.56;-0.6371258;8.994964;16558.87;8135.382;0.2998302;0.178475;0;
23496.11;14355.57;2944.617;22628.56;0.4352413;2.555808;19002.51;10034.7;-0.1552425;-0.08157375;0;
19089.72;12031.13;3859.541;18578.92;-1.239159;2.151342;15670.8;7385.899;-0.02515184;-0.2114265;0;
-12152.27;-8407.253;3385.509;-11358.99;0.03488352;-4.74994;-10494.87;-6272.926;0.2997102;0.04865536;0;
-30326.77;-19716.83;2218.645;-29373.37;-1.907535;-13.92159;-25555.86;-12960.73;-0.02542771;0.1135738;0;
-20557.68;-11214.24;223.308;-20116.68;4.122602;-6.472735;-16432.58;-7635.89;-0.1553368;-0.08144235;0;
-26988.33;-16748.67;-2006.764;-26138.03;5.993494;-5.059589;-22410.02;-9706.516;0.2346233;-0.01639317;0;
-14939.39;-9476.893;-2860.88;-14763.01;10.27438;-7.063993;-11891.86;-6674.235;0.03948551;0.04859066;0;
17844.35;12086.39;-2320.198;16982.03;17.56507;-4.913442;15592.75;7055.62;-0.09048884;0.04854183;0;
24386.23;14768.03;-1298.8;23523.76;8.102952;-10.80288;19626.97;10399.66;0.2994061;0.2433951;0;
20728.07;12489.27;730.4696;19984.02;7.224154;-13.5382;16631.6;8204.557;0.3640726;0.4380525;0;
23657.17;14511.06;3110.961;22801.65;-3.030884;-14.12745;19165.41;10203.6;0.03887009;0.3726451;0;
19022.46;12004.98;4001.963;18528.75;-16.55815;-17.19447;15638.8;7342.094;-0.156071;-0.2124355;0;
-12126.1;-8292.248;3518.355;-11310.88;-4.150276;-13.42615;-10405.11;-6163.702;0.1689225;-0.1472547;0;
-29977.09;-19377.51;2351.873;-28995.6;0.2081507;-11.67122;-25194.06;-12624.76;-0.09111656;0.04779532;0;
-20325.63;-11050.05;340.2231;-19843.43;-2.471376;-12.66411;-16198.33;-7481.635;-0.3508944;-0.1471547;0;
-26833.35;-16606.64;-1905.24;-25959.86;0.1430758;-12.85234;-22239.71;-9544.312;0.1042296;-0.0170722;0;
-14774.33;-9343.928;-2774.107;-14609.79;-2.938527;-11.76782;-11753.41;-6556.453;-0.02580981;0.1128796;0;
17845.43;12054.15;-2245.88;16974.49;-7.892067;-9.813491;15565.35;6999.387;-0.3506206;0.1127662;0;
24427.16;14810.42;-1211.236;23570.92;1.560334;-13.88947;19670.61;10454.15;-0.1553663;0.3725223;0;
20739.88;12497.43;834.1406;20004.95;7.385915;-14.54534;16646.32;8210.95;-0.02527546;0.6320173;0;
23565.61;14426.32;3221.602;22713.35;0.8817597;-18.95148;19073.88;10116.63;0.1046846;0.3715129;0;
19094.31;12036.5;4116.929;18598.2;2.287393;-25.22871;15684.88;7383.473;0.2994815;0.1112703;0;
-12073.81;-8293.408;3623.491;-11240.63;-8.565896;-18.8401;-10393.58;-6150.491;0.3641479;0.1761258;0;
-29926.27;-19365.43;2447.611;-28938.68;-16.26045;-17.61548;-25152.85;-12655.77;0.2338473;-0.1488879;0;
-19893.88;-10720.59;427.0258;-19448.64;-16.17676;-15.58841;-15775.84;-7345.234;-0.09122438;-0.1487383;0;
-26451.72;-16243.99;-1831.893;-25582.46;-22.85831;-10.28122;-21870.23;-9328.399;-0.2860347;0.2412152;0;
-14777.16;-9260.868;-2684.654;-14575.1;-13.05608;-16.0313;-11751.22;-6443.784;-0.3507147;0.3709075;0;
17845.07;12095.96;-2114.632;16994.48;-7.550604;-16.21614;15571.89;7067.996;-0.2853949;0.3055675;0;
24522.13;14900.71;-1064.331;23672.2;-4.729978;-17.80731;19766.55;10533.07;-0.09020615;0.04539109;0;
20765.41;12522.93;965.6403;20029.64;4.852968;-21.13851;16669.9;8236.214;0.03981918;-0.1495565;0;
23589.85;14462.55;3341.069;22733.14;-1.917062;-14.41916;19098.24;10165.78;0.1047465;0.04549576;0;
19347.86;12220.64;4236.87;18838.79;-4.795524;-12.59613;15907.49;7517.56;0.1046413;0.2403521;0;
-11594.17;-7898.063;3736.159;-10777.65;2.309241;-6.823061;-9959.816;-5882.434;0.1695035;0.3050779;0;
-29341.08;-18850.49;2546.516;-28334.44;1.369892;-1.457814;-24568.09;-12251.88;0.2992678;0.1098693;0;
-19496.36;-10449;530.7039;-19006.66;9.606562;-0.04970812;-15372.18;-7195.871;-0.1558043;-0.02017576;0;
-26509.27;-16364.01;-1722.759;-25616.23;15.69248;5.777735;-21932.96;-9533.056;-0.2206151;-0.3449922;0;
-14877.51;-9371.477;-2611.487;-14674.9;10.51915;0.0785022;-11815.62;-6579.176;-0.02549136;-0.2796782;0;
17857.94;12086.17;-2095.418;17001.79;12.58468;-2.734738;15618.14;7033.627;-0.2203678;-0.08449516;0;
24420.25;14815.79;-1068.343;23563.72;0.9177383;-0.7896069;19663.25;10454.2;0.1046904;-0.2793123;0;
20751.8;12511.51;953.8705;20014.15;-8.326585;-3.334043;16657.54;8225.338;-0.02534952;-0.01916226;0;
23612.28;14469.21;3320.94;22758.76;-7.648633;2.898598;19121.12;10161.94;0.0396433;0.2407264;0;
19151.77;12112.2;4219.51;18649.18;-13.26703;7.785317;15752.84;7439.857;0.8841789;0.2404845;0;
-12002.81;-8220.854;3731.123;-11184.28;-8.966787;5.16516;-10306.4;-6142.732;0.6234211;0.1103082;0;
-30005.18;-19435.87;2548.248;-29009.81;-6.479531;4.222209;-25228.66;-12705.62;-0.1568134;-0.01973736;0;
-20005.85;-10838.61;521.189;-19538.54;-7.612096;9.241565;-15898.68;-7418.002;0.03824618;0.2401519;0;
-26771.23;-16551.08;-1749.475;-25892.37;-5.863135;11.57668;-22197.97;-9581.083;0.1031751;0.3048779;0;
-15394.55;-9671.833;-2630.133;-15183.95;-3.847512;11.766;-12313.4;-6735.928;0.03810408;-0.02026518;0;
17504.93;11927.64;-2099.193;16653.25;0.2421911;11.82116;15292.34;6932.879;0.1680005;-0.1501795;0;
24455.95;14819.09;-1094.666;23595.73;-2.704813;12.61308;19696.14;10440.96;0.2977664;-0.1500286;0;
20763.02;12520.35;905.5543;20022.86;-6.319418;16.95417;16665.39;8237.039;0.4274018;0.1099915;0;
23621.88;14498.33;3265.786;22762.97;1.657535;5.55028;19137.41;10193.18;0.3620051;0.3697504;0;
19274.77;12142.83;4150.089;18766.4;5.406914;-0.9525191;15825.71;7470.006;0.4266087;-0.02042522;0;
-11700.43;-8055.571;3658.227;-10902.35;3.726542;0.1201649;-10095.62;-6079.396;0.3612126;-0.2802741;0;
-29625.73;-19069.47;2478.033;-28653.35;5.465085;-5.908298;-24870.61;-12471.2;0.230915;-0.2150251;0;
-20320.66;-11102.52;461.696;-19859.38;-0.7696968;5.685442;-16204.48;-7585.708;0.2956503;-0.2797764;0;
-28224.74;-18007.58;-1797.273;-27348.92;-6.5297;12.17695;-23656.96;-10649.92;-0.09445079;-0.3444626;0;
-16616.31;-10800.25;-2686.051;-16410.92;-5.116619;12.83455;-13447.07;-7477.103;-0.5491273;-0.2141818;0;
17390.86;11935.93;-2151.432;16532.91;-6.183205;17.2424;15278.6;7026.92;-0.2237388;0.04590279;0;
24580.72;14947.76;-1118.226;23711.4;-11.53563;16.7562;19824.68;10532.22;0.3611921;-0.08407803;0;
20814.98;12563.37;896.0109;20066.47;-16.6816;19.95442;16708.35;8285.933;-0.02897489;0.3058105;0;
23722.89;14606.62;3269.105;22861.88;-14.92352;13.23632;19239.53;10304.87;-0.2238478;0.1106012;0;
19407.16;12303.59;4183.515;18884.41;-11.75972;8.93611;15976.21;7594.028;0.5559852;-0.7340854;0;
-11630.46;-7907.932;3693.961;-10861.02;-20.25437;6.515868;-9998.118;-5977.128;0.4254919;-0.4734784;0;
-29722.76;-19194.34;2511.186;-28773.45;-24.38721;-0.2558337;-24982.11;-12596.51;-0.4195111;-0.08319859;0;
-19761.84;-10646.7;524.0511;-19333.02;-22.1519;5.370868;-15660.33;-7314.971;-0.1592202;0.0468197;0;
-26695.91;-16510.58;-1718.505;-25840.61;-26.28283;8.178754;-22136.89;-9585.586;-0.02912554;-0.0181947;0;
-15484.67;-9786.362;-2623.76;-15269.31;-13.99891;4.82139;-12393.72;-6795.352;-0.4189003;-0.4729478;0;
17532.72;11924.58;-2116.783;16679.06;-6.014238;5.218442;15332.99;6941.903;-0.15861;-0.3425379;0;
24493.35;14866.28;-1097.855;23624.96;-7.548436;4.54337;19730.52;10478.51;0.2313534;0.177545;0;
20815.04;12576.72;914.019;20072.1;-2.517009;3.735009;16715.63;8298.13;0.3610556;0.1773666;0;
23693.89;14559.33;3265.606;22829.16;-9.414332;5.740744;19201.91;10253.62;0.2307581;-0.01771363;0;
19340.27;12266.74;4153.048;18823.9;-11.41363;6.002908;15918.15;7579.653;0.2305263;-0.2125978;0;
-11780;-8068.76;3654.562;-10986.63;-15.95749;7.336535;-10149.89;-6117.597;0.3602293;-0.3423189;0;
-29953.74;-19362.75;2465.938;-28991.49;-20.96432;8.869648;-25217.6;-12686.15;-0.09490404;0.04782911;0;
-20394.28;-11188.13;468.2132;-19953.14;-19.00087;6.248524;-16295.73;-7604.774;-0.2247434;0.4375851;0;
-28344.62;-18117.99;-1790.138;-27469.21;-20.45565;5.505433;-23790.7;-10721.55;0.1003192;0.3072107;0;
-17233.62;-11190.61;-2691.51;-17017.46;-15.94711;2.418808;-14050.95;-7732.177;0.03525102;0.112;0;
17004.47;11738.96;-2170.738;16145.06;-16.66803;-1.066735;14922.54;6885.28;-0.02975174;-0.08301456;0;
24467.45;14808.93;-1172.776;23601.92;-2.919899;-1.534544;19711.85;10366.69;0.1651802;-0.1478985;0;
20541.87;12288.97;818.2146;19801.31;10.14385;-4.145214;16434;8026.128;-0.1598225;-0.0178152;0;
23490.52;14380.87;3186.78;22629.25;2.631572;-3.270271;19007.6;10075.19;-0.2895966;-0.147732;0;
19241.87;12132.34;4109.222;18726.49;2.829998;-1.324602;15819.67;7434.307;0.2954005;-0.01764885;0;
-11841.46;-8089.658;3645.855;-11052.3;0.6837012;-6.748766;-10178.01;-6081.623;0.360071;-0.08259846;0;
-29752.97;-19267.73;2489.349;-28789.89;-2.130025;-8.818334;-24998.05;-12676.52;-0.03009486;-0.4723195;0;
-19496.03;-10477.03;523.928;-19051.26;-5.677858;-9.546286;-15395.48;-7267.373;-0.1599993;-0.1470082;0;
-26414.03;-16239.92;-1707.664;-25556.07;-10.62865;-13.48856;-21851.54;-9377.475;-0.02990386;0.3728783;0;
-15431.83;-9676.312;-2621.754;-15237.04;-11.48862;-6.174115;-12335.53;-6692.616;0.1000609;0.5024382;0;
17363.87;11797.23;-2134.113;16510.2;-13.0183;-2.215919;15180.81;6809.778;-0.159909;0.3070314;0;
24236.67;14606.38;-1135.923;23380.32;-15.34876;-2.682573;19480.9;10222.12;-0.6794871;-0.08308119;0;
20516.28;12272.25;867.8995;19776.86;-18.34745;1.338977;16418.76;7995.638;-0.8737063;-0.1479651;0;
23651.09;14534.74;3254.125;22793.85;-11.63121;-4.958642;19172.15;10235.04;-0.6129591;-0.01788169;0;
19696.87;12522.28;4190.632;19183.89;-6.194516;-8.704582;16234.25;7808.592;-0.1575718;-0.08283107;0;
-11466.77;-7913.38;3723.295;-10669.7;-7.058948;-7.825058;-9896.078;-6027.678;-0.09244613;-0.1477152;0;
-29652.94;-19145.5;2564.509;-28669.38;-5.84543;-10.09461;-24907.71;-12560.47;0.1025488;-0.08259942;0;
-20115.88;-11011.18;572.0421;-19647.56;-1.619998;-8.476881;-15995.87;-7464.097;0.2323804;0.3072876;0;
-28367.2;-18169.94;-1691.177;-27465.13;1.194669;-7.463619;-23802;-10735.2;-0.1576571;0.1770442;0;
-17387.98;-11259.36;-2587.432;-17133.21;1.930403;-8.795778;-14171.09;-7785.687;-0.4823354;-0.01803573;0;
16851.13;11641.63;-2058.394;16016.77;3.803498;-9.054873;14800.66;6788.971;-0.2219814;0.3068191;0;
24508.72;14856.38;-1023.47;23641.12;1.053985;-8.241979;19755.26;10421.99;-0.2867257;0.1765761;0;
20874.13;12615.54;1015.893;20131.7;0.7181338;-9.171458;16766.87;8348.963;-0.4163723;0.241366;0;
23992.84;14893.68;3411.418;23130.26;-3.234703;-5.947184;19521.63;10590.6;-0.1560845;0.3710582;0;
19835.11;12641.09;4321.796;19313;-7.317289;-3.93172;16351.63;7929.305;0.03897434;-0.0191187;0;
-11451.97;-7891.036;3823.812;-10654.29;-1.349066;-5.468377;-9890.887;-6039.504;0.1688699;-0.1490342;0;
-29937.02;-19378.81;2634.081;-28930.95;5.484793;-3.185462;-25192.74;-12770.49;0.1037328;-0.2138518;0;
-20659.9;-11414.02;619.7892;-20156.45;1.192374;-11.01914;-16548.54;-7657.703;0.1036286;0.0462325;0;
-28314.8;-18099.88;-1637.996;-27406.32;-1.287071;-17.3712;-23757.65;-10625.58;-0.02641021;0.3710228;0;
-16739.51;-10836.13;-2511.613;-16508.96;10.36852;-14.27266;-13567.83;-7516.877;-0.3512204;0.3056826;0;
17274.97;11887.78;-1963.848;16428.34;7.142921;-15.46401;15162.98;7002.584;-0.4158348;0.2404081;0;
24599.36;14954.12;-938.1861;23736.15;35.73758;-14.84562;19839.79;10530.35;-0.2854823;-0.08467017;0;
20795.23;12548.11;1073.449;20055.53;64.97211;-14.62976;16691.09;8279.441;-0.02532608;-0.01961775;0;
23762.56;14639.75;3445.631;22904.42;34.16252;-13.40937;19282.1;10331.2;0.03966672;0.370206;0;
19377.19;12303.99;4330.222;18875.86;24.14785;-10.44876;15951.84;7614.566;0.03962686;0.04499733;0;
-11861.66;-8088.425;3819.516;-11040.67;20.50627;-13.45238;-10221.2;-6107.379;0.1695217;-0.2798846;0;
-29945.82;-19349.41;2622.091;-28951.71;10.90747;-13.57283;-25198.08;-12753.82;-0.1554853;-0.08470135;0;
-20317.98;-11073.56;585.2598;-19855.8;7.346537;-13.76014;-16205.63;-7539.573;-0.2852638;-0.0196489;0;
-27131.41;-16912.54;-1666.197;-26278.55;-1.569453;-15.55485;-22577.76;-9793.892;-0.02510777;0.1752729;0;
-15288.3;-9640.271;-2536.178;-15113.65;2.852754;-10.44864;-12230.43;-6739.409;-0.2199846;0.1750968;0;
17634.25;12027.5;-2021.715;16772.06;0.1041972;-6.955027;15422.84;7014.078;-0.2847309;0.2398882;0;
24405.96;14776.92;-993.0593;23551.49;12.29425;-8.622612;19651.35;10399.76;0.04039194;0.3695818;0;
20737.72;12496.43;1046.211;19994.65;25.61114;-10.7574;16638.95;8204.646;-0.02461599;-0.02059361;0;
23658.5;14532.25;3420.497;22801.03;17.88322;-4.584285;19175.01;10227.68;-0.1545259;0.1743291;0;
19236.21;12165.86;4309.861;18730.3;18.93698;0.1759877;15811.85;7467.751;0.2354334;0.4989907;0;
-11827.24;-8050.29;3809.139;-11046.77;21.12778;-5.986497;-10193.01;-6039.498;0.3651315;-0.1511842;0;
-29482.29;-18950.03;2617.878;-28543.81;24.85759;-7.855882;-24759.77;-12409.18;0.2997973;-0.3459343;0;
-19578.67;-10460.31;585.2051;-19151.18;19.60868;-12.06779;-15511.84;-7242.706;0.5593654;0.2391194;0;
-26448.22;-16253.73;-1678.62;-25598.87;16.10538;-17.14625;-21916.88;-9408.773;0.8836401;0.6936505;0;
-14809.83;-9247.517;-2544.232;-14627.17;19.70651;-17.196;-11812.29;-6440.276;0.5579154;0.3681169;0;
17852.02;12128.38;-2004.742;16987.24;14.93032;-19.25519;15563.2;7086.836;-0.09231855;-0.1519918;0;
24482.71;14858.81;-975.6973;23623.67;31.59443;-20.64243;19722.23;10493.95;-0.3520952;-0.2168064;0;
20760.14;12522.63;1060.073;20018.97;44.22234;-21.49246;16663.07;8225.871;-0.4167087;-0.3465233;0;
23666.37;14536.4;3446.854;22808.4;37.74754;-21.60483;19175.35;10238.84;-0.1564206;-0.346175;0;
19359.87;12271.94;4341.471;18847.05;38.71399;-21.24821;15920.88;7567.577;0.2985079;0.1739115;0;
-11571.27;-7808.411;3834.97;-10795.76;37.13485;-20.15519;-9973.485;-5883.176;0.1682733;0.3036715;0;
-29121.61;-18640.01;2650.039;-28183.64;35.22152;-18.59433;-24413.01;-12186.97;-0.2866672;0.1734316;0;
-19180.72;-10174.96;630.249;-18748.61;32.37309;-17.90582;-15106.09;-7093.246;0.2333596;0.04332271;0;
-26175.61;-16026.01;-1631.888;-25317.15;31.26884;-17.55291;-21638.13;-9357.664;0.6229292;0.1082465;0;
-14638.83;-9120.729;-2501.701;-14446.11;21.45815;-13.9853;-11626.52;-6380.253;0.1675319;0.1081377;0;
17928.41;12146.63;-1977.168;17072.69;10.71932;-10.42128;15653.27;7101.462;0.1673635;-0.3467423;0;
24392.71;14784.43;-951.0247;23538.06;17.40734;-13.09;19635.11;10417.14;0.3620974;-0.08652454;0;
20714.43;12479.9;1099.182;19976.81;16.51919;-14.01461;16619.1;8191.397;0.1668315;0.3033665;0;
23664.25;14518.81;3475.414;22809.98;20.05256;-14.67036;19169.86;10209.23;-0.09320547;0.04319228;0;
19055.46;12049.4;4351.87;18559.96;26.73022;-18.5405;15660.28;7369.608;-0.02814448;-0.02181848;0;
-11906.38;-8047.319;3842.001;-11100.5;17.99582;-13.56526;-10226.53;-6142.103;0.03685114;0.0431708;0;
-29430.46;-18828.36;2640.477;-28452.06;14.42777;-8.795962;-24691.53;-12314.83;-0.2230553;-0.08680727;0;
-20020.5;-10802.09;609.5937;-19533.24;15.75244;-17.62863;-15935.03;-7271.823;-0.4177332;-0.2816221;0;
-26919.36;-16704.64;-1627.567;-26040.1;13.86158;-20.35715;-22368.91;-9678.787;-0.2224114;-0.1514044;0;
-14697.34;-9240.454;-2481.657;-14519.38;15.65631;-22.88199;-11701.09;-6520.941;0.03768146;-0.08628494;0;
18012.35;12228.03;-1960.565;17150.8;18.52097;-27.81567;15724.11;7173.043;0.2325456;-0.2811003;0;
24553.39;14940.31;-922.7875;23697.2;11.00027;-21.35748;19798.54;10589.65;0.1673446;0.04401891;0;
20933.37;12695.65;1128.921;20197.28;3.487128;-19.72849;16841.57;8402.381;-0.1576602;-0.02099268;0;
23797.36;14662.6;3499.439;22945.11;7.703183;-14.41714;19307.04;10365.6;-0.2224692;0.1739305;0;
19310.75;12257.03;4375.871;18812.99;1.265082;-7.83845;15914.2;7578.349;0.03762374;0.628527;0;
-11792.81;-7994.085;3853;-10974.26;10.64191;-9.773079;-10110.99;-6015.764;-0.1573161;0.1081568;0;
-29523.04;-18942.73;2646.78;-28535.46;23.69203;-8.155668;-24784.34;-12380.92;-0.8068314;0.04308078;0;
-19955.52;-10712.73;615.0153;-19489.88;-2.521733;-8.415405;-15873.15;-7306.09;-0.6760861;0.2379395;0;
-26738.54;-16525.35;-1637.143;-25869.04;-7.207272;-10.01454;-22180.77;-9655.018;-0.09070063;0.1077657;0;
-14387.59;-9122.524;-2489.943;-14191.37;-29.50522;-7.459126;-11433.3;-6462.494;0.1042925;0.2375921;0;
18313.83;12360.77;-1953.054;17463.89;-59.75137;-5.710196;15966.64;7295.462;0.2341224;0.3672881;0;
24576.53;14979.43;-914.0189;23722.42;-27.27209;-10.59409;19820.92;10624.67;0.1689198;0.04208234;0;
20928.75;12699.27;1133.73;20191.45;-17.13062;-14.13342;16841.84;8411.308;-0.09111927;-0.08789465;0;
23806.27;14663.28;3497.152;22956.01;-10.14719;-14.05223;19315.01;10356.91;0.1688417;0.04212837;0;
19034.58;12005.49;4376.398;18535.67;9.689957;-17.11921;15633.41;7343.867;0.2336393;0.2369881;0;
-11852.63;-8014.77;3888.728;-11071.63;-4.385952;-14.82471;-10191.16;-5985.831;-0.09143212;0.1068153;0;
-29045.41;-18525.7;2699.073;-28117.75;-8.467381;-13.40317;-24323.56;-12034.05;-0.2862423;-0.2830961;0;
-19577.61;-10465.01;663.2418;-19137.63;1.185692;-16.136;-15508.68;-7166.028;-0.350922;-0.08790966;0;
-26328.01;-16158.38;-1577.517;-25483.89;2.256228;-14.04332;-21789.94;-9371.419;-0.1556674;-0.02285398;0;
-13893.48;-8677.896;-2433.407;-13754.95;6.005005;-20.66034;-10980.24;-6141.746;-0.4803477;-0.217733;0;
18338.1;12334.2;-1902.181;17466.06;11.8271;-24.92642;15958.82;7237.047;-0.5448323;0.04235512;0;
24451.95;14864.89;-864.2751;23607.02;0.02621641;-20.61453;19700.59;10533.36;-0.0895135;0.04231256;0;
20832.03;12600.96;1164.761;20096.23;-8.614974;-20.45985;16748.95;8314.344;-0.02445622;-0.152632;0;
23709.64;14560.93;3525.872;22855.87;-4.586854;-13.60722;19214.44;10254.13;0.1704704;0.1073907;0;
18997.27;12003.61;4418.208;18513.98;-8.467011;-8.101066;15625.1;7377.835;0.2352664;0.6270216;0;
-12231.3;-8347.337;3928.293;-11396.28;-3.167218;-4.208037;-10523.76;-6205.614;-0.2197414;0.3015548;0;
-29346.01;-18838.53;2755.574;-28402.81;1.792458;0.8867715;-24613.04;-12298.7;-0.2195206;-0.1535196;0;
-19620.04;-10560.18;745.1113;-19202.58;-4.505983;4.168044;-15558.41;-7259.325;0.1705041;0.2364387;0;
-26869.06;-16701.13;-1502.617;-25994.36;-4.099314;8.048744;-22320.5;-9797.33;0.4302021;-0.1536029;0;
-14422.79;-9135.704;-2359.036;-14238.81;-9.051688;8.107639;-11478.69;-6461.797;-0.1549362;-0.6082199;0;
18325.48;12374.76;-1828.431;17457.18;-13.53057;8.434408;15967.85;7309.558;-0.609552;-0.08787007;0;
24434.79;14842.52;-802.905;23581.29;-9.56486;8.559898;19679.85;10497.76;-0.02423339;0.1720876;0;
20829.08;12600.77;1236.908;20090.4;-10.69433;9.689885;16742.78;8319.227;0.0407583;0.1069473;0;
23729.07;14586.29;3599.29;22873.33;-3.582657;3.383997;19234.27;10277.24;-0.1541847;-0.02309481;0;
18846.94;11845.19;4479.292;18354.5;4.190475;-3.317574;15467.14;7211.494;-0.08906242;-0.2179736;0;
-12142.76;-8248.911;3993.267;-11330.36;-1.975677;1.374443;-10443.79;-6136.218;-0.673679;-0.4126566;0;
-29202.7;-18688.87;2815.751;-28259.26;-5.925807;0.971164;-24470.85;-12171.97;-0.3481654;-0.21734;0;
-19545.32;-10449.08;810.5061;-19122.94;2.05075;1.707;-15483.22;-7157.768;0.886564;0.2376498;0;
-25950.46;-15800.86;-1410.52;-25133.9;5.666012;3.580807;-21416.67;-9115.214;0.4309017;0.1074763;0;
-13337.53;-8238.29;-2283.304;-13222.23;3.114723;0.4959945;-10418.31;-5909.239;-0.284172;-0.2824357;0;
18468.42;12401.57;-1784.619;17588.91;5.522491;0.09359852;16097.27;7240.576;0.04095026;-0.2171846;0;
24302.77;14737.8;-764.2284;23457.66;-2.922175;-2.987588;19549.53;10440.84;-0.08902557;-0.2169663;0;
20792.1;12561.86;1257.82;20051.14;-7.674662;-5.79787;16708.22;8241.797;0.04099856;-0.346683;0;
23601.71;14455.36;3617.963;22747.73;-8.403884;-6.059854;19103.5;10174.04;0.3657941;-0.2164;0;
18971.62;11979.39;4523.59;18478.76;-13.21821;-7.929287;15603.07;7305.317;0.04058982;0.04368683;0;
-11974.27;-8091.303;4049.156;-11169.63;-5.702841;-6.916575;-10271.28;-6148.327;0.1055164;-0.2811938;0;
-29207.12;-18718.06;2888.512;-28277.02;-2.817699;-5.36914;-24481.15;-12274.75;-0.08949167;-0.2809112;0;
-19127.95;-10164.4;895.9066;-18719.24;1.941531;-8.779753;-15075.35;-7109.214;-0.2843038;0.1741424;0;
-26492.75;-16322.46;-1356.19;-25633.31;7.097144;-11.38314;-21965.11;-9534.223;0.1707533;0.04403276;0;
-15230.95;-9652.174;-2234.51;-15039.38;8.496532;-7.5538;-12201.88;-6644.653;0.1056144;-0.2808482;0;
17779.14;12048.87;-1691.24;16916.18;13.24342;-5.536844;15529.33;7098.697;-0.4142305;-0.3455333;0;
24525.07;14916.71;-650.2662;23667.58;9.076924;-6.401937;19771.4;10515.37;-0.2838796;-0.2152515;0;
20759.91;12530.13;1393.61;20019.13;8.733011;-6.261538;16671.19;8272.384;0.3660791;0.3047036;0;
23834.79;14692.79;3776.839;22975.99;3.43295;-4.379847;19343.4;10387.19;0.4956459;0.4992994;0;
19054.77;12114.8;4665.705;18569.89;-4.005239;-0.1556429;15728.27;7425.55;0.0403765;0.3038957;0;
-11911.82;-7904.036;4173.2;-11100.88;1.491142;-6.384655;-10138.57;-6045.893;0.235238;-0.08621373;0;
-29118.15;-18532.17;2984.321;-28185.46;1.824437;-10.66515;-24394.01;-12136.07;0.3649363;-0.4109638;0;
-19981.36;-10830.55;960.7906;-19530.74;1.420462;-4.894021;-15919.79;-7313.868;-0.09020181;-0.08571416;0;
-26743.49;-16549.32;-1264.744;-25892.54;2.155969;-4.822121;-22194.29;-9613.828;-0.02514383;0.109274;0;
-13984.06;-8733.049;-2125.759;-13867.47;1.551566;1.880896;-11047.52;-6285.102;-0.1550533;-0.08573784;0;
18245.13;12294.29;-1622.765;17367.42;3.357692;8.309245;15907.5;7153.446;-0.08993011;0.239185;0;
24280.83;14697.08;-600.3819;23431.73;0.07276473;6.55934;19531.74;10382.4;0.2999643;0.303912;0;
20679.49;12453.32;1417.083;19933.96;-1.267455;9.700825;16593.27;8161.17;0.1697282;-0.1511647;0;
23477.42;14332.87;3753.312;22626.52;-0.8640399;6.609985;18984.23;10019.67;0.234525;-0.2809475;0;
18687.18;11734.43;4654.789;18208.11;-2.202342;2.651472;15324.66;7132.285;0.169322;-0.2156979;0;
-12665.06;-8697.225;4194.278;-11829.4;-0.1913735;9.413962;-10940.39;-6481.589;0.2341192;0.1743229;0;
-29687.17;-19187.99;3037.955;-28757.86;-1.798772;12.82051;-24968.21;-12663.36;0.2988513;0.1091804;0;
-19354.27;-10350.2;1052.774;-18964.26;4.567024;9.592447;-15298.47;-7208.461;0.103649;-0.5406027;0;
-26206.89;-16023.95;-1181.817;-25378.14;11.12652;7.841375;-21659.13;-9301.085;0.3634142;-0.4750922;0;
-14114.22;-8815.618;-2053.488;-13978.73;2.943665;8.302376;-11227.26;-6255.14;0.2331144;-0.08481076;0;
18243.58;12268.02;-1534.903;17365.95;0.7299045;6.351529;15836.97;7188.266;-0.09195656;0.04520915;0;
24313.72;14717.74;-525.6642;23470.08;-2.016519;7.952737;19561.3;10389.45;-0.09186416;-0.08477097;0;
20729.89;12508.37;1494.411;19991.61;-5.029579;11.5617;16648.65;8214.048;-0.1567392;-0.3445552;0;
23902.41;14765.33;3872.917;23045.12;-5.024525;1.770821;19412.38;10472.58;-0.1565817;-0.08433958;0;
19362.36;12325.51;4776.678;18860.24;-5.420642;-3.321539;15957.14;7665.381;-0.09145703;0.04567986;0;
-11869.71;-8029.917;4290.074;-11068.78;-5.348823;-3.921048;-10224.48;-6038.67;-0.2862672;-0.2792028;0;
-29083.32;-18598.97;3099.344;-28150.32;-8.423931;-8.873723;-24363.2;-12231.99;-0.2859795;-0.2789222;0;
-19227.19;-10212.53;1058.285;-18815.77;1.966034;-2.702499;-15162.82;-7096.63;0.2340466;-0.08373993;0;
-26157.99;-16012.29;-1192.366;-25331.85;5.581381;-1.360125;-21629.96;-9301.153;0.4936808;0.04627891;0;
-14021.56;-8733.023;-2050.236;-13889.26;13.07786;2.660096;-11068.39;-6181.73;0.168348;-0.213637;0;
18155.63;12214.01;-1524.83;17280.35;25.79074;9.221628;15823.67;7113.707;-0.1566579;-0.2134223;0;
24163.97;14585.1;-489.4422;23321.19;9.823626;1.442464;19412.51;10257.83;-0.02656576;0.1116289;0;
20510.37;12283.11;1551.071;19774.22;5.594195;-2.309907;16426.21;8005.327;0.2333303;0.04654936;0;
23463.07;14319.41;3916.542;22606.12;-1.847141;-2.508535;18971.06;10013.49;0.1031612;-0.01846477;0;
18732.37;11766.75;4803.924;18248.57;-14.9061;-4.984383;15365.43;7158.716;0.2979595;0.1114885;0;
-12440.81;-8494.503;4315.902;-11617.02;-4.308554;-7.792536;-10731.4;-6345.943;0.1027581;-0.01855824;0;
-29229.22;-18764.25;3136.109;-28312.35;-3.633663;-8.856433;-24519.18;-12323.68;-0.3521165;-0.1484743;0;
-19074.89;-10116.27;1109.007;-18682.54;-0.01366573;-15.61269;-15034.3;-7072.684;-0.09189335;-0.2782598;0;
-26217.5;-16043.38;-1143.57;-25369.65;5.412332;-22.16114;-21692.68;-9382.74;-0.09180102;-0.08307815;0;
-14267.15;-8912.981;-1999.49;-14100.34;4.000374;-17.91901;-11348.06;-6279.165;-0.2216435;-0.01802733;0;
18106.14;12171.41;-1464.499;17235.3;8.751776;-18.36989;15741.21;7132.172;0.298318;-0.3428459;0;
24251.24;14664.94;-440.4004;23399.92;1.441965;-13.79671;19498.6;10311.51;0.2330509;-0.2125667;0;
20543.63;12323.51;1596.503;19808.75;-5.257289;-7.888474;16462.89;8067.869;-0.286922;-0.2773205;0;
23518.46;14368.61;3965.145;22661.31;1.780591;-12.03337;19023.93;10035.77;-0.156699;-0.01717249;0;
18722.34;11772.07;4829.599;18243.73;4.65919;-12.69111;15361.24;7205.571;0.3631971;0.1777468;0;
-12682.59;-8782.078;4320.531;-11858.38;-0.9051969;-10.13312;-10968.28;-6524.068;0.6227016;-0.2772032;0;
-29925.03;-19294.71;3127.818;-28967.02;-4.185841;-8.515352;-25192.48;-12657.61;0.03736981;-0.2119573;0;
-20842.1;-11559.74;1078.313;-20353.68;-3.177257;-9.377574;-16766.03;-7710.048;-0.2875044;0.3079944;0;
-28660.31;-18406.97;-1179.995;-27776.54;-4.31314;-9.234185;-24111.82;-10871.25;0.3624578;0.1127829;0;
-15672.31;-10110.12;-2017.872;-15529.03;-3.43815;-9.76077;-12673.05;-7231.89;0.2971263;-0.08223246;0;
18015.03;12319.02;-1462.982;17140.95;-1.491337;-11.55938;15738.09;7297.468;-0.02800895;0.1127522;0;
24439.59;14823.83;-409.8526;23589.32;-4.772368;-7.997791;19690.19;10480.98;0.1669212;-0.1472305;0;
20917.61;12692.84;1659.347;20171.16;-4.968644;-6.583114;16831.07;8403.414;-0.09311587;-0.2770172;0;
24010.54;14870.39;4033.736;23153.02;-6.035378;-5.370928;19522.54;10580.11;-0.222957;0.1130652;0;
19264.77;12284.87;4884.472;18773.37;-7.904347;-2.552248;15877.1;7625.034;0.0371364;0.1779189;0;
-11959.12;-8092.88;4345.036;-11150.82;-2.738842;-6.099657;-10287.9;-6205.758;0.2969685;0.1127728;0;
-29945.51;-19249.26;3094.765;-28961.32;-0.9284043;-8.437931;-25224.85;-12689.54;0.2317027;0.04769216;0;
-21388.24;-12010.58;1007.14;-20892.09;5.168097;-5.683152;-17310.17;-7962.176;0.1015352;0.1126116;0;
-28990.03;-18708.42;-1263.809;-28105.61;12.93341;-3.400144;-24440.5;-11001.22;-0.02850149;0.1774658;0;
-16384.61;-10603.86;-2112.643;-16187.62;9.436816;-7.884462;-13315.46;-7412.966;-0.2883422;-0.01761459;0;
17513.36;12027.41;-1533.435;16667.92;9.494683;-12.09634;15312.48;7150.462;-0.4179872;-0.1475316;0;
24553.91;14905.7;-464.181;23694;13.50363;-6.591709;19800.52;10503.53;-0.02776313;0.112486;0;
20836.16;12608.68;1583.256;20100.59;15.09765;-4.843652;16742.21;8343.803;-0.2226373;0.4372097;0;
23931.33;14807.79;3956.738;23071.83;17.22594;-4.302921;19451.06;10505.28;-0.5472503;0.04696637;0;
19147.58;12132.86;4815.843;18665.22;17.61077;-2.155144;15754.59;7487.127;0.4278097;-0.2779175;0;
-12205.92;-8295.646;4287.58;-11355.89;20.33876;-4.765313;-10521.22;-6250.15;1.012086;-0.3426056;0;
-29355.28;-18839.49;3082.469;-28394.89;21.92592;-5.028456;-24642.03;-12441.86;0.1664936;-0.277294;0;
-19880.08;-10730.36;1043.505;-19428.15;21.03323;-7.166736;-15811.83;-7325.975;-0.02857575;0.2427233;0;
-26640.49;-16460.95;-1193.154;-25788.09;22.15117;-8.767125;-22106.4;-9563.032;0.1013876;0.2424794;0;
-13790.2;-8640.812;-2039.311;-13673.21;17.50721;-10.09797;-10908.94;-6215.008;0.1662531;-0.01763358;0;
18420.71;12381.48;-1517.195;17539.75;16.14948;-13.50383;16025.1;7248.395;0.4909228;0.1123188;0;
24268.36;14694.31;-479.5352;23422.54;11.51155;-8.265719;19521.9;10382.59;0.4904295;0.3720753;0;
20728.99;12511.12;1584.175;19987.61;5.539111;-4.104594;16649.67;8222.399;0.360002;0.3067341;0;
23636.78;14477.54;3946.942;22784.37;12.09763;-6.980614;19136.25;10166.31;0.489575;-0.01841079;0;
18650.45;11757.75;4803.653;18173.22;14.09521;-7.509463;15318.36;7158.885;0.4890831;-0.4081963;0;
-12699.01;-8675.186;4295.688;-11871.54;15.42021;-4.08591;-10943.93;-6509.754;0.5535589;-0.2128842;0;
-29801.51;-19195.63;3100.783;-28845.99;15.33737;-1.938351;-25081.6;-12642.13;0.423068;-0.08273557;0;
-20142.53;-10920.54;1078.666;-19687.14;22.02074;-2.070369;-16091.95;-7414.389;0.1627736;-0.3425218;0;
-26924.98;-16689.6;-1144.972;-26072.66;30.23666;-2.671135;-22398.15;-9654.825;0.2275774;-0.1472756;0;
-14217.97;-8951.817;-1987.569;-14071.79;20.02585;0.4126415;-11310.46;-6345.97;-0.2274227;-0.08216029;0;
18225.53;12272.68;-1449.701;17354.03;17.86227;4.029305;15858.22;7208.659;-0.4870636;-0.2769797;0;
24309.03;14717.85;-417.4031;23453.62;12.28462;-1.735154;19556.67;10383.43;0.03316459;-0.4066361;0;
20633.04;12415.06;1616.276;19895.87;5.57447;-4.613676;16550.12;8132.541;-0.09680342;-0.2762929;0;
23578.65;14423.72;3986.1;22721.16;7.041761;-3.47033;19077.24;10114.99;-0.2916082;0.04882149;0;
18747.7;11843.6;4867.993;18270.67;0.1358096;-3.399861;15423.2;7244.924;0.09848889;-0.211097;0;
-12633.08;-8632.938;4374.02;-11798.49;13.06375;-3.999291;-10864.33;-6490.846;0.2283246;-0.3408195;0;
-29774.76;-19170.48;3193.637;-28809.35;23.56584;-5.736707;-25047.15;-12628.13;0.09816051;-0.2755097;0;
-20328.21;-11060.97;1169.819;-19862.99;13.36173;-0.9082931;-16260.22;-7466.979;-0.2917422;-0.1452982;0;
-27279.33;-17048.03;-1047.57;-26429.75;10.40057;-0.03672435;-22734.12;-9973.431;-0.6162857;0.2446519;0;
-14299.14;-9045.833;-1876.476;-14150.07;11.1944;4.919928;-11352.03;-6509.38;-0.09592776;0.1144713;0;
18266.62;12341.82;-1344.482;17408.85;11.4506;10.40746;15940.54;7252.98;0.164038;-0.01557838;0;
24286.5;14698.86;-289.7226;23438.87;3.735933;5.976254;19539.97;10376.87;0.03393848;0.114372;0;
20787.09;12566.79;1771.579;20051.16;-2.429763;8.5156;16707.51;8279.772;0.1638391;-0.08064499;0;
23696.11;14542.79;4117.494;22834.67;-3.230629;-1.47317;19201;10237.7;-0.09619493;0.1143381;0;
18617.82;11737.22;4985.887;18143.57;-5.9067;-9.375553;15306.76;7137.153;-0.2910003;0.2441579;0;
-12768.1;-8693.357;4495.668;-11922.64;-8.17794;-6.083969;-10965.44;-6519.408;-0.03083853;-0.08092418;0;
-29650.05;-19109.79;3300.905;-28711.02;-12.18919;-10.09683;-24921.37;-12632.67;0.09912714;-0.01587552;0;
-19733.15;-10651.91;1280.727;-19305.51;-6.885654;-2.919635;-15700.32;-7325.233;0.1639949;0.04910779;0;
-26566.23;-16372.18;-943.7233;-25708.68;-3.194064;0.1643919;-22041.28;-9445.132;-0.03107193;0.1140258;0;
-14042.51;-8775.447;-1800.11;-13878.6;-5.066864;3.312424;-11139.28;-6171.11;-0.6157468;0.1788786;0;
18334.18;12370.25;-1278.219;17475.16;-2.784598;9.337438;15960.76;7311.129;-0.6800954;-0.01620322;0;
24402.48;14814.52;-244.4845;23553.41;-5.326419;4.371441;19654.48;10476.09;-0.1596733;-0.08115428;0;
20711.06;12497.1;1796.985;19977.15;-4.24934;4.63498;16632.78;8227.053;-0.0295782;0.243764;0;
23650.02;14494.44;4152.776;22791.25;-8.197186;-0.1924483;19152.51;10175.44;-0.02954848;0.1785517;0;
18697.64;11818.82;5024.928;18231.63;-14.0161;-4.211109;15361.34;7248.107;0.03544855;0.04843761;0;
-12846.12;-8765.023;4523.098;-11982.58;-3.887958;-5.345587;-11084.66;-6509.374;-0.09452175;0.3082583;0;
-29732.26;-19164.58;3334.539;-28787.88;0.4692294;-8.823207;-25013.54;-12705.43;-0.4842308;-0.1468228;0;
-20043.41;-10896.89;1315.795;-19613.5;2.277419;-6.73787;-15992.02;-7504.229;-0.5487116;-0.7313814;0;
-27032.67;-16843.57;-920.529;-26197.04;6.159897;-7.86981;-22495.58;-9844.306;-0.1583562;-0.2758751;0;
-13869.92;-8770.586;-1772.113;-13766.76;5.3504;-2.704338;-11010.39;-6325.068;-0.2881318;0.2441408;0;
18565.39;12491.47;-1255.216;17684.18;6.283029;0.5804207;16142.86;7354.18;-0.5477116;0.3738302;0;
24213.29;14643.39;-235.6232;23373.38;5.271362;2.522343;19466.25;10341.86;0.03754479;0.1785526;0;
20745.71;12529.92;1800.137;20010.9;6.739933;7.744355;16668.84;8237.165;0.3623438;-0.2114309;0;
23683.09;14527.43;4143.821;22831.46;0.5712197;1.507283;19183.32;10227.21;-0.2876937;-0.4061205;0;
18531.28;11656.44;5027.368;18070.9;-3.381469;-1.106444;15225.88;7060.038;-0.4173393;-0.2757777;0;
-12713.44;-8642.703;4568.763;-11854.46;-3.043279;-2.779906;-10918.77;-6459.202;0.0378514;-0.2755006;0;
-29505.08;-18941.88;3396.212;-28564.94;-8.331507;-7.063898;-24791.02;-12456.97;-0.02715397;-0.1452891;0;
-19670.16;-10524.18;1379.343;-19235.54;3.532234;-4.913468;-15629.25;-7235.794;-0.09209403;0.1796936;0;
-26232.85;-16027.65;-843.1295;-25380;10.76235;-3.50189;-21696.6;-9241.044;0.03793319;-0.1453237;0;
-13477.83;-8379.6;-1703.224;-13355.33;10.08195;-8.32102;-10633.66;-5963.135;0.1678298;-0.01524298;0;
18524.79;12434.66;-1201.046;17648.8;13.95659;-12.59945;16091.19;7325.117;0.2326285;0.2446417;0;
24344.46;14773.26;-192.6735;23502.97;11.59804;-6.692409;19601.19;10463.27;-0.1574093;-0.4052775;0;
20722.98;12510.3;1828.395;19991.87;11.25159;-3.068728;16650.12;8220.066;-0.2222185;-0.4698376;0;
23616.18;14463.27;4173.972;22757.71;8.69567;-4.673235;19121.22;10168.93;0.03787414;0.3752099;0;
18745.07;11852.45;5049.539;18282.1;7.480507;-2.926983;15430.82;7232.107;0.03783609;0.3748329;0;
-12459.87;-8397.723;4561.785;-11582.56;0.1056006;-3.32594;-10680.88;-6325.083;-0.09213661;-0.01534781;0;
-29097.31;-18561.91;3375.53;-28149.45;-9.338977;-1.78199;-24383.77;-12216.58;0.1678253;0.3744717;0;
-19509.16;-10432.19;1346.719;-19071.08;-3.234024;-2.717961;-15463.41;-7206.219;0.4275261;0.7638994;0;
-26861.66;-16680.66;-893.1966;-26002.37;-3.029704;-4.255837;-22326.65;-9846.741;0.2321945;0.04849113;0;
-13870.36;-8804.236;-1744.137;-13763.68;-2.759216;1.575832;-11050.01;-6334.061;0.2969285;-0.1464596;0;
18641.57;12511.65;-1226.456;17755.45;2.267399;3.985634;16184.05;7404.479;0.1666955;0.1135569;0;
24256.38;14686.57;-217.8705;23419.74;-7.04563;8.402381;19512.09;10377.04;-0.3532108;0.04847547;0;
20689.37;12476.89;1802.755;19958.19;-12.06239;13.21659;16613.7;8193.066;-0.0929865;0.1783614;0;
23671.74;14520.49;4137.394;22826.84;-10.10789;12.0646;19175.24;10223.28;0.03704162;0.2431496;0;
18589;11682.83;5007.641;18121.1;-15.52274;12.11946;15263.22;7067.29;-0.222865;-0.08193147;0;
-12463.06;-8406.954;4547.166;-11624.11;-3.383353;13.11202;-10702.55;-6299.299;-0.2876084;-0.01688181;0;
-28772.62;-18298.84;3377.323;-27836.83;10.21673;13.50075;-24060.41;-11961.93;-0.5471888;-0.01686485;0;
-19058.88;-10093.24;1335.049;-18623.32;-6.40433;10.20502;-15023.83;-6973.602;-0.4167042;-0.4066519;0;
-26139.48;-15988.01;-911.5393;-25305.34;-12.96198;8.654278;-21621.33;-9329.438;0.03848585;-0.2763087;0;
-13239.14;-8218.544;-1757.51;-13149.65;-6.452219;3.555001;-10426.92;-5900.798;-0.02652017;0.3736424;0;
18743.14;12566.5;-1238.692;17854.94;-6.177316;-2.610878;16282.26;7424.498;-0.09146086;0.5032017;0;
24278.14;14722.98;-221.3171;23441.25;-0.3439601;0.8077524;19533.45;10429.6;0.1035331;0.2428267;0;
20706.61;12490.05;1820.863;19975.17;2.402076;1.945651;16630.88;8200.097;-0.02650565;0.04768065;0;
23644.64;14498.96;4180.909;22796.5;9.365887;-0.6015338;19151.02;10208.33;-0.2863484;0.1126001;0;
18942.03;11978.51;5055.454;18463.39;13.71073;-0.935844;15579.89;7337.634;-0.351028;0.1124869;0;
-12115.41;-8178.958;4551.921;-11277.01;18.18493;-0.2651964;-10413.54;-6230.782;-0.02583858;-0.01756079;0;
-28866.86;-18389.74;3346.264;-27917.01;24.39498;0.2039506;-24157.9;-12126.91;-0.02581261;0.1773589;0;
-19709.02;-10739.85;1294.322;-19266.51;16.66828;1.543404;-15657.87;-7299.306;0.104148;0.3071154;0;
-27808.84;-17640.79;-971.8246;-26941.74;14.10594;1.407888;-23285.45;-10417.38;0.233978;0.3068068;0;
-14832.47;-9555.759;-1811.988;-14676.33;6.589675;5.090412;-11984.8;-6792.406;-0.3509631;0.3714658;0;
18465.13;12451.19;-1255.102;17603.8;0.1526928;9.104274;16033.61;7416.609;-0.3506105;-0.08367882;0;
24421.1;14841.79;-204.197;23578.95;-4.803954;3.870579;19676.08;10500.95;0.2344479;-0.01862739;0;
20766.98;12559.34;1855.426;20034.18;-11.22949;0.7854745;16694.26;8298.559;0.1042776;0.1762934;0;
23694.51;14535.35;4204.536;22837.4;-10.54764;1.052617;19199.27;10214.86;-0.09072918;-0.3436225;0;
18530.35;11650.7;5062.94;18066.12;-15.02502;-0.8238407;15193.86;7089.43;0.4940681;-0.3432772;0;
-12684.3;-8680.231;4571.16;-11817.33;-3.824142;-1.89474;-10939.31;-6456.154;0.2986696;-0.277965;0;
-29661.23;-18993.09;3360.002;-28704.39;3.949232;-1.356973;-24949.59;-12480.95;-0.09143456;-0.4725877;0;
-20758.6;-11357.52;1297.879;-20314.28;4.481127;-7.651883;-16711.54;-7622.374;0.4933634;-0.2772108;0;
-27762.21;-17507.37;-926.9166;-26922.13;10.03633;-12.66779;-23228.37;-10204.01;0.4279003;-0.406867;0;
-14244.15;-9042.586;-1742.231;-14142.75;6.476272;-9.77492;-11358.04;-6473.14;-0.2871704;-0.2115561;0;
18334.61;12381.61;-1198.659;17448.54;6.00125;-11.10463;15937.48;7306.27;-0.3518492;-0.01644152;0;
24189.78;14602.91;-151.9646;23350.09;3.114832;-6.739707;19442;10290.24;0.2332104;-0.3412617;0;
20608.03;12396.99;1904.061;19878.91;1.705183;-2.647099;16533.57;8117.812;0.5578128;-0.08104944;0;
23565.04;14402.86;4254.387;22710.17;-4.860614;-4.854876;19064.18;10096.25;0.2324156;0.4387707;0;
18502.1;11680.96;5113.944;18045.56;-11.8893;-3.443356;15208.87;7125.531;0.2971494;0.3083952;0;
-13226.13;-9110.056;4617.443;-12353.67;-8.260036;-6.387022;-11417.89;-6809.049;0.4267855;0.1781506;0;
-30249.81;-19593.78;3429.179;-29309.11;-10.12775;-8.992939;-25545.91;-13021.63;0.2314547;0.1130043;0;
-20414.42;-11096.14;1393.412;-19989.59;-5.763312;-7.644245;-16390.49;-7549.96;0.1012874;-0.08201131;0;
-27531.44;-17252.79;-849.8772;-26681.15;-4.685795;-7.636564;-22998.94;-10038.78;-0.02874905;-0.2118636;0;
-14823.67;-9428.867;-1685.415;-14688.15;1.882997;-9.571395;-11877.22;-6671.375;-0.2885895;-0.08171602;0;
18016.37;12200.21;-1127.782;17149.55;13.33531;-11.23623;15698.21;7188.661;-0.1583649;0.3081701;0;
24208.36;14605.05;-69.57128;23366.18;-1.414824;-9.684454;19461.98;10258.91;-0.02827107;0.1779258;0;
20649.5;12436.94;2004.503;19916.85;-7.441622;-7.933167;16568.53;8169.019;0.101692;-0.1470897;0;
23918.82;14768.78;4385.447;23058.64;-6.563489;-10.40356;19430.47;10458.41;0.4264266;-0.01700721;0;
18950.89;12079.56;5238.782;18486.83;-12.58511;-13.13929;15622.94;7492.211;0.3610307;0.1129446;0;
-12859.03;-8791.744;4715.59;-11992.13;-4.266097;-7.298693;-11108.52;-6588.025;0.1007986;0.1128311;0;
-29899.77;-19267.91;3501.132;-28969.56;-0.5107657;-3.473454;-25212.4;-12772.76;0.1656647;0.2426524;0;
-20378.79;-11106.03;1427.092;-19967.23;0.4267765;-5.881227;-16349.56;-7512.877;0.1005309;0.3073759;0;
-27643.54;-17392.69;-827.6152;-26802.75;4.914326;-6.344198;-23117.86;-10159.67;0.3602992;0.112165;0;
-14643.63;-9269.177;-1646.309;-14520.88;2.163698;-5.534029;-11713.37;-6634.069;0.4898719;-0.147817;0;
18201.31;12366.17;-1081.36;17324.41;0.1517919;-4.188931;15867.98;7296.879;0.1645429;-0.08270117;0;
24296.14;14694.35;-4.657807;23450.66;5.442925;-7.533747;19552.23;10376.45;0.3592796;-0.01765073;0;
20745.03;12534.71;2083.813;20012.22;9.455944;-8.262989;16668.32;8252.351;0.423886;-0.4724044;0;
23730.91;14582.41;4444.859;22878.09;5.495304;-9.862277;19239.86;10288;0.03365599;-0.6018644;0;
18674.83;11807.25;5285.015;18216.73;6.426811;-12.53156;15361.94;7202.208;0.1635569;-0.01655357;0;
-12731.25;-8618.317;4754.204;-11852.52;0.9953457;-6.490629;-10939.99;-6477.858;0.2283598;0.3732671;0;
-29339.62;-18796.68;3535.037;-28381.59;-6.641465;-4.00586;-24624.33;-12413.39;0.03322837;-0.211814;0;
-19467.23;-10398.25;1484.576;-19029.56;3.612987;1.088745;-15433.93;-7164.381;0.1631297;-0.6014052;0;
-26712.6;-16494.05;-765.6446;-25850.89;6.690816;5.44142;-22193.58;-9604.421;0.09799841;-0.2759642;0;
-14208.07;-8873.234;-1603.469;-14065.9;9.965647;8.316218;-11333.24;-6290.837;-0.2269368;-0.08078492;0;
18273.05;12341.48;-1043.764;17408.21;18.06093;11.52292;15886.77;7280.93;-0.2267087;0.04923095;0;
24312.82;14722.34;18.17365;23476.57;7.861381;11.77927;19570.38;10398.43;0.09835576;0.1791162;0;
20787.74;12582.35;2096.704;20061.53;1.42312;14.58072;16715.27;8311.436;-0.03167775;-0.01596585;0;
23991.28;14838.97;4468.795;23135.99;7.584608;6.863156;19501.17;10533.15;-0.3564826;-0.2108518;0;
19002.92;12128.87;5308.255;18543.88;8.581365;1.832662;15667.4;7533.195;0.03367962;-0.2756073;0;
-12691.98;-8629.732;4777.623;-11806.99;6.496637;-0.04470164;-10942.01;-6517.472;0.3584825;-0.210363;0;
-29675.94;-19076.87;3563.915;-28707.91;6.020618;-4.130494;-24973.78;-12686.68;-0.03168177;-0.1451843;0;
-20096.94;-10886.82;1504.133;-19647.23;3.670044;-3.858412;-16072.93;-7401.299;-0.3564866;-0.01510375;0;
-27136.3;-16902.7;-737.081;-26281.98;2.126115;-6.399764;-22621.48;-9821.721;-0.2911611;-0.01508858;0;
-14162.62;-8872.757;-1549.229;-14044.54;2.057606;-1.70465;-11264.65;-6356.76;-0.09596652;0.04989394;0;
18308.42;12386.66;-994.8873;17432.71;2.725124;0.3064286;15940.16;7292.051;-0.09587009;0.1797785;0;
24262.35;14675;53.69514;23419.92;1.516937;3.588284;19520.91;10367.94;0.03416093;0.3095325;0;
20731.09;12524.69;2123.429;19995.16;0.242615;8.541294;16657.6;8240.305;0.0341266;0.3741888;0;
23663.87;14512.89;4479.235;22810.13;4.127137;5.250548;19173.03;10209.78;-0.3557117;-0.3408279;0;
18594.86;11725.38;5329.711;18137.86;4.189363;7.321743;15274.46;7156.224;0.03444973;-0.5353875;0;
-13010.82;-8939.54;4810.239;-12144.9;9.142623;0.9511294;-11243.58;-6730.1;0.4891865;-0.2100128;0;
-29886.41;-19319.73;3588.611;-28953.99;11.47698;-3.537561;-25180.68;-12794.32;0.1638583;-0.1448344;0;
-20078.05;-10880.76;1544.859;-19661.95;11.39908;-2.462279;-16043.04;-7424.435;0.2936283;0.1151805;0;
-27208.26;-16963.77;-691.9763;-26361.72;15.20504;-6.076761;-22681.91;-9942.503;0.3583006;0.2449994;0;
-14365.79;-9118.579;-1540.042;-14232.67;4.338774;0.4264449;-11458.85;-6472.861;-0.03186347;-0.08008347;0;
18288.26;12340.55;-1005.637;17418.35;1.722446;2.703436;15927.74;7321.619;-0.09679879;-0.080003;0;
24305.96;14727.77;41.40994;23462.52;-10.87159;7.32242;19560.62;10391.71;-0.03173419;0.2449141;0;
20708.22;12495.7;2093.025;19976.44;-26.46708;13.87927;16632.77;8221.734;0.03326504;0.04976599;0;
23709.27;14561.77;4444.691;22852.03;-14.85353;9.377587;19218.14;10260.62;-0.1616704;-0.2751207;0;
18835.54;11948.98;5309.679;18372.58;-16.17778;8.899284;15505.75;7339.769;-0.4213773;0.04999243;0;
-12639.29;-8590.432;4791.961;-11775.64;-7.856129;7.416718;-10884.14;-6506.478;-0.09611722;-0.0799925;0;
-29613.53;-19013.73;3567.728;-28689.04;3.337549;5.131845;-24926.62;-12634.29;0.2937834;-0.07991213;0;
-20220.19;-11018.2;1514.626;-19807.71;-6.980932;4.055084;-16205.39;-7499.611;0.5533576;0.3099722;0;
-27604.92;-17377.02;-732.6109;-26777.76;-6.973917;2.644368;-23086.78;-10207.23;0.4878342;0.1797261;0;
-14467.33;-9175.153;-1574.404;-14377.75;-11.11912;-0.5063648;-11568.17;-6569.591;-0.03239469;0.1145782;0;
18350.1;12427.65;-1044.323;17464.73;-14.32313;-4.993712;15977.8;7346.815;-0.3571988;0.2443977;0;
24263.73;14675.32;-5.732154;23423.54;-15.44781;-0.2330286;19519.93;10361.04;-0.1619379;0.1791848;0;
20736.03;12528.76;2050.943;19997.65;-20.25506;2.580489;16666.41;8246.608;0.03312683;-0.01589729;0;
23637.26;14486.38;4388.94;22784.76;-13.26848;0.9703054;19144.24;10185.39;0.2929629;-0.53562;0;
18488.43;11624.48;5241.068;18027.66;-11.1117;2.576921;15189.12;7040.231;0.1627339;-0.6000492;0;
-12902.6;-8822.729;4735.741;-12053.5;-5.87562;0.5648435;-11105;-6687.368;-0.4871031;-0.4695116;0;
-29600.26;-19043.36;3518.779;-28677.99;1.363953;-1.646039;-24895.8;-12599.92;-0.4216463;-0.5340071;0;
-19883.48;-10740.19;1471.896;-19458.87;-1.183013;2.240503;-15860.94;-7328.625;-0.1613532;-0.01373185;0;
-27111.36;-16895.88;-772.4246;-26249.33;0.8952562;3.778859;-22595.05;-9933.791;-0.2261585;0.181184;0;
-14403.48;-9083.817;-1638.884;-14260.66;0.424866;3.641097;-11461.01;-6494.096;-0.09599653;-0.1438348;0;
18140.81;12249.75;-1129.743;17271.2;-0.7810097;5.713787;15829.39;7212.855;-0.03093273;0.05121178;0;
24191.22;14614.18;-99.7653;23349.8;2.167512;1.354277;19449.76;10279.98;0.09903304;0.1161277;0;
20535.66;12324.94;1938.935;19808.81;2.030636;-2.197057;16460.34;8061.546;0.1639009;-0.2737931;0;
23593.96;14441.7;4285.088;22736.91;3.769908;1.422107;19103.29;10120.22;-0.2260679;-0.5333873;0;
18764.41;11914.95;5156.982;18307.48;3.096535;4.501893;15445.06;7373.458;-0.2908081;-0.4678841;0;
-13194.83;-9141.55;4644.041;-12312.3;5.57167;-0.5932117;-11432.37;-6858.442;0.2292229;-0.1425772;0;
-30357.27;-19718.26;3434.339;-29406.69;8.914974;-5.214438;-25665.4;-13147.65;0.3589272;-0.142434;0;
-20880.85;-11621.04;1402.861;-20443.94;1.270206;2.091819;-16856.88;-7840.711;0.09869722;-0.2722255;0;
-29132.46;-18867.31;-847.4028;-28254.68;-1.945275;5.103827;-24619.83;-11209.9;-0.03133664;0.1828194;0;
-16321.15;-10660.34;-1703.418;-16158.41;-4.488916;6.438357;-13327.43;-7519.752;0.03366219;0.3775378;0;
17744.68;12155.41;-1173.144;16881.39;-5.42241;10.85264;15489.75;7242.06;-0.421143;0.117289;0;
24360.61;14734.19;-135.0953;23515.11;-11.17774;6.554949;19619.65;10349.14;-0.6805892;-0.2076655;0;
20825.1;12612.25;1917.165;20091.4;-19.60562;5.677585;16746.2;8357.439;-0.2901013;-0.0775222;0;
23930.81;14791.29;4254.5;23074.95;-6.525106;5.269982;19439.37;10482.8;-0.2898098;0.0524904;0;
18506.06;11667.3;5113.792;18065.1;-1.092567;2.987389;15240.2;7084.686;-0.09461659;-0.1424644;0;
-12933.68;-8752.973;4637.765;-12057.06;2.257434;5.864532;-11072.44;-6575.445;0.3602499;0.1825155;0;
-29222.93;-18689.43;3445.061;-28285.68;8.952971;5.054844;-24518.47;-12353.35;0.4898226;0.05239741;0;
-19597.5;-10454.86;1401.328;-19151.67;7.33736;9.604604;-15581.1;-7153.422;0.6192651;-0.2075246;0;
-26388.67;-16174.53;-827.0541;-25536.4;12.55392;13.81476;-21865.98;-9406.661;0.2288388;-0.1423488;0;
-13169.44;-8160.24;-1652.854;-13052.58;1.89139;11.12156;-10312.3;-5928.312;-0.1611952;-0.3371077;0;
18734.2;12599.93;-1114.245;17868.53;-6.684326;13.11987;16334.93;7468.352;-0.2260006;-0.01193231;0;
24345.97;14788.15;-78.8013;23506.81;-2.591772;7.480243;19605.62;10506.08;-0.1608061;0.05304703;0;
20839.27;12630.43;1977.416;20107.87;-7.143519;1.913266;16767.21;8341.483;0.4240615;-0.466745;0;
23710.4;14555.36;4321.719;22860.01;0.4994685;5.930197;19218.9;10261.76;0.4886028;-0.4013087;0;
18563.1;11721.28;5156.97;18101.9;8.335848;4.249787;15254.92;7137.355;-0.09659427;-0.1410361;0;
-12821.83;-8668.396;4630.113;-11952.83;-0.8495559;7.996439;-11026.6;-6489.064;0.03343747;-0.2058617;0;
-29248.51;-18716.88;3413.804;-28296.58;-4.66612;13.14597;-24545.89;-12370.07;0.09837122;0.05421452;0;
-19497.26;-10433.23;1359.654;-19051.42;-0.1734523;4.626049;-15472.45;-7188.223;-0.2915317;0.1840947;0;
-26343.13;-16169.86;-893.3768;-25498.01;-0.7764905;0.5355635;-21833.72;-9413.425;-0.09633672;-0.140927;0;
-13045.3;-8132.282;-1733.416;-12949.8;2.841612;1.204855;-10309.27;-5878.066;0.2935641;-0.2707201;0;
18919.58;12658.51;-1205.782;18034.12;6.187659;-1.140637;16387.05;7514.33;0.2283018;-0.1405133;0;
24295.64;14749.03;-170.9183;23459.24;1.961883;1.070824;19562.78;10456.7;0.09813773;0.1844646;0;
20772.33;12572.68;1897.245;20038.72;1.691492;3.481134;16712.5;8300.509;-0.0968629;0.05434453;0;
23727.16;14555.22;4233.867;22874.84;-3.802564;-0.7421666;19223.71;10234.29;-0.2916676;-0.1406121;0;
18233.56;11478.98;5059.164;17793.52;-9.559519;-4.023584;14969.17;6951.429;0.2283642;-0.3353729;0;
-13304.36;-9053.133;4543.041;-12430.67;-8.142418;1.472937;-11470.22;-6760.526;0.6179388;-0.3350359;0;
-29479.71;-18883.48;3327.022;-28554.99;-10.67983;4.954447;-24782.42;-12437.58;0.2275138;0.1200722;0;
-20219.79;-11043.33;1260.591;-19801.22;-8.860439;3.408983;-16197.1;-7369.53;0.1623179;0.05498419;0;
-27313.17;-17090.36;-976.4891;-26497.77;-4.564629;4.745095;-22783.65;-9930.381;0.2920895;-0.2049404;0;
-13245.5;-8348.244;-1791.16;-13162.9;-13.26758;3.668722;-10458.89;-6111.52;-0.2929101;-0.3996365;0;
19005.18;12763.02;-1256.707;18126.37;-18.68023;2.124428;16520.91;7603.761;-0.3575831;-0.2693003;0;
24285.46;14738.15;-224.6651;23442.93;-13.43655;4.667523;19550.09;10469.82;-0.2272891;0.3156764;0;
20802.34;12600.69;1840.335;20064.45;-14.02626;4.796799;16736.46;8296.681;0.09777595;0.2503918;0;
23715.35;14554.77;4188.321;22860.26;-6.844871;5.662757;19219.78;10270.72;0.4874817;-0.2046311;0;
18432.48;11639.92;5027.126;17975.69;2.003266;6.795777;15160.42;7044.16;0.2271226;-0.5292622;0;
