Fp1;Fp2;O1;O2;POLY3;POLY4;A1;A2;Video;Audio;event;
18392.23;13155.68;20.50532;22773.38;-2.875539;1.342582;19662.78;10631.94;0.05366302;0.1716437;0;13:16:38 Глаза открыты;
6646.988;4327.302;336.8726;8569.99;1.414258;10.65162;6934.394;2481.879;0.5083805;0.2364386;0;
-19021.24;-14045.72;379.0127;-21688.17;6.034537;13.78899;-20135.38;-11063.1;-0.01186906;0.04129899;0;
-19760.42;-13333.92;21.03038;-24392.8;10.65017;13.9091;-21037.48;-10438.03;-0.4666285;0.1711922;0;
-17454.44;-11421.39;1.409724;-21729.85;15.93076;16.30651;-18597.04;-8489.97;0.1835138;0.2359875;0;
-22739;-16469.92;-22.01742;-27150.39;5.264831;19.57217;-23822.65;-11903.78;-0.1415073;0.170783;0;
579.1566;84.60226;-297.4193;-948.3754;3.116087;21.29406;571.0949;-757.3237;-0.4662019;0.2355788;0;
18438.13;13131.41;-298.9946;21985.69;12.6238;23.88487;19644.06;10209.22;-0.01096203;0.1703747;0;
16100.44;11212.77;-63.81219;20556.13;13.4154;25.40148;17360.96;9024.242;-0.2708204;-0.0246985;0;
16119.03;11460.67;-5.605426;20067.87;11.05739;20.48632;17254.03;9127.977;-0.400483;-0.1546084;0;
18447.65;13193;-12.54943;22840.46;11.44843;18.52336;19717.94;10651.88;-0.01027649;-0.08948567;0;
6508.45;4198.832;290.389;8418.856;9.494539;19.10747;6786.199;2383.982;0.3145705;-0.08939575;0;
-18605.23;-13606.69;363.6384;-21306.29;7.877409;16.47606;-19723.99;-10632.15;0.2492871;-0.2192406;0;
-18907.32;-12678.4;39.061;-23556.02;16.10754;15.52174;-20182;-9867.193;-0.07580007;-0.2839877;0;
-16865.09;-11003.67;30.58849;-21167.46;18.90537;13.16186;-18029.52;-8141.547;-0.1406913;0.1710691;0;
-21824.45;-15689.33;26.54415;-26246.29;8.972412;10.5363;-22893.27;-11413.98;-0.2704846;0.2358645;0;
1460.504;699.8632;-254.5288;-5.637945;7.825297;9.989855;1524.201;-420.5187;-0.4001475;-0.02424183;0;
18609.13;13236.75;-278.6982;22180.15;11.16634;0.5354673;19838.12;10342.2;-0.009941342;-0.08918481;0;
16167.79;11321.62;-43.34885;20599.24;10.61925;-1.742491;17419.05;9146.776;0.3798727;-0.02412786;0;
16164.34;11478.46;9.636847;20104.38;13.35427;-0.2001322;17304.28;9127.527;0.1196216;0.3007331;0;
18476.43;13239.55;5.066955;22853.05;13.67662;-2.142314;19744.71;10723.3;0.4443381;0.2354636;0;
6683.827;4343.165;321.4497;8578.501;13.7966;11.79192;6972.089;2497.404;0.5738264;-0.1545771;0;
-18596.42;-13675.89;384.8291;-21331.09;13.71539;16.40177;-19705.28;-10718.39;-0.0114563;-0.02448707;0;
-18995.37;-12773.1;30.79203;-23697.97;13.09937;12.29946;-20274.77;-9997.004;-0.1413795;0.04050488;0;
-17149.76;-11266.28;-18.82336;-21478.7;12.88514;15.10026;-18296.67;-8416.123;0.1835993;-0.2843725;0;
-22561.1;-16344.76;-48.91431;-27005.22;10.59502;11.80304;-23636.32;-11837.04;0.1834148;-0.2840868;0;
912.5969;310.4857;-324.4922;-565.9854;11.5214;11.12136;929.2469;-587.3541;-0.3365082;-0.02393197;0;
18467.76;13129.75;-335.9572;22056.53;0.6588326;13.72239;19685.9;10210.36;-0.2062354;0.04105942;0;
16006.2;11144.06;-81.93459;20428.23;-4.097251;12.637;17261.16;8957.268;0.05384118;0.2359202;0;
16012.21;11335.28;-1.814366;19949.67;11.7817;13.09318;17151.72;9003.724;-0.141115;0.3006505;0;
18154.79;12905.33;8.494776;22525.04;12.77424;12.14227;19419.74;10358.94;0.1188962;-0.5442271;0;
5981.923;3837.363;307.7264;7801.951;16.98096;8.847901;6235.049;2069.119;-0.3359946;-0.4787129;0;
-19124.27;-13972.93;355.8616;-21898.56;22.32253;7.231543;-20255.89;-10909.66;-0.335657;0.1714416;0;
-19133.85;-12893.04;33.7127;-23820.47;3.612231;3.473232;-20412.24;-10078.25;0.574223;-0.02363274;0;
-17235.68;-11338.08;9.659647;-21543.99;0.1933261;0.8575299;-18372.84;-8420.651;0.05390731;-0.2834783;0;
-22508.87;-16266.31;-28.03424;-26968.87;6.421446;1.794429;-23573.24;-11788.98;-0.5308529;-0.02332416;0;
963.3798;350.0491;-298.948;-603.3568;2.999719;1.390729;965.6234;-638.6053;-0.1405155;0.301536;0;
18347.41;13007.87;-303.2703;21892.85;12.77597;-3.902198;19553.84;10100.61;-0.2053416;0.2362657;0;
15844.3;10978.06;-50.7486;20284.94;14.57179;-5.773799;17099.76;8791.564;-0.2051353;0.2360283;0;
15794.61;11116.86;11.13069;19730.56;6.384501;-0.2085367;16925.84;8775.359;0.1199075;0.1708238;0;
18208.63;12957.26;-8.089589;22567.72;6.981298;0.5284851;19470.74;10422.19;0.1847544;-0.08921725;0;
6035.633;3900.769;306.8384;7859.853;-2.402839;1.80063;6290.085;2098.463;-0.140268;-0.02416027;0;
-19466.2;-14322.8;366.0782;-22237.19;-5.280813;3.808187;-20606.03;-11307.14;-0.3999964;-0.08910333;0;
-19102.96;-12929.81;16.40162;-23829.13;1.556996;-2.491791;-20398.31;-10231.52;-0.2046925;-0.2189485;0;
-16913.7;-11069.18;-8.899029;-21263.1;2.358739;-4.833691;-18081.36;-8322.381;0.1203499;0.1710756;0;
-22532.11;-16278.61;-52.66496;-26995.4;6.643277;3.811721;-23620.9;-11821.51;0.05526166;0.235871;0;
919.925;326.6438;-338.4684;-643.9179;10.18657;4.47772;924.823;-588.6424;-0.07472855;-0.02423536;0;
18425.17;13085.26;-334.2552;21967.77;7.229578;0.320401;19634.54;10165;-0.1396208;0.170691;0;
15965.32;11096.08;-78.3603;20399.52;5.413653;1.056891;17215.61;8904.709;0.05542152;0.3004542;0;
16015.65;11337.94;0.147762;19948.02;25.8374;-7.718752;17147.66;9004.675;0.1853005;-0.1546191;0;
18223.61;12974.77;6.769285;22590.45;31.90701;-10.05534;19481.02;10406.32;0.2500817;-0.6742024;0;
5809.33;3662.762;308.8919;7621.843;11.10999;-5.289568;6053.243;1959.171;0.3797651;-0.3486883;0;
-19402.18;-14302.61;345.3755;-22202.14;8.75528;-5.150287;-20546.24;-11172.35;0.1844814;0.1714008;0;
-19270.49;-13075.05;-2.859172;-23957.06;2.316121;1.084179;-20558.4;-10187.15;-0.07557329;0.1062612;0;
-17695.35;-11804.95;-9.290565;-21998.43;-3.915497;4.432114;-18843.93;-8680.353;0.05443733;-0.2836496;0;
-22643.23;-16540.61;-16.02784;-27105.27;3.188384;3.95878;-23724.75;-12045.95;-0.07555205;-0.2183973;0;
1333.592;567.1237;-285.7512;-156.1097;1.643963;5.562393;1331.618;-515.5889;-0.4652802;-0.08824313;0;
18386.49;13043.17;-296.5834;21998.85;0.3031403;12.45592;19595.96;10154.71;-0.5947474;-0.02318712;0;
15861.92;11010.33;-48.89415;20293;0.5039064;15.65847;17113.63;8817.482;-0.2043457;0.1067709;0;
15967.01;11274.57;18.21502;19917.41;-1.10419;11.08802;17098.92;8935.215;0.1206963;-0.1532058;0;
18247.16;13007.35;7.623905;22613.53;-1.17043;11.7467;19506.66;10462.51;0.3804444;-0.3479539;0;
5779.675;3734.854;308.8711;7566.283;1.376342;8.586702;6016.907;1981.538;0.6399315;0.04219981;0;
-19867.2;-14651.49;348.8373;-22642.08;2.647757;6.568708;-21010.87;-11534.94;0.1195498;-0.08777728;0;
-19299.99;-13077.42;-9.973615;-23970.18;-1.641812;11.51872;-20580.78;-10372.54;-0.01050502;-0.2176238;0;
-16806.58;-10889.83;-12.91523;-21118.2;-3.448823;11.37318;-17976.75;-8173.904;0.3143422;0.1074316;0;
-21977.46;-15816.84;2.027738;-26359.76;1.980626;12.43348;-23057.17;-11502.7;0.05415702;-0.2824804;0;
1410.722;672.3785;-271.0714;21.07461;1.710216;13.96147;1456.043;-390.9878;-0.2707341;-0.7369679;0;
18483.52;13124.97;-300.5028;22105.45;0.5030488;6.914482;19709.06;10220.71;0.05437464;-0.281456;0;
16001.9;11144.38;-54.48066;20433.09;1.30585;4.630115;17248.06;8963.928;-0.01064734;0.1086308;0;
16100.16;11412.62;18.70919;20057.5;-10.28241;11.12268;17236.29;9074.751;-0.3354734;0.2384564;0;
18255.06;13003.66;9.929173;22629.82;-14.09047;10.77659;19512.21;10452.67;-0.2052016;0.3681515;0;
5752.869;3708.092;311.8456;7577.733;-7.243811;9.560073;5991.046;1971.519;0.1198413;0.0429448;0;
-19303.34;-14100.12;360.6482;-22086.01;-6.90174;8.813655;-20447.02;-11030.88;0.05475356;-0.08703303;0;
-18964.77;-12767.84;22.15886;-23662.18;-5.555634;4.317064;-20253.73;-9979.366;0.1846332;0.2378911;0;
-17437.76;-11544.83;2.662003;-21760.8;-2.1338;1.700514;-18600.25;-8546.117;0.1844477;0.5624888;0;
-22374.85;-16261.95;-32.13568;-26839.5;-9.365325;0.8950102;-23464.35;-11825.46;-0.4004437;0.3020543;0;
1484.007;717.2231;-302.6549;14.23496;-11.76779;-0.1106331;1487.398;-353.3336;-0.2051393;-0.3479227;0;
18413.87;13066.33;-300.8828;22029.23;8.740569;-8.61711;19625.52;10173.34;0.3797729;-0.2176384;0;
15941.77;11093.54;-48.03551;20356.35;13.01869;-11.48866;17191.59;8901.393;-0.0753801;-0.08748503;0;
16021.86;11316.07;22.14937;19964.18;7.312186;-7.994123;17156.23;8985.151;-0.2702064;-0.3472665;0;
18225.53;13000.16;22.86112;22579.95;8.978802;-8.120056;19480.72;10431.22;0.05490183;-0.0870482;0;
5495.829;3448.099;352.5318;7238.021;-0.07254979;-4.896777;5721.337;1822.217;-0.2050227;-0.02199339;0;
-20346;-15149.47;387.3786;-23181.06;-2.081233;-3.217283;-21499.19;-11837.37;-0.3347514;0.04299606;0;
-19844.43;-13422;1.152087;-24522.72;-6.83554;1.072735;-21124.87;-10644.53;-0.07454565;0.04295285;0;
-17980.43;-11896.2;-32.91008;-22265.89;-9.976503;4.219733;-19117.98;-8994.343;0.1204313;-0.4118617;0;
-23474.31;-17195.06;-78.65087;-27890.46;-6.282784;2.942939;-24530.95;-12574.83;-0.009624419;-0.3464805;0;
741.928;249.5686;-350.7163;-704.5548;-7.280849;4.614433;774.7873;-636.6409;-0.2694841;-0.086263;0;
18394.9;13070.56;-323.5336;22004.82;2.170939;3.939967;19615.05;10161.06;-0.07431131;-0.08617633;0;
15773.4;10892.16;-80.70544;20188.54;6.187245;3.601094;17015.7;8694.938;-0.2691387;-0.02112239;0;
15958.96;11274.2;-20.46709;19909.97;2.631055;5.53998;17095.99;8952.13;-0.5937049;0.1088335;0;
18174.74;12927.55;5.712204;22522.51;3.767487;5.333465;19424.96;10342.1;-0.2033043;0.1087242;0;
5156.548;3281.295;319.8142;6858.714;6.174599;4.256379;5360.741;1658.758;0.1217367;0.04364757;0;
-20083.25;-14729.06;337.4994;-22955.93;5.967324;3.113392;-21246.21;-11508.09;0.1865817;-0.08633097;0;
-19695.08;-13192.73;-20.37873;-24370.77;8.975438;4.181991;-20979.78;-10328.56;0.3163289;0.04369046;0;
-18506.74;-12299.65;-44.11193;-22786.72;11.78043;4.512703;-19651.56;-9110.855;0.2510437;0.3684833;0;
-23046.08;-16909.75;-87.49891;-27492.87;-5.379033;-1.654139;-24115.22;-12398.51;-0.2689473;-0.02169104;0;
1491.642;783.2026;-352.8713;35.8418;-9.258394;-3.192962;1503.115;-348.5742;-0.6584811;-0.4114733;0;
18476.2;13161.21;-325.4835;22102.28;1.33348;-1.381336;19687.11;10276.95;-0.07311338;0.1086789;0;
16054.95;11173.82;-61.22657;20469.52;2.136423;-2.183622;17297.53;8975.102;0.4466988;0.2385044;0;
16222.55;11536.05;14.71869;20167.64;5.885321;0.6317337;17353.63;9194.016;0.3163153;-0.08657198;0;
18336.86;13085.69;34.24095;22697.76;7.688068;0.8320476;19586.83;10530.3;0.2510301;-0.2164197;0;
5519.847;3553.353;351.3909;7292.689;15.31615;4.515151;5734.503;1841.148;-0.009091496;-0.0213002;0;
-19988.38;-14724.88;371.8398;-22794.41;18.85074;7.256914;-21144.38;-11573.44;-0.2689517;0.4334926;0;
-19289.31;-13020.3;-0.7217184;-23997.01;19.50138;-0.9891562;-20582.65;-10275.98;-0.1387468;0.3680897;0;
-17563.71;-11578.3;-14.0268;-21896.09;24.23721;-1.992906;-18728.97;-8644.639;0.121262;-0.1520189;0;
-22970;-16714;-30.9417;-27391.34;4.855397;0.8893623;-24062.29;-12113.89;0.2510748;-0.08689882;0;
1049.874;484.0336;-315.9861;-370.0297;-1.847287;0.2856223;1046.062;-398.2739;0.1208879;0.3679599;0;
18484.93;13148.48;-315.4655;22112.84;15.30122;3.902292;19696.03;10241.58;0.3156684;0.5624922;0;
15944.44;11081.27;-62.86912;20358.08;13.41082;5.03708;17188.16;8877.934;0.7051553;0.172123;0;
16096.75;11389.6;-5.787732;20048.21;14.46907;4.764087;17233.17;9069.146;0.5095447;-0.1528867;0;
18344.35;13114.22;11.27201;22690.54;14.45453;6.165942;19591.61;10520.63;0.1192287;0.3020383;0;
5145.461;3269.561;328.648;6828.64;4.794462;3.346463;5332.443;1685.477;0.1840762;0.3017348;0;
-20600.91;-15228.74;347.7299;-23475.87;3.785267;2.941203;-21762.05;-11942.37;0.05395656;-0.2183071;0;
-20335.79;-13640.43;-7.550453;-24997.99;-10.95429;5.751531;-21609.23;-10715.38;-0.205967;0.106749;0;
-19228.91;-12915.6;-36.18472;-23489.74;-15.96713;5.544803;-20370.19;-9609.418;0.184044;0.2365764;0;
-24158.59;-17852.7;-90.82401;-28609.13;-11.66418;7.079839;-25231.46;-13153.85;0.1188917;-0.4133347;0;
659.0342;307.2639;-366.1568;-871.0449;-13.93061;7.005742;646.2116;-691.9542;-0.2060645;-0.4778868;0;
18252.5;12989.22;-353.2795;21839.7;-0.9221665;4.989215;19455.51;10097.02;0.05401196;-0.2825046;0;
15865.02;10952.75;-85.44964;20285.51;3.500366;3.912475;17111.32;8748.049;0.1838924;-0.08731868;0;
16096.97;11417.85;5.168837;20036.68;3.228429;2.769956;17231.7;9080.868;-0.07616176;-0.0222636;0;
18254.41;13003.81;15.47096;22586.92;6.239295;2.432258;19497.52;10430.26;-0.0111179;-0.2821106;0;
4937.061;3172.566;324.878;6568.486;9.380857;-4.067409;5104.401;1518.086;0.118828;-0.1518925;0;
-20811.24;-15377.75;349.6483;-23748.35;11.98438;-6.07281;-21993.94;-12168.25;-0.2061282;0.0431622;0;
-20249.05;-13702.85;-9.319613;-24948.67;6.010487;-4.994981;-21522.47;-10747.54;-0.4008231;0.1080862;0;
-19203.62;-12934.2;-26.77022;-23501.48;5.737004;-6.731457;-20336.16;-9573.28;0.2492531;-0.02195712;0;
-24400.56;-18106.41;-85.49504;-28861.63;-1.503406;1.17911;-25481.46;-13208.05;0.4439047;-0.4117391;0;
601.2347;145.0109;-378.7773;-898.5952;-6.32369;3.38824;573.5432;-622.0493;-0.07628009;-0.4762927;0;
18356.17;13059.06;-348.1463;21953.38;6.207618;-0.03117229;19556.63;10155.27;-0.0112361;-0.5407815;0;
15842.8;10944.76;-71.62278;20253.65;7.87632;0.7726542;17089.68;8717.625;0.05374253;-0.2154014;0;
16108.81;11418.11;-12.61169;20047.55;0.968554;-0.2998491;17237.34;9102.59;-0.5310175;0.2395864;0;
18296.77;13044.55;-1.620163;22631.85;1.303349;-0.03161605;19541.32;10431.4;-0.335582;0.2393457;0;
4669.663;2997.13;344.1452;6334.991;1.03362;-2.71078;4851.705;1438.445;0.4443634;0.1091705;0;
-20993.9;-15433.04;378.3914;-23903.32;0.564067;-3.779783;-22171.89;-12124.04;0.3139822;-0.1508086;0;
-20323.36;-13724.42;1.20055;-25013.61;5.519993;-0.9628236;-21607.01;-10738.41;0.4436014;-0.150657;0;
-19371.1;-13083.14;-27.44251;-23664.79;7.524179;-1.162805;-20520.81;-9628.188;0.5730903;-0.215473;0;
-23951.63;-17733.54;-71.76764;-28400.64;1.889564;1.249749;-25020.56;-12992.08;-0.07715895;-0.3451912;0;
1147.485;576.8756;-349.3997;-274.5209;0.2137021;1.85134;1162.851;-435.7097;-0.1420488;-0.0200076;0;
18355.99;13064.69;-329.4491;22003.95;8.586232;1.313616;19566.76;10176.05;0.1179633;-0.2148895;0;
15953.08;11044.54;-64.18872;20354.7;9.849426;1.647211;17191.42;8823.844;0.1178448;-0.2146736;0;
16334.99;11649.42;14.10208;20276.56;4.950385;-0.5648812;17463.79;9314.789;0.2476611;0.3052809;0;
18513.28;13259.55;25.98818;22858.43;4.878062;-0.9662112;19755.22;10662.68;0.1174775;0.04510473;0;
5194.991;3306.411;322.6723;6875.651;-0.350776;-3.443487;5377.24;1696.019;-0.01257518;-0.21481;0;
-20234.93;-14922.19;341.1511;-23146.67;-2.82867;-4.310805;-21415.67;-11674.75;0.1823395;-0.08465943;0;
-19422.28;-13096.23;2.681417;-24130.83;-1.419308;-4.90932;-20717.57;-10265.8;0.1171889;-0.01960703;0;
-18452.57;-12388.36;-2.271913;-22768.05;-3.494963;-6.043097;-19626.72;-9182.77;-0.07783086;0.04538001;0;
-23374.56;-17189.19;-47.10647;-27797.17;-0.4773413;-1.616273;-24459.67;-12555.23;-0.01278531;0.04533442;0;
1428.063;783.2725;-329.7764;91.72974;-0.4095127;-1.212751;1453.063;-222.4671;-0.1427072;-0.08464582;0;
18533.39;13193.53;-317.6072;22213.17;-4.763358;-0.4747206;19750.09;10298.64;-0.4024331;-0.01959343;0;
15969.14;11087.53;-70.09986;20359.29;-5.829322;0.06161986;17204.52;8864.539;-0.0122247;0.0453936;0;
16335.7;11642.51;-16.5563;20281.16;-5.556021;-3.287467;17465.46;9306.421;-0.1421471;-0.2145214;0;
18474.81;13213.31;-0.422765;22814.58;-4.947227;-4.35589;19714.84;10612.72;-0.466841;-0.0194038;0;
4934.996;3154.677;322.8527;6584.235;-12.91383;-6.36094;5107.768;1521.59;-0.2065025;0.3054524;0;
-20223.07;-14800.55;345.954;-23172.93;-15.91497;-7.225327;-21419.63;-11618.93;-0.07636035;0.3701128;0;
-19161.99;-12887.85;-6.435425;-23874.81;-5.783944;-11.97373;-20464.32;-10067.01;-0.01131629;0.2398063;0;
-18127.09;-12061.67;-17.54837;-22452.54;-4.640033;-13.7032;-19304.01;-8859.607;-0.2711743;-0.02030407;0;
-22447.87;-16414.31;-54.4653;-26926.01;-5.707097;-12.88569;-23558.15;-11985.69;-0.5957385;0.109651;0;
2217.926;1262.216;-328.2885;851.1862;-4.897079;-15.01614;2217.438;69.2506;-0.4002379;-0.08536119;0;
18565.63;13199.17;-313.6534;22255.99;-5.36165;-5.422736;19779.79;10321.95;-0.269901;-0.2801774;0;
15973.7;11111.29;-69.22652;20367.21;-4.485606;-3.407799;17208.52;8894.181;-0.1396952;-0.2149286;0;
16370.31;11661.48;-24.78864;20309.34;-10.17453;-7.289324;17497.73;9314.263;0.05534723;-0.1497453;0;
18472.35;13220.63;-19.001;22814.62;-11.57082;-5.808436;19715.06;10635.95;-0.07464307;0.3701439;0;
5347.951;3368.497;304.418;7017.763;-8.678807;-14.77807;5518.579;1704.032;0.1853013;0.3048047;0;
-19534.21;-14334.52;343.2643;-22464.39;-8.602738;-16.83963;-20733.54;-11177.46;0.3150498;0.1095964;0;
-18619.99;-12496.72;1.98143;-23319.97;-9.93424;-15.81803;-19930.89;-9771.816;-0.01010348;0.1744536;0;
-17722.61;-11777.19;-5.657348;-22040.46;-11.26343;-17.67759;-18935.63;-8769.996;-0.140028;0.1742783;0;
-22296.65;-16254.98;-29.73331;-26733.77;-3.549929;-11.69847;-23430;-11879.16;-0.464724;0.2390705;0;
2145.679;1222.172;-302.5975;855.1317;-2.339937;-10.4141;2156.505;77.22139;-0.5941917;-0.08600641;0;
18645.84;13281.96;-304.8391;22353.43;-1.869071;-9.599843;19860.92;10389.24;-0.3337253;0.0440147;0;
16070.76;11204.17;-54.72082;20453.84;2.553437;-7.848701;17299.9;8977.694;-0.138488;0.4337745;0;
16431.86;11733.33;15.33023;20372.72;-16.60552;-8.510583;17553.72;9387.838;-0.07338148;0.1085019;0;
18591.24;13330.88;34.7738;22931.41;-20.67467;-7.698298;19823.42;10721.06;0.1215943;-0.1514764;0;
5350.238;3400.41;353.0632;7017.809;-6.252929;-8.293408;5508.156;1741.481;0.3163741;0.04357779;0;
-19111.56;-13943.18;372.5266;-22087.35;-5.577061;-8.418981;-20347.62;-10856.17;0.2510889;0.238436;0;
-17650.38;-11830.66;23.98357;-22412.98;0.9926264;-9.214316;-19016.22;-9302.289;0.3807713;0.1082618;0;
-16636.51;-10870.91;27.36401;-21034.67;3.135083;-10.14282;-17908.07;-8063.498;0.5752907;-0.08674904;0;
-20887.91;-15010.87;1.443277;-25367.46;11.43733;-8.39107;-22047.06;-10933.51;0.1849086;-0.1516292;0;
3164.717;1899.988;-281.416;1955.355;17.72248;-8.047786;3199.519;525.6425;-0.529918;-0.02154218;0;
18797.46;13375.97;-281.8672;22549.32;-1.049577;-9.714211;20018.19;10492.95;-0.009646763;0.2383488;0;
16165.43;11339.04;-44.15648;20517.03;-3.92891;-9.436519;17376.37;9111.905;0.769971;0.3030767;0;
16568.21;11854.76;-9.395185;20505.18;0.8978086;-10.9006;17684.57;9483.465;0.1844913;-0.1519992;0;
18564.37;13299.55;1.124597;22888.15;-1.447618;-11.55948;19787.83;10691.73;-0.2704655;-0.6715852;0;
5198.671;3251.874;341.265;6809.094;4.582056;-7.462025;5333.465;1573.065;-0.3351611;-0.4110411;0;
-19154.74;-13976.06;369.5639;-22220.18;6.386113;-7.186595;-20429.76;-10926.91;-0.2048896;-0.020824;0;
-17362.37;-11741.14;13.3246;-22214.92;1.355855;-5.102964;-18772.13;-9251.294;-0.07474905;-0.08577042;0;
-16242.68;-10660.81;15.3883;-20720.23;1.22077;-3.892144;-17562.28;-7925.628;-0.3995107;0.04425045;0;
-20440.55;-14659.07;-0.6972118;-25009.76;6.042315;-7.438268;-21671.02;-10688.88;-0.3341419;-0.0857287;0;
3470.027;2069.96;-283.6793;2217.544;6.705829;-7.363811;3446.388;661.7372;-0.3987735;-0.3455119;0;
18765.41;13332.45;-291.6245;22515.6;8.239332;-10.43757;19971.84;10449.06;-0.2034708;-0.1502627;0;
16043.53;11244.85;-49.23438;20372.52;8.900639;-11.09685;17244.05;9000.392;0.1215704;0.04479028;0;
16450.38;11707.78;-10.09518;20361.75;5.006929;-11.21966;17550.64;9327.46;-0.2683558;0.4345493;0;
18470.83;13236.3;0.4096857;22772.3;3.662728;-12.48106;19681.3;10615.06;-0.2031188;0.2392107;0;
5068.26;3212.724;331.7271;6629.274;1.515593;-3.827908;5168.371;1537.999;0.3817914;-0.4107031;0;
-19414.76;-14175.45;355.0694;-22557.61;-0.02617091;-1.0109;-20748.81;-11125.49;0.3164404;-0.02048639;0;
-17680.87;-11929.08;20.20888;-22622.34;-2.438018;-3.555114;-19154.91;-9464.301;-0.07368162;0.1744362;0;
-16699.63;-10966.01;23.32762;-21270.51;-3.306225;-1.609159;-18075.82;-8229.438;-0.333477;-0.1505758;0;
-20940.52;-15122.54;-16.44147;-25601.04;-4.910493;-3.750874;-22212.24;-11090.04;0.05666217;-0.1504245;0;
3262.986;1883.257;-297.6117;1946.176;-5.575144;-4.282968;3216.368;533.5165;0.1865399;-0.280208;0;
18756.17;13326.33;-293.2991;22485.33;-2.42171;0.2090698;19952.04;10426.79;-0.00854954;-0.1499918;0;
16042.46;11237.2;-46.67507;20361.56;-3.222584;0.6107573;17232.77;8981.236;0.3812631;0.3049304;0;
16529.18;11792.42;6.704399;20437.07;5.621913;-1.131413;17620.9;9411.679;0.575782;0.3695913;0;
18537.41;13295.69;28.84278;22826.32;7.759718;-2.000932;19736.95;10652.5;0.05546475;0.04438322;0;
4890.901;3008.071;338.5019;6397.774;3.465013;-1.731112;4950.074;1359.055;0.3802457;0.304208;0;
-19806.29;-14525.64;324.7154;-22981.86;4.800702;-2.39908;-21196.84;-11506.34;0.444831;0.3688697;0;
-18188.07;-12243.31;-20.64058;-23121.84;-10.47574;-6.013686;-19696.8;-9718.379;-0.140322;0.04366231;0;
-17183.89;-11323.17;-3.081781;-21739.13;-16.35971;-7.682217;-18585.41;-8360.135;-0.01024637;0.4334225;0;
-21045.46;-15168.18;-36.81173;-25698.76;-11.45316;-9.683925;-22342.81;-11157.45;-0.07520342;0.3680196;0;
3354.62;2074.622;-314.6039;2015.724;-15.7959;-11.34871;3295.186;595.0474;-0.5298992;0.04281314;0;
18731.16;13308.59;-295.2816;22445.74;-9.416044;-11.47127;19922.06;10429.87;-0.3994321;0.3676068;0;
16021.91;11206.16;-49.20224;20345.03;-8.134761;-12.12957;17206.24;8942.378;-0.3340634;0.3022701;0;
16476.21;11746.56;-15.02933;20375.31;-16.5657;-10.24192;17563.19;9351.947;-0.07385839;0.1720317;0;
18498.24;13256.04;0.1031694;22789.52;-15.20989;-8.490076;19695.37;10624.11;0.2510525;0.4966956;0;
4886.255;3096.648;327.4698;6409.514;-26.78156;-11.76365;4941.295;1403.642;0.4457023;0.3012945;0;
-19832.01;-14502.51;334.6213;-23008.74;-31.51104;-11.41691;-21231;-11519.01;0.5102218;-0.1537797;0;
-18083.56;-12199.81;-9.994966;-23016.54;-11.92085;-7.118656;-19599.98;-9734.638;0.1199051;-0.4134945;0;
-17078.03;-11253.53;-4.690708;-21641.97;-9.095835;-6.977537;-18495.19;-8432.85;-0.2050521;-0.218177;0;
-21084.37;-15258.41;-39.88705;-25744.27;-9.220417;0.7323285;-22414.44;-11272.96;-0.2698134;0.1718463;0;
3351.252;2014.919;-313.397;2056.572;-6.129694;3.477771;3268.843;605.2464;-0.204575;0.3016083;0;
18751.11;13331.27;-315.5027;22496.25;-9.338716;-4.094551;19939.62;10438.9;0.1204673;0.3013052;0;
15964.13;11154.46;-91.20454;20286.09;-7.386949;-5.497078;17147.16;8882.826;0.1853136;-0.02383425;0;
16488.08;11754.6;-41.26296;20398.18;-18.63266;-5.960374;17572.35;9366.669;0.05519271;-0.153745;0;
18400.72;13167.17;-8.175608;22696.88;-24.03894;-7.294044;19594.26;10517.17;-0.07479743;-0.02365582;0;
4707.384;2923.439;315.4512;6198.73;-8.67582;-15.2575;4741.763;1256.288;-0.204657;-0.1535667;0;
-19472.85;-14154.48;324.364;-22702.26;-7.730073;-19.59594;-20894.8;-11204.84;0.05541805;-0.08844509;0;
-17728.18;-11776.18;-7.670229;-22687.67;-12.61145;-14.28472;-19253.41;-9393.857;-0.009604978;-0.08835622;0;
-17072.91;-11131.98;8.329439;-21669.55;-11.46068;-15.61002;-18501.76;-8331.542;-0.334432;-0.1532348;0;
-20600.94;-14858.54;-17.30667;-25246.4;-19.35242;-13.24994;-21898.07;-11003.7;0.05570805;0.1717559;0;
3847.185;2346.003;-285.8886;2662.197;-20.94056;-10.35648;3836.395;797.2138;-0.0742826;0.2365507;0;
18781.36;13349.24;-279.2452;22573.7;-17.90541;-23.40738;19987.09;10472;-0.3990447;0.1063783;0;
16041.1;11234.73;-40.00661;20340.63;-18.42328;-25.99613;17213.88;8967.996;0.121095;0.1712388;0;
16553.88;11822.6;9.821068;20466.48;-11.10375;-16.59264;17641.94;9430.795;0.250908;-0.02383534;0;
18530.07;13284.48;39.18706;22814.75;-7.408901;-16.97787;19722.2;10639.91;-0.009213452;-0.3486481;0;
4953.296;3066.452;360.3456;6435.393;-12.62539;-8.856058;4987.999;1418.895;-0.1391389;-0.2833304;0;
-19609.73;-14362.04;341.0555;-22805.69;-12.54633;-5.230203;-21031.77;-11331.97;-0.07403173;0.04179096;0;
-17885.62;-12058.46;-18.76271;-22815.7;-1.347944;-13.93249;-19418.09;-9629.898;-0.07395734;0.1067163;0;
-16809.8;-11000.51;12.97458;-21391.07;2.806597;-13.71754;-18252.19;-8237.792;-0.2687851;-0.0233256;0;
-20467.52;-14683.25;1.982683;-25112.76;-5.568968;-19.12925;-21802.27;-10867.11;-0.1385803;-0.0882695;0;
3821.867;2369.008;-286.7648;2594.047;-6.300307;-22.72705;3767.186;829.3726;-0.2034084;-0.1531481;0;
18917.7;13484.32;-284.4777;22684.4;-1.471205;-13.86265;20116.88;10619.2;-0.398106;-0.1529943;0;
16116.75;11311.04;-30.83479;20432.29;-1.603449;-13.04492;17298.19;9038.019;-0.2677713;-0.0878732;0;
16621.07;11898.24;19.78014;20535.17;-4.080084;-17.58659;17708.95;9507.587;0.05733444;-0.0877849;0;
18602.21;13354.64;36.42377;22896.01;-6.420509;-17.16702;19797.25;10716.36;0.4470809;0.04223799;0;
5009.688;3112.641;348.6833;6504.466;-1.792357;-19.5611;5044.078;1433.033;0.7714683;-0.02277179;0;
-18888.45;-13701.41;353.0181;-22127.82;-0.7188293;-20.47914;-20303.24;-10745.41;0.2509544;-0.08771625;0;
-16815.01;-11212.93;20.48661;-21797.24;-12.5071;-15.97083;-18333.61;-8895.319;-0.2690364;0.04230656;0;
-16216.32;-10580.36;40.7527;-20826.8;-14.57064;-15.4859;-17659.91;-7988.552;0.1210379;-0.08767062;0;
-19926.4;-14249.72;11.72632;-24580.82;-13.14948;-13.59488;-21236.78;-10604.72;0.250851;-0.02261519;0;
4278.497;2651.268;-274.3448;3101.616;-12.80148;-12.17464;4274.839;1040.055;0.1856316;0.4971463;0;
18952.9;13493.08;-265.2455;22758.93;-12.92233;-16.31523;20166.74;10634.81;0.3803471;0.4966467;0;
16166.25;11392.33;-16.97858;20471.54;-12.84298;-17.10263;17345.32;9131.251;0.4449323;0.2362783;0;
16735.02;11986.08;18.83298;20653.86;-0.1704199;-14.7411;17832.06;9601.866;0.05468115;0.1061062;0;
18705.94;13478.44;28.38737;22987.97;3.514423;-14.12344;19903.83;10839.54;-0.3351778;-0.02393507;0;
5221.35;3205.285;349.6192;6694.015;6.390303;-18.79794;5265.755;1568.62;0.054963;0.04105632;0;
-18990.14;-13869.78;371.8972;-22198.77;9.666412;-19.98474;-20385.08;-10861.62;0.3147771;-0.08891961;0;
-17378.04;-11518.98;38.4097;-22317.85;5.302443;-14.53916;-18872.32;-9191.707;-0.01037586;-0.1537976;0;
-17279;-11452.53;28.00132;-21841.2;5.632884;-13.11791;-18671.63;-8652.722;0.0546019;0.236161;0;
-21515.68;-15558.59;-19.0032;-26127.46;-4.353111;-14.51137;-22783.55;-11510.56;-0.07538764;0.04102166;0;
3305.094;2097.86;-297.0943;2093.73;-9.439928;-13.96093;3302.715;684.3862;-0.2052466;-0.2838563;0;
18892.55;13478.5;-287.894;22663.99;-5.209908;-10.19592;20108.1;10603.35;-0.140073;0.04126566;0;
16092.77;11271.64;-50.25529;20407.21;-7.817618;-9.047025;17282.18;9016.507;-0.3998016;-0.08871049;0;
16640.79;11925.05;-28.7156;20554.34;-7.876135;-7.631292;17743.27;9551.735;-0.2694652;-0.2835234;0;
18676.57;13429.47;-13.7099;22968.7;-7.332358;-5.748163;19882.63;10795.29;0.1206096;-0.2832385;0;
5048.813;3104.5;328.46;6540.617;-14.15749;-11.03392;5118.458;1462.05;0.3803578;-0.4778559;0;
-19123.74;-13939.68;337.2972;-22342.78;-15.34872;-11.82663;-20485.27;-10957.96;0.2500409;-0.08757171;0;
-17497.77;-11626.83;7.795655;-22431.87;-7.631111;-7.996776;-18969.39;-9170.871;-0.07504705;0.237353;0;
-17365.98;-11513.84;14.73745;-21896.29;-4.608357;-6.917075;-18719.99;-8533.707;0.05496304;-0.2826242;0;
-21207.73;-15359.19;-49.51069;-25823.29;-9.091705;-7.379005;-22453.06;-11337.55;-0.01005953;-0.3473076;0;
3621.252;2265.69;-312.5787;2384.82;-9.752155;-6.567795;3594.416;794.9249;-0.1399841;0.2377475;0;
18872.41;13448.54;-291.322;22641.55;2.648876;-2.609264;20081.34;10599.99;-0.07487611;0.2375086;0;
16066.49;11255.9;-59.30201;20388.55;5.124461;-0.932191;17269.44;8999.127;0.1201012;-0.02259945;0;
16579.97;11867.25;-3.895248;20502.96;2.507344;1.078234;17685.4;9504.639;0.4448172;0.30226;0;
18587.02;13332.16;14.84925;22883.51;3.710273;2.483792;19800.64;10704.23;0.5743049;0.3669236;0;
4739.978;2892.007;325.0534;6216.48;-5.470483;2.749228;4814.314;1272.351;-0.01097822;0.1066855;0;
-19523.28;-14266.79;323.5243;-22753.3;-7.875884;3.08138;-20867.23;-11188.93;-0.3358039;0.041611;0;
-17019.66;-11468.87;-16.94235;-21957.56;-12.42232;2.408455;-18461.64;-9093.829;-0.2055318;-0.3482349;0;
-16083.57;-10521.52;5.969417;-20654.25;-16.49568;2.406034;-17451.58;-7863.82;-0.1403579;-0.347885;0;
-20070.08;-14268.76;-12.51167;-24604.71;-11.72368;-2.887913;-21284.93;-10543.47;-0.1402169;-0.02269869;0;
4182.388;2743.39;-288.5322;3183.937;-13.38684;-5.296336;4261.841;1150.341;-0.334978;0.1722262;0;
19084.62;13645.2;-297.9406;22951.46;-8.550616;-1.138133;20327.78;10801.19;0.1850973;0.3019878;0;
16243.58;11449.88;-51.79601;20546.64;-7.402948;-1.003023;17433.8;9206.901;0.5747153;0.1717497;0;
16779.79;12053.33;13.50449;20728.55;-11.2139;-2.676589;17896.46;9693.713;-0.2054702;-0.08829229;0;
18668.81;13425.65;36.10455;22958.12;-11.40371;-2.138036;19877;10791.71;-0.5301005;0.1066985;0;
4843.058;2958.025;352.9871;6258.152;-17.15205;-3.609512;4893.194;1372.474;0.1201056;0.3664606;0;
-18869.17;-13687.05;360.3317;-22118.27;-20.34999;-4.208732;-20215.39;-10653.06;0.1849522;0.301125;0;
-16554.77;-10923.51;32.15001;-21435.84;-16.31106;0.8860781;-17977.05;-8751.014;-0.1400703;-0.02401424;0;
-16331.76;-10619.43;32.91418;-20855.76;-14.75345;1.488034;-17689.99;-8056.394;0.2498745;-0.3488268;0;
-19883.52;-14245.34;-30.35273;-24411.67;-24.65259;1.955419;-21058.99;-10553.2;0.4445254;-0.1535743;0;
4655.241;2956.712;-318.2712;3655.087;-23.68981;2.623284;4790.504;1310.216;-0.465464;0.3663188;0;
19066.02;13606.37;-301.6784;22931.08;-15.96285;-2.40295;20317.59;10774.03;-0.5299637;0.1060813;0;
16123.54;11355.42;-53.06256;20425.85;-9.115284;-4.34304;17313.5;9120.751;0.250177;-0.08892731;0;
16741.78;12005.39;-13.79458;20690.33;-9.172498;-4.539625;17866.04;9642.413;0.05502355;-0.02387061;0;
18546.25;13308.72;17.40673;22835.76;-7.623039;-6.07561;19761.68;10682.87;-0.07496642;-0.02384662;0;
4669.577;2803.993;363.3403;6085.128;29.2245;-10.35629;4750.862;1217.98;0.7696843;0.106112;0;
-19010.2;-13759.95;381.5128;-22259.6;38.90705;-12.89118;-20328.71;-10752.07;0.8988456;-0.4787007;0;
-16979.86;-11248.6;48.49979;-21863.11;45.56674;-9.730146;-18386.66;-8869.396;-0.07656763;-0.4782197;0;
-17105.72;-11319.27;54.07323;-21622.66;57.2426;-9.318472;-18433.75;-8323.504;-0.0764907;0.04199958;0;
-20461.19;-14710.47;8.77602;-25022.84;13.44633;-12.18931;-21639.65;-10808.18;0.05352084;-0.1529447;0;
4335.764;2773.498;-278.9788;3261.618;0.7058135;-11.77517;4433.687;1158.713;-0.4013043;-0.08782363;0;
18931.66;13490.78;-274.2788;22776.98;20.66577;-10.3567;20178.35;10677.73;-0.07606439;-0.2176701;0;
16077.13;11292.07;-29.01698;20399.9;16.55917;-9.475572;17274.87;9053.221;-0.01102062;-0.4123534;0;
16643.37;11916.23;3.324054;20591.68;4.552466;-5.447135;17770.51;9569.938;-0.2059116;-0.02213499;0;
18670.32;13433.96;11.22299;22955.47;1.266339;-3.365252;19885.8;10806.1;-0.1407373;0.1727893;0;
4698.339;2859.049;339.4998;6150.062;-1.01211;-1.084451;4770.115;1339.216;0.05430611;0.3675177;0;
-19285.36;-14058.73;350.6061;-22483.88;-2.351239;1.461868;-20594.54;-10916.36;0.5739903;0.04231169;0;
-16930.28;-11331.82;14.40696;-21785.16;4.483626;-1.620694;-18314.17;-8952.608;0.2485768;-0.3475349;0;
-16881.66;-11193.22;32.18042;-21369.53;5.617221;-2.087946;-18186.93;-8251.366;-0.141477;-0.217251;0;
-20459.64;-14717.57;0.1641632;-24945.08;17.93644;1.665074;-21609.29;-10772.23;0.05356718;0.107804;0;
4338.65;2783.068;-284.2243;3375.151;23.47812;0.9935719;4457.381;1206.426;0.1184807;0.2376304;0;
18941.43;13517.2;-277.5201;22827.7;20.172;3.20301;20195.13;10701.89;0.1183616;-0.4122818;0;
16134.85;11336.4;-25.36782;20444.82;24.9745;4.137553;17337.64;9101.002;-0.01169197;-0.1519982;0;
16803.59;12098.02;9.046638;20758.19;9.677786;-4.842134;17930.49;9757.319;-0.07664756;0.4328606;0;
18731.63;13469.83;9.84964;23041.86;5.783295;-7.114689;19955.6;10846.34;-0.0116032;0.04262163;0;
4973.062;2978.467;333.1147;6450.755;16.02526;-6.705642;5066.899;1417.939;0.1183431;0.04257881;0;
-18368.22;-13313.24;346.9604;-21551.92;13.93306;-8.23945;-19668.57;-10287.48;0.1831916;-0.08739866;0;
-15890.02;-10579.98;20.52568;-20709.74;24.50163;-6.489676;-17279.08;-8364.759;-0.2067966;-0.2172455;0;
-16149.54;-10664.04;30.60936;-20614.31;28.09433;-6.34919;-17464.93;-7920.432;-0.01168674;0.04284213;0;
-19716.21;-14043.98;-20.1459;-24158.91;18.89005;-5.003151;-20818.89;-10337.6;-0.1416097;-0.1521029;0;
4927.269;3227.332;-299.7664;4060.906;20.14289;-4.395339;5135.854;1509.464;-0.6612061;-0.02201543;0;
19152.1;13701.79;-280.787;23073.92;11.28139;0.6326755;20426.16;10909.64;-0.2707377;0.1729087;0;
16238.27;11464.99;-26.49195;20544.12;7.251568;4.382962;17430.85;9238.688;-0.140531;0.172735;0;
16854.73;12136.15;21.10451;20826.88;20.4398;-3.65915;17993.53;9792.106;-0.2703244;0.2375288;0;
18746.22;13495.47;36.0133;23053.13;22.29429;-3.722456;19967.75;10889.87;-0.0751508;-0.08754662;0;
5106.123;3069.661;353.2239;6550.141;14.7698;-0.1687424;5189.881;1486.677;0.0548594;-0.152426;0;
-18108.03;-13135.75;374.6237;-21338.29;12.20937;-0.8382801;-19406.52;-10116.72;0.184739;0.1725639;0;
-15638.86;-10303.36;56.71935;-20513.23;24.45559;8.740877;-17016.27;-8233.965;-0.01034869;0.4972272;0;
-15721.8;-10178.25;67.70368;-20246.04;27.77991;11.47827;-17029.13;-7723.99;-0.4001423;0.1069235;0;
-19092.05;-13595.94;37.05727;-23547.42;12.54675;8.184698;-20219.48;-9979.935;-0.07490357;-0.4129226;0;
5166.931;3272.75;-253.9275;4348.903;10.65911;9.984891;5341.619;1611.693;-0.009860963;-0.1526384;0;
19040.54;13578.92;-262.3086;22986.1;6.093075;2.406031;20314.82;10766.83;-0.3996551;-0.02255032;0;
16127.62;11398.46;-23.41498;20415.96;0.5945964;-0.476653;17325.6;9187.176;-0.07441682;0.3672764;0;
16753.29;11989.19;-1.980342;20733.97;12.51672;7.092775;17896.08;9656.595;0.12056;0.6917441;0;
18449.11;13252.44;12.93603;22743.53;12.97363;7.755478;19665.5;10616.92;0.1854062;0.2362776;0;
4082.631;2412.781;332.5124;5474.655;8.338894;1.384428;4150.668;990.4755;0.2501872;0.1061055;0;
-19641.56;-14261.98;318.607;-22860.82;9.133822;-0.8942603;-20917.58;-11043.32;0.05503381;0.04103154;0;
-17384.59;-11581.16;-11.60984;-22172.98;1.890976;5.40279;-18728.57;-9032.896;-0.009988829;0.365827;0;
-17748.98;-11865.5;14.7011;-22175.32;0.3478586;6.06719;-19031.46;-8561.583;-0.1399135;0.6902962;0;
-20523.66;-14880.28;-34.44522;-25031.25;-0.523147;1.640342;-21639.08;-10925.05;-0.1397729;0.2997985;0;
4685.547;3029.445;-319.0644;3688.639;-3.067241;1.504728;4838.408;1315.98;-0.0746651;-0.1552742;0;
18868.36;13446.02;-275.1876;22762.13;2.964061;-2.917535;20131.08;10675.16;-0.2694921;-0.4149875;0;
15965.92;11188.87;-16.27544;20271.57;2.290521;-5.258945;17167.36;8957.287;-0.399156;-0.4795378;0;
16539.19;11810.99;4.55857;20513.32;6.575128;-2.574405;17682.61;9484.674;-0.3987549;-0.3491213;0;
18376.54;13152.58;18.20338;22653.11;9.448909;-4.112425;19590.21;10529.75;0.1213845;-0.02393382;0;
3954.474;2298.108;334.5573;5283.674;-4.358337;-1.495959;4010.571;855.2496;0.1212625;0.1709923;0;
-20009.46;-14612.36;328.3335;-23259.32;-6.564761;-0.6907824;-21294.38;-11378.88;-0.4635654;0.1708204;0;
-17162.19;-11440.9;14.97342;-21971.76;-7.22775;-5.512676;-18503.85;-9113.457;-0.4630996;0.1056815;0;
-17268.34;-11424.66;40.38309;-21710.13;-10.56939;-4.971274;-18527.78;-8459.14;-0.007862901;0.3004773;0;
-20714.65;-14967.85;-19.20568;-25156.45;-2.186025;-10.52574;-21806.11;-10998.88;0.3169817;0.1702407;0;
4437.216;2847.215;-300.1701;3501.267;-0.9110311;-12.3237;4598.801;1249.26;0.1217612;-0.1547671;0;
18831.47;13397.41;-290.8418;22737.94;-1.513328;-5.345217;20100.21;10602.08;-0.2681652;0.1702252;0;
15858.13;11083.62;-55.54271;20179.1;1.434954;-4.937949;17062.38;8862.504;-0.3328631;0.1050868;0;
16500.37;11777.46;2.265325;20474.87;-3.724052;1.22926;17644.59;9454.219;-0.007691936;-0.08992086;0;
18301.25;13076.45;31.57644;22594.81;-2.714956;4.175274;19519.08;10445.62;0.1872178;0.2999735;0;
3950.671;2274.575;347.4641;5356.465;-1.104638;1.089864;4024.168;869.4658;0.05709502;0.1697375;0;
-19671.05;-14332.66;342.8983;-22868.48;-2.041533;2.294461;-20938.46;-11055.49;-0.2028317;0.0396322;0;
-17011.43;-11345.91;14.45302;-21781.6;11.02134;-0.9898859;-18351.3;-8930.931;-0.7223666;-0.0903423;0;
-17348.33;-11540.08;39.33224;-21742.79;13.89065;-2.261567;-18607.08;-8515.583;-0.7866082;-0.1552189;0;
-20342.18;-14738.99;-14.10232;-24765.36;10.66151;-2.192312;-21445.2;-10861.28;-0.2011117;0.3646758;0;
4810.738;3078.852;-305.1762;3923.552;11.52145;-4.333563;4948.64;1411.969;-0.1359423;0.3643094;0;
18843.79;13413.8;-287.472;22781.13;5.013144;0.2924921;20109.58;10639.51;-0.1358057;-0.02586071;0;
15936.62;11180.17;-44.94559;20242.78;2.663582;1.69884;17145.68;8953.954;0.1891675;0.1041;0;
16658.12;11922.48;-6.216751;20640.8;-0.9554405;-5.73779;17800.41;9605.125;0.1240101;-0.09090666;0;
18392.22;13182.84;20.47921;22691.72;-3.232632;-5.932973;19611.77;10552.43;-0.2659186;-0.1557827;0;
3787.886;2254.677;343.4057;5177.319;-7.448943;-7.400575;3845.889;852.2443;-0.200684;0.0392759;0;
-19871.59;-14425.57;351.7594;-23073.4;-9.987054;-9.067713;-21151.79;-11165.34;-0.2654497;0.1691711;0;
-16732.63;-11152.3;40.43723;-21502.59;-5.957554;0.05083369;-18065.67;-8931.813;-0.3301503;0.1690011;0;
-16677.1;-10910.24;66.43039;-21106.17;-7.626508;0.9215608;-17943.22;-8130.034;0.05998544;0.103864;0;
-19791.32;-14153.49;15.24871;-24207.69;6.447327;2.796157;-20857.17;-10391.87;0.1898598;0.03879227;0;
4984.328;3246.884;-284.4285;4173.173;11.73213;3.865074;5204.585;1541.318;-0.07020029;-0.2860834;0;
18856.64;13423.13;-284.9392;22826.2;-4.019789;-0.4927001;20142.22;10641.05;-0.07012976;0.03904075;0;
15949.93;11193.85;-44.42986;20251.87;-6.025482;-1.094929;17149.96;8979.005;-0.005091948;0.1039689;0;
16627.1;11893.98;10.22796;20627.74;-2.937968;-9.533557;17783.05;9572.289;-0.3299235;-0.2859397;0;
18271.53;13062.11;63.1442;22553.27;-3.805672;-12.73904;19481.25;10428.94;-0.2646247;0.03918437;0;
3749.956;2095.175;381.4676;5066.656;-5.208368;-15.00359;3800.294;723.5826;0.5802166;0.1041123;0;
-19765.85;-14416.87;352.583;-23016.82;-3.595544;-18.06967;-21037.32;-11171.49;0.449699;-0.2857963;0;
-17279.81;-11450.04;14.36729;-22028.49;-11.76361;-13.4968;-18594.54;-9079.502;-0.135459;-0.3504765;0;
-17978.82;-11951.3;11.33874;-22341.74;-14.16366;-13.41625;-19174.46;-8795.673;-0.005388181;-0.02528763;0;
-20488.95;-14931.81;-48.62689;-24924.27;-0.8865624;-7.843312;-21551.46;-10984.7;0.05958457;0.1696398;0;
5050.307;3206.431;-315.0378;4138.127;-1.957399;-3.749594;5179.205;1514.998;0.0595247;0.03953467;0;
18862.74;13433.44;-310.3173;22801.68;14.92378;-7.697698;20126.23;10670.5;-0.005502448;0.234397;0;
15895.88;11148.01;-81.41722;20204.38;20.26742;-5.07769;17106.05;8923.961;-0.07046426;0.2341615;0;
16608.93;11858.83;-30.73585;20592.99;6.850467;-5.474485;17753.86;9541.602;-0.1353608;0.1689588;0;
18375.95;13186.25;9.977714;22656.08;11.39793;-5.803899;19593.82;10558.7;-0.005290106;0.3636911;0;
3476.375;1979.434;352.7798;4815.897;-24.38167;5.387777;3531.226;607.4008;0.1896172;0.233391;0;
-20617.95;-15124.11;342.4459;-23850.49;-34.80602;7.659783;-21881.16;-11808.08;-0.2003773;0.2981238;0;
-17479.92;-11734.93;-11.61101;-22240.88;-13.33651;8.656831;-18788.81;-9334.436;-0.2651433;0.4277589;0;
-17997.74;-12095.18;-9.662814;-22373.97;-17.07415;11.26034;-19223.92;-8957.132;0.2548618;0.1674597;0;
-21356.32;-15550.63;-74.62045;-25728.17;10.20371;3.345288;-22410.34;-11438.71;0.05970369;0.1023241;0;
4478.74;2969.101;-350.1101;3670.091;18.63355;3.007012;4667.877;1432.275;-0.07029098;-0.2226154;0;
18925.73;13508.05;-317.7119;22883.51;8.433426;-3.091334;20204.33;10714.45;0.189649;-0.0274897;0;
15905.41;11125.31;-70.32935;20189.42;10.30096;-7.107143;17107.92;8900.403;0.6442298;0.6222113;0;
16670.3;11950.71;-9.835926;20660.83;-2.637461;5.961365;17822.36;9643.333;0.6435825;0.2317821;0;
18391.64;13178.67;42.77252;22655.46;-11.74351;8.299778;19601.69;10525.76;-0.2016396;-0.09328751;0;
3569.149;1977.009;362.9904;4866.265;-3.292596;7.085745;3602.134;679.2498;-0.3313717;0.2316429;0;
-19984.8;-14625.26;345.9622;-23240.75;-2.753424;10.82955;-21266.77;-11305.47;0.05876534;0.5562469;0;
-17054.39;-11333.6;9.09623;-21829.95;-46.75686;5.058256;-18374.51;-9021.504;-0.2661304;0.2308513;0;
-17930.38;-12018.6;6.603963;-22325.95;-58.09673;4.718259;-19160.37;-8902.447;-0.460765;-0.4840215;0;
-20737.9;-15133.79;-58.04206;-25170.29;-51.13948;15.89942;-21804.03;-11196.8;-0.3303674;-0.4185677;0;
4990.503;3261.457;-337.8899;4114.918;-59.9967;18.49578;5156.983;1541.915;-0.005198702;-0.02834315;0;
18851.3;13431.82;-314.0622;22817.58;-18.40846;19.08004;20124.46;10670.06;0.1897085;-0.288184;0;
15943.33;11186.11;-61.48281;20244.55;-5.796687;21.40515;17147.82;8964.501;0.3194526;-0.4827965;0;
16698.59;11955.33;-17.3182;20699.45;-20.5276;17.90065;17850.84;9635.292;0.1242296;-0.09250733;0;
18296.47;13111.94;12.40302;22560.47;-13.27232;17.48077;19503.63;10486.05;-0.4606013;0.2324224;0;
3432.469;1913.297;334.26;4644.235;-18.14911;17.26226;3446.214;551.4893;-0.2002691;-0.09264791;0;
-20507.09;-15050.52;310.7795;-23813.33;-16.45593;15.23542;-21791.6;-11716.41;0.5145729;-0.2874568;0;
-17469.58;-11657.72;-22.7871;-22210.92;-18.11434;17.96642;-18769.39;-9252.265;0.3841211;-0.09226598;0;
-17969.45;-11990.1;5.346664;-22347.66;-20.97652;17.27853;-19192.42;-8887.085;-0.006068879;-0.02720593;0;
-21094.63;-15386.57;-51.00539;-25444.65;-7.626209;13.24232;-22155.67;-11323.99;0.1238719;-0.287048;0;
4687.04;3051.299;-323.9731;3927.351;-5.206673;12.15728;4867.426;1511.241;0.2536821;-0.3517269;0;
19030.4;13594.06;-282.3559;23003.14;-9.555697;8.46113;20307.02;10811.14;-0.1363768;0.2333326;0;
16008.18;11244.68;-35.88341;20298.28;-8.072227;7.648833;17212.38;9019.985;-0.3311418;0.1031635;0;
16735.25;12008.4;-13.37428;20730.11;-13.48912;5.363728;17887.07;9704.651;-0.2658418;-0.2217769;0;
18351.71;13138.93;7.597376;22622.03;-16.22224;4.554543;19561.77;10490.64;0.05926208;0.03831532;0;
3108.952;1688.93;350.9952;4421.791;-6.225601;10.04245;3140.144;380.3799;0.1241699;-0.1566252;0;
-20379.84;-14909.56;344.8954;-23636.74;-5.013897;11.17106;-21661.38;-11628.75;-0.2007916;-0.3513699;0;
-16977.21;-11321.25;9.092526;-21723.27;-9.630559;17.92499;-18288.81;-9017.182;0.05927952;-0.1561148;0;
-17694.54;-11767.93;35.85118;-22048.47;-8.481807;21.6579;-18917;-8669.604;0.1241873;0.1039115;0;
-20132.96;-14703.56;-23.54563;-24519.14;-19.86014;20.43045;-21186.07;-10849.64;0.05909517;0.2987091;0;
5443.189;3456.92;-293.2614;4677.539;-25.33254;23.29019;5638.054;1708.349;0.3838725;0.2334416;0;
18700.96;13277.1;-249.2699;22717.44;-8.026709;19.04698;19985.28;10522.84;-0.07128461;0.2981744;0;
15749.19;11017.52;-23.83577;20034.29;-4.937184;18.75991;16947.03;8795.74;-0.006245639;-0.1568966;0;
16643.52;11879.3;-17.06521;20648.92;-14.97893;22.0231;17797.82;9566.089;0.3185973;-0.2866737;0;
18148.34;12985.01;17.21596;22415.98;-14.02685;21.73304;19350.77;10347.47;0.1233752;0.0384511;0;
3038.941;1600.114;353.1236;4292.055;-15.82044;26.26592;3041.935;315.7974;0.4480879;-0.09152222;0;
-20669.01;-15153.93;319.9727;-23947.96;-15.93924;27.44522;-21957.28;-11760.12;0.317703;-0.2213649;0;
-17552.56;-11654.04;-22.08326;-22302.38;-13.71243;26.27894;-18855.28;-9252.778;-0.00745293;-0.09120783;0;
-18252.77;-12169.83;2.567173;-22609.32;-15.70838;26.78839;-19473.4;-9015.549;0.1224892;-0.2210509;0;
-20989.96;-15278.45;-54.45362;-25368.46;1.455036;25.22087;-22062.68;-11265.84;-0.2024705;-0.3507634;0;
4790.194;3150.614;-331.9001;3964.867;7.414445;25.06156;4945.191;1539.925;-0.3322018;-0.2204763;0;
18730.5;13298.86;-295.1005;22699.53;-9.673287;21.82132;20000.43;10531.01;-0.007031277;-0.2202548;0;
15705.75;10953.73;-39.04192;19994.79;-10.73529;19.92387;16907.85;8725.412;0.4477472;-0.09009878;0;
16531.19;11786.54;-5.613225;20519.53;-10.12129;20.9086;17681.9;9476.545;0.5772319;-0.09000824;0;
18188.92;13009.98;36.5431;22444.96;-11.51764;18.27538;19394.26;10364.23;0.1868479;-0.2198525;0;
2935.943;1551.535;380.396;4168.696;-11.90821;23.61553;2955.045;261.4023;-0.0732092;0.2351398;0;
-20911.3;-15313.83;343.8133;-24221.21;-13.57119;24.19452;-22194.46;-11946.01;0.05679904;0.04000152;0;
-18169.77;-12020.54;-3.701459;-22907.72;-7.461982;14.65888;-19482.99;-9442.364;0.3166113;-0.4797774;0;
-19365.88;-13123.22;-0.2775839;-23704.9;-7.052342;12.76875;-20579.73;-9646.878;0.1863585;0.04044341;0;
-21792.32;-16120.2;-96.77567;-26244.11;-2.89207;6.727577;-22878.01;-11999.81;-0.0736981;0.04040277;0;
4605.896;3045.462;-371.0405;3676.612;0.4597383;2.501014;4717.432;1410.044;-0.1385914;-0.4793766;0;
18737.33;13353.34;-331.047;22683.85;-11.32972;7.99098;19997.37;10589.76;-0.1384521;-0.08909082;0;
15846.22;11062.29;-104.6093;20143.87;-13.79658;7.848984;17054.54;8829.563;-0.07334568;0.2358354;0;
16704;11978.97;-50.15646;20694.82;-11.17075;3.822122;17851.11;9674.841;-0.1382393;0.2355984;0;
18193.16;13007.27;21.6235;22457.01;-14.30736;2.947625;19396.04;10355.43;0.05680161;0.105427;0;
2683.507;1396.065;362.1962;3916.219;-8.264762;6.829551;2690.562;153.084;0.6414506;-0.3494503;0;
-20928.04;-15385.62;340.2337;-24232.07;-7.452175;7.626484;-22213.39;-11953.34;0.5108714;-0.2191645;0;
-17279.3;-11624.19;1.093426;-22038.83;-15.81743;8.087702;-18588.68;-9217.265;0.2504887;0.1708598;0;
-17959.01;-12019.82;12.05557;-22363.85;-16.06996;10.22291;-19202.43;-8824.681;0.6400411;0.2356554;0;
-20663.76;-15034.44;-60.42012;-25001.23;-22.61789;1.706046;-21733.46;-11039.73;0.5094633;-0.08941806;0;
5166.721;3450.386;-335.2525;4510.116;-25.07341;-1.175934;5358.282;1800.105;0.1841146;-0.1542956;0;
18944.8;13520.25;-293.5614;22974.57;-16.54175;10.614;20228.51;10751.56;0.1189623;-0.08917318;0;
15858.5;11109.3;-53.10591;20125.67;-15.05126;12.54584;17055.18;8879.335;-0.2709613;-0.2839856;0;
16677.81;11930.52;-24.67618;20687.15;-10.88295;7.107738;17833.03;9625.502;-0.3356564;-0.08879822;0;
18151.06;12983.11;20.98192;22408.8;-7.724187;7.167579;19352.95;10319.46;0.1844196;-0.02374166;0;
2509.564;1300.723;364.6475;3733.881;-8.319638;6.222616;2514.288;100.1452;0.2492017;-0.2835872;0;
-20844.13;-15187.52;335.5768;-24142.27;-7.909137;5.010671;-22128.73;-11735.43;-0.07588543;-0.4132369;0;
-17423.47;-11601.92;-1.887867;-22165.54;-0.1316577;7.61797;-18733.38;-9078.216;-0.1407765;-0.282887;0;
-18468.22;-12407.86;23.53875;-22838.38;3.887938;8.012214;-19692.83;-9025.616;-0.07566772;0.1072013;0;
-20470.15;-14937.53;-49.41699;-24877.4;-3.416986;3.516306;-21543.49;-11077.7;-0.2055264;0.3019956;0;
5438.888;3587.938;-322.0584;4636.774;1.208148;2.642117;5585.438;1774.087;-0.4651892;-0.2830139;0;
18671.42;13239.17;-272.2909;22668.94;-14.73525;2.840411;19940.76;10509.69;-0.1398851;-0.5425989;0;
15766.36;11036.29;-32.91872;20045.27;-18.94;2.167728;16970.52;8801.284;0.3150268;-0.1522496;0;
16677.01;11905.82;-1.495177;20679.03;11.22111;5.581557;17831;9591.664;0.05484094;0.1727401;0;
18042.48;12896.53;37.6429;22289.46;15.16097;6.98259;19240.85;10247.49;-0.2050835;0.1075991;0;
2260.758;1101.68;345.6846;3416.932;35.5759;2.889737;2249.858;-107.9519;-0.07494278;0.2374257;0;
-21684.65;-15921.21;289.0062;-25027.42;47.52924;1.279243;-22974.96;-12443.19;-0.1398348;0.1722198;0;
-18390.22;-12276.81;-49.28618;-23146.55;25.04257;8.110095;-19685.94;-9665.499;-0.2046617;0.1070794;0;
-19260.05;-13029.4;-23.07793;-23652.53;23.81195;8.637688;-20464.43;-9456.777;0.1203807;0.2369065;0;
-21613.64;-15889.63;-88.08456;-26002.23;22.04672;5.88283;-22683.25;-11679.64;0.4450965;-0.1531356;0;
4658.19;3134.877;-345.6322;3875.427;16.46486;6.546748;4793.379;1549.533;-0.07508951;-0.2179491;0;
18657.69;13250.14;-293.0924;22650.47;18.79284;-3.574009;19924.27;10487.44;-0.1399814;0.3020087;0;
15609.04;10847.04;-53.90232;19887.82;17.9033;-7.053469;16811.79;8608.446;0.3149306;0.1068032;0;
16476.85;11720.31;-38.05922;20472.02;2.814761;-4.166177;17630.29;9421.727;0.1197122;-0.4780102;0;
18056.99;12912.49;-12.04966;22289.3;-1.273904;-6.506332;19252.46;10240.42;0.2495266;-0.2826279;0;
1879.394;885.6173;312.5649;3026.721;9.176225;-2.547863;1870.488;-249.5066;0.1843085;-0.1524092;0;
-22090.01;-16214.54;261.2609;-25454.38;10.7746;-2.344354;-23378.12;-12665.37;0.05418862;-0.2821908;0;
-18487.21;-12309.14;-72.77139;-23249.87;15.11705;-3.614674;-19792.03;-9680.829;0.2490362;-0.1519725;0;
-19681.85;-13367.36;-37.77832;-24045.97;16.10721;-2.740263;-20876.61;-9745.846;0.3137533;-0.02188515;0;
-21996.65;-16244.11;-119.3712;-26465.19;30.1572;-8.49792;-23085.57;-12039.61;0.05356868;0.2380062;0;
4572.969;3094.373;-383.0405;3630.07;34.68125;-9.695074;4651.898;1470.496;-0.1413872;0.3677017;0;
18464.33;13067.89;-312.6596;22409.43;25.73779;-9.886281;19718.82;10309.82;-0.2062124;-0.02247178;0;
15498.66;10724.8;-55.7869;19779.93;27.11845;-11.55086;16706.68;8484.127;-0.1410379;-0.2823186;0;
16419.95;11668.19;-21.60737;20403.72;6.193505;-4.975109;17569.36;9364.983;0.05400584;-0.4769369;0;
17956.68;12805.89;18.4411;22176.78;-1.382156;-2.22381;19149.28;10134.43;0.1838863;-0.4114903;0;
1662.772;697.9438;344.7741;2773.038;2.97349;-7.848081;1636.658;-421.6845;0.1187341;0.1086619;0;
-22596.99;-16669.36;285.9415;-25970.26;-1.852269;-6.634502;-23891.11;-13086.3;0.2485495;0.3034547;0;
-18894.12;-12664.52;-66.13774;-23642.85;6.990851;-5.422204;-20191.09;-9999.182;0.3782344;0.3681171;0;
-19912.55;-13555.49;-39.30349;-24268.78;9.261002;-5.617644;-21107.61;-9903.053;0.0530177;0.2378126;0;
-22135.74;-16434.28;-110.0565;-26555.42;7.309313;5.774795;-23199.86;-12202.55;-0.3368396;0.1076389;0;
4734.633;3158.691;-379.2169;3863.548;9.847565;9.184999;4855.004;1565.39;-0.1415991;0.04256342;0;
18671.1;13257.67;-319.5531;22646.43;10.5746;6.16166;19933.79;10502.34;0.6381512;-0.02244669;0;
15612.39;10842.26;-59.72184;19901.24;11.50101;7.696076;16817.48;8596.896;0.5075753;0.1724779;0;
16578.52;11827.48;-22.99277;20570.7;11.5568;4.875061;17732.36;9530.144;0.1172613;0.432174;0;
18066.99;12909.42;36.85964;22304.57;8.463729;4.401281;19262.41;10231.51;0.1821108;0.4317397;0;
1824.088;801.7758;376.8236;2966.144;19.03877;1.650681;1805.269;-322.7077;0.2468951;0.4962732;0;
-22245.15;-16369.37;301.1547;-25586.77;21.29682;-0.4274488;-23529.42;-12829.88;0.3116144;0.1059705;0;
-18664.88;-12461;-54.20385;-23366.47;-2.100527;1.984366;-19954.83;-9837.188;-0.07850275;-0.28394;0;
-19597.2;-13251.14;-21.22843;-23932.12;-7.122259;0.6427137;-20795.83;-9616.3;-0.2083586;-0.02378534;0;
-21360.08;-15791.82;-97.21577;-25752.89;-15.01933;3.053453;-22411.35;-11705.5;0.1816549;-0.08872879;0;
5242.667;3497.374;-361.985;4451.937;-23.44336;3.65311;5394.224;1774.332;-0.4032337;-0.153607;0;
18716.58;13305.72;-306.3365;22719.97;-6.33952;-0.4363978;19988.73;10573.02;-0.5977306;0.1064167;0;
15756.29;10981.61;-68.81982;20038.29;-3.58746;-0.8378569;16961.38;8734.873;-0.01242392;-0.08859221;0;
16729.11;11990.58;-30.20754;20731.54;-14.50122;-2.578449;17883.96;9692.579;-0.2073135;-0.2834052;0;
18148.44;12959.66;35.13374;22388.38;-14.35293;-2.910773;19345.19;10290.57;-0.07717047;-0.1531858;0;
2231.378;1062.629;360.716;3377.964;-9.180941;-5.118285;2215.31;-101.3524;0.3127111;-0.2179992;0;
-21251.84;-15544.28;296.9792;-24608.58;-8.904272;-6.854638;-22529.74;-12074.9;-0.0124398;-0.2177801;0;
-17302.35;-11481.15;-45.99074;-22057.95;-3.871483;1.792865;-18589.98;-9118.673;-0.2073293;-0.2175613;0;
-18125.73;-12053.19;-7.073446;-22536.66;-3.198008;4.001379;-19357.13;-8817.204;0.1177157;-0.28231;0;
-20122.3;-14665.67;-59.52435;-24493.6;-4.266521;0.1794529;-21171.69;-10848.79;0.1175974;0.172745;0;
5833.41;3866.494;-327.3299;5162.912;-2.855715;0.849102;6041.46;2051.869;-0.2723248;0.2375388;0;
18885.42;13445.09;-283.5072;22923.81;-15.64622;-0.9602904;20170.39;10717.72;-0.2720512;-0.02256927;0;
15829.99;11086.63;-51.62002;20094.7;-17.30446;-2.499811;17025.1;8847.678;0.1180262;0.1073881;0;
16752.95;11990.71;-28.14243;20762.68;-22.31091;1.521555;17911.65;9683.957;-0.1419617;-0.08762184;0;
18213.53;13042.7;30.63757;22449.52;-26.03954;1.988907;19406.49;10375.65;-0.2067864;-0.1525011;0;
2472.23;1210.285;351.6017;3615.374;-10.80813;-3.572553;2450.626;36.24931;0.2481928;0.04255412;0;
-20917.58;-15262.18;282.3143;-24267.89;-8.989584;-4.305776;-22200.29;-11832.56;0.1180087;-0.08742332;0;
-17241.8;-11326.29;-49.39654;-21978.19;-0.5404578;-6.84674;-18539.56;-8995.586;0.1828575;-0.02236813;0;
-18051.16;-11946.32;12.48139;-22461.32;3.679644;-8.715322;-19311.12;-8778.574;0.05273904;0.04262168;0;
-19677.27;-14360.85;-40.3952;-24066.43;-6.504483;-4.017881;-20768.64;-10676.98;-0.5969874;0.2374809;0;
6167.958;4077.663;-334.5817;5506.149;-11.32072;-4.080827;6349.779;2209.243;-0.4014855;0.3671769;0;
18970.87;13539.03;-294.0938;23017.11;-4.075675;-0.2588211;20252.14;10826.85;-0.01127802;0.171906;0;
15949.16;11203.15;-45.47002;20205.45;-4.808514;2.487739;17144.36;8953.686;-0.07623403;-0.02316878;0;
16939.46;12188.68;-23.01373;20944.98;-30.25671;-4.949744;18093.68;9883.357;-0.1411248;0.1067892;0;
18294.68;13102.88;48.47348;22540.17;-35.38387;-5.078736;19485.38;10432.99;-0.4658197;0.4315186;0;
2613.19;1254.496;397.39;3760.932;-54.5047;-4.805701;2580.214;53.87397;-0.1405149;-0.08865374;0;
-20191.15;-14705.51;336.5055;-23549.95;-66.17159;-6.341419;-21487.16;-11334.55;0.1194956;-0.348434;0;
-16385.54;-10800.56;-10.33036;-21130.88;-33.4184;2.305568;-17681.73;-8557.504;0.05440824;0.3015895;0;
-17656.87;-11720.04;4.266434;-22095.26;-27.49032;4.178651;-18910.83;-8587.292;0.3142229;0.4312212;0;
-19358;-14011.86;-77.04073;-23705.68;-29.27136;2.165087;-20392.34;-10350.32;-0.3357662;-0.2188856;0;
6402.109;4268.105;-353.9959;5856.357;-22.4768;4.105294;6670.734;2358.947;-0.7252329;-0.283633;0;
18999.62;13551.88;-298.0901;23077.75;-18.1673;-3.06576;20297.07;10838.49;-0.07483076;-0.4132826;0;
15963.95;11237.67;-36.62493;20208.07;-13.19255;-5.474004;17148.78;8993.782;-0.009788221;-0.2829327;0;
16961.95;12194.33;-6.806221;20977.32;-12.04022;0.0239133;18124.28;9885.636;-0.1397131;0.2370903;0;
18321.17;13146;28.19865;22537.95;-10.6216;-1.583579;19506.04;10472.86;0.1202967;0.4317541;0;
2366.691;1149.689;327.6917;3443.326;-10.54456;3.240661;2325.487;2.793196;0.5099798;0.4962876;0;
-20495.8;-14896.87;267.5331;-23932.94;-10.66769;5.246771;-21802.32;-11460.13;0.5094674;0.04101757;0;
-16246.27;-10708.67;-48.24903;-21046.2;-17.42212;-6.681158;-17556.24;-8537.333;0.4439882;-0.1539257;0;
-17464.42;-11541.92;-11.59395;-21925.48;-20.08393;-8.482923;-18712.97;-8504.518;0.3136074;-0.2187383;0;
-19422.82;-13990.9;-78.43932;-23789.97;-20.46492;-10.61779;-20462.55;-10321.74;-0.2714138;-0.3484533;0;
6368.165;4305.435;-351.848;5804.089;-21.85185;-13.95621;6610.041;2424.525;-0.1412064;0.1066683;0;
19083.12;13642.3;-316.4965;23159.29;-21.22668;-5.703468;20375.09;10925.44;-0.0760972;0.1715284;0;
15979.39;11245.43;-78.42296;20219.15;-21.2727;-5.094952;17167.51;9000.596;-0.2709228;0.1713561;0;
16908.17;12151.69;-44.61111;20917.05;-16.96442;-6.362447;18067.85;9847.777;0.1191535;0.2361513;0;
18257.8;13076.17;18.40206;22464.68;-15.54085;-5.82019;19442.09;10399.85;0.2489685;0.04101193;0;
2314.246;1057.436;351.6223;3331.791;-12.44378;-7.622881;2262.067;-82.78922;0.1187836;0.3008401;0;
-20375.25;-14845.96;302.2936;-23885.24;-11.2922;-7.280307;-21679.92;-11458.69;0.1836316;0.04066844;0;
-16181.32;-10639.14;-12.66446;-21000.55;-9.33847;-10.88995;-17483.67;-8530.862;-0.206357;-0.3491765;0;
-17448.21;-11487.06;37.94783;-21940.64;-7.454052;-11.01297;-18712.5;-8471.597;0.05371976;0.04097843;0;
-19003.34;-13724.43;-30.74329;-23384.26;-15.68461;-13.01133;-20017.37;-10163.34;0.1836005;0.170872;0;
6680.855;4456.817;-310.8997;6187.415;-16.47313;-13.80205;6981.619;2490.08;-0.4012901;-0.2191038;0;
18930.18;13492;-256.9111;23036.69;-22.01628;-7.090076;20232.22;10790.17;-0.2709522;-0.2188836;0;
15802.57;11080.49;-15.55544;20026.41;-25.81158;-5.67631;16984.06;8835.806;0.1191241;-0.2836311;0;
16813.58;12048.01;-16.47684;20829.03;-17.21183;-1.182933;17976.94;9744.903;-0.01093026;-0.2833461;0;
18097.19;12927.36;26.89293;22291.76;-17.99882;0.9617094;19275.73;10248.59;-0.2058213;0.3016447;0;
1996.386;891.1775;371.2865;2990.957;-8.335191;2.300402;1932.445;-212.6755;-0.01071247;0.4312763;0;
-20469.95;-14852.87;324.4056;-23968.03;-2.231247;4.106507;-21785.72;-11408.12;0.05426564;-0.1538631;0;
-15862.71;-10509.59;-2.068939;-20658.61;-19.64408;-0.5193191;-17175.94;-8446.526;-0.1406909;-0.7384146;0;
-17011.96;-11165.52;45.58106;-21497.74;-20.76342;-0.04991677;-18295.89;-8255.928;-0.3354516;-0.4128359;0;
-18588.57;-13311.28;-21.71218;-22895.3;-16.58937;-7.685738;-19605.67;-9834.146;-0.4650492;-0.02261705;0;
6874.789;4604.3;-315.5895;6490.277;-19.11829;-10.29029;7193.895;2614.107;-0.07477786;0.04237302;0;
18992.3;13551.35;-273.4497;23120.3;-3.425322;-3.782727;20295.92;10856.07;0.5100033;0.1722651;0;
15913.77;11197.33;-10.86926;20134.95;1.132471;-4.046857;17090.36;8954.285;0.4445235;0.04215735;0;
16944.51;12176.97;22.53112;20969.77;-10.1218;3.994917;18109.12;9869.964;0.3141422;-0.08781969;0;
18198.04;13029.56;59.52113;22406.61;-10.31172;7.607981;19376.23;10353.16;0.5087286;0.04220323;0;
2138.666;988.5186;362.1841;3167.518;-8.493677;4.921019;2072.562;-123.9373;0.7680867;-0.02280651;0;
-20176.03;-14574.54;314.6408;-23648.11;-7.88193;6.456682;-21495.49;-11162.69;0.7023476;0.04218375;0;
-16087.12;-10582.32;13.80385;-20844.92;-14.57182;6.718126;-17400.36;-8377.692;0.1819032;-0.1527607;0;
-17585.46;-11600.26;33.60815;-22044.53;-17.50491;6.778358;-18867.11;-8518.043;-0.0131816;-0.2175745;0;
-18395.54;-13293.16;-50.41465;-22713.89;-7.038472;5.431889;-19393.85;-9901.565;0.246701;0.2374155;0;
7320.664;4834.314;-308.1251;6933.213;-5.824975;4.287721;7664.25;2760.555;0.4413552;-0.02269243;0;
19048.1;13613.92;-260.433;23176.61;-7.36034;2.408013;20353.87;10951.88;0.4409117;-0.08763696;0;
15973.6;11265.25;-24.82089;20195.29;-6.548661;0.4630882;17148.66;9005.646;0.1156319;0.3022552;0;
17005.01;12239.41;-0.3863406;21034.01;-7.882227;2.405128;18167.02;9935.345;0.05054841;-0.2177873;0;
18218.1;13037.2;49.54208;22435.38;-7.070024;2.938575;19398.37;10376.01;0.1804323;-0.2825358;0;
2392.008;1103.157;381.5285;3438.698;-11.28248;-3.427634;2342.722;-101.7796;0.05031632;-0.02238255;0;
-19762;-14251.05;361.8736;-23228.32;-11.40584;-4.696866;-21075.85;-10913.68;-0.3395383;-0.3471968;0;
-15472.35;-10042.62;53.96145;-20234.96;-10.5901;-1.142173;-16790.17;-8044.885;-0.4691318;-0.3468479;0;
-16980.77;-11067.79;53.57927;-21443.07;-9.842521;-1.208009;-18279.29;-8277.259;0.2459803;-0.02166268;0;
-18510.23;-13233.32;-50.12559;-22775.99;-8.895602;4.41965;-19537.54;-9761.488;0.6355372;0.04332643;0;
6991.22;4711.291;-325.8429;6694.439;-10.4269;7.094526;7327.149;2775.227;0.2450946;0.1732176;0;
19103.26;13671.27;-259.4081;23258.76;7.333439;2.666646;20413.42;10961.85;-0.01502105;0.6278149;0;
15977.06;11255.3;-15.97276;20194.31;11.94777;2.396035;17148.34;9018.294;0.1149287;0.6921514;0;
17038.41;12285.28;-21.03228;21071.22;1.018402;6.010583;18201.66;9984.477;0.1148132;0.04178254;0;
18377.18;13188.02;18.53147;22575.47;0.5478876;6.473424;19551.2;10507.47;-0.2751062;0.2366426;0;
2327.275;1063.58;350.5491;3348.876;-5.480883;4.524415;2251.651;-47.40965;-0.1448951;0.6911762;0;
-19808.84;-14353.68;307.7026;-23296.04;-7.284037;4.854784;-21143.17;-10979.05;0.6348586;-0.02415906;0;
-15458.32;-10141.6;-4.168742;-20234.97;-20.07009;0.2951879;-16781.13;-8092.453;0.5692534;-0.3489715;0;
-17073.33;-11202.46;42.28085;-21539.31;-27.35094;-1.11175;-18367.53;-8256.719;-0.08099202;-0.4135882;0;
-18185.4;-13093.99;-25.88364;-22459.65;-11.51598;2.573428;-19201.22;-9683.842;-0.145878;-0.867944;0;
7414.451;4919.811;-315.2747;7124.293;-10.63277;2.704808;7757.498;2875.908;0.30904;-0.2823658;0;
19098.59;13674.48;-280.2878;23266.19;-12.16331;5.783183;20408.98;11001.14;0.1138274;0.497526;0;
16074.94;11364.78;-46.4673;20279.83;-10.14135;7.250997;17245.97;9118.367;0.04874573;0.6269608;0;
17212.76;12451.45;-26.61806;21239.84;-13.21262;7.91354;18377.3;10149.62;0.5034682;0.2365268;0;
18286.18;13107.58;39.25059;22489.04;-13.33307;9.58004;19459.14;10435.35;0.3080602;-0.153515;0;
2382.104;1054.003;377.135;3381.493;-10.43928;8.29786;2299.8;-83.3065;0.177816;-0.08839337;0;
-19500.13;-14073.83;325.1102;-23006.49;-8.821202;8.959229;-20828.75;-10717.38;0.1776373;-0.02333721;0;
-15280.22;-9924.92;-0.9121573;-20056.31;-15.77856;8.481469;-16596.9;-7933.518;-0.08241053;-0.1532484;0;
-16591.09;-10710.45;44.12862;-21094.38;-16.56699;8.004066;-17906.46;-7942.757;-0.01736038;-0.02315978;0;
-17401.56;-12364.43;-16.86946;-21683.79;-14.60699;10.60824;-18415.35;-9155.443;0.1125917;0.04183084;0;
7697.613;5158.188;-303.927;7464.417;-15.53031;10.93249;8070.977;3059.23;-0.01745607;-0.02317854;0;
19155.41;13734.36;-263.3449;23333.54;-5.802795;11.85927;20469.21;11075.89;-0.01743853;-0.08812259;0;
16122.54;11409.48;-34.82006;20319.35;-2.715505;12.78511;17290.6;9161.5;0.1125137;-0.2829361;0;
17118.28;12371.83;-37.33067;21155.6;-5.258372;11.16468;18286.19;10075.63;-0.2774034;-0.1527171;0;
18323.7;13125.33;39.79309;22522.99;-3.77922;12.02424;19496.26;10452.59;-0.4070594;0.2372404;0;
2430.442;1074.568;399.9002;3421.493;-6.387391;10.67249;2351.544;-46.92217;0.1780557;0.04210001;0;
-19245.75;-13922.47;341.2152;-22778.96;-7.988563;11.06367;-20569.69;-10587.53;0.3727788;-0.1528443;0;
-14783.55;-9701.646;28.90413;-19601.16;-4.497912;13.99968;-16093.68;-7783.842;0.2424696;-0.02275606;0;
-16398.54;-10693.44;80.19305;-20950.04;-4.426044;14.72242;-17702.82;-7961.959;0.04732392;0.1721689;0;
-17178.34;-12300.34;1.495732;-21485.34;-11.78996;22.41055;-18163.34;-9130.414;-0.3425277;-0.1528409;0;
7966.228;5238.557;-280.9576;7761.232;-13.65315;26.27291;8372.084;3113.298;-0.2122488;-0.08771995;0;
19067.81;13650.44;-239.5865;23262.43;-16.11768;21.2899;20387.89;11002.45;0.1777685;0.1722376;0;
16071.95;11387.05;-11.03866;20251.25;-19.04922;21.67041;17238.23;9142.842;0.1126225;0.4319339;0;
17185.7;12409;-17.58677;21220.53;-10.32254;25.66749;18358.53;10117.27;-0.2123273;0.7563366;0;
18215.36;13054.33;22.78561;22397.81;-7.766574;26.17756;19385.05;10380.47;-0.01721197;0.1708705;0;
2128.098;857.2081;360.8896;3059.167;-15.99779;26.08427;2039.456;-214.2837;0.307642;-0.08917055;0;
-19595.89;-14127.36;309.6776;-23177.86;-16.78502;26.45996;-20922.52;-10719.1;0.3723002;0.2357558;0;
-15202.46;-9900.919;-13.97107;-20015.2;-10.67357;24.62483;-16505.46;-7909.846;0.2419915;-0.1542852;0;
-17088.1;-11219.52;11.9362;-21594.25;-9.657488;24.80104;-18375.33;-8353.624;0.176781;0.1707066;0;
-17944.57;-12816.85;-65.56809;-22270.76;-7.103165;19.01571;-18910.67;-9557.043;0.111636;0.7552411;0;
7590.665;5124.927;-326.7459;7291.438;-4.014569;15.37965;8003.487;3012.887;0.1764912;0.2347435;0;
19034.09;13612.2;-271.0704;23197.96;-12.91914;25.67932;20352.36;10957.8;-0.01858818;-0.09032908;0;
15901.21;11198.16;-29.96595;20102.46;-14.98227;25.58653;17063.49;8954.965;-0.2784389;-0.1552057;0;
16974.88;12220.17;-16.75497;21014.87;-5.656463;23.21655;18144.43;9928.191;-0.3431264;-0.414919;0;
18211.51;13039.93;33.51786;22396.72;-5.383335;23.32718;19376.74;10358.34;-0.01794495;-0.2196001;0;
1989.964;771.9705;368.269;2925.442;-2.89968;13.25643;1893.303;-302.0291;0.3069098;0.1704246;0;
-19840.98;-14366.57;316.6279;-23404.59;-0.8206611;10.229;-21177.52;-11049.54;0.1766667;0.300188;0;
-15510.26;-10179.62;5.559679;-20288.88;-10.66547;5.195119;-16819.86;-8115.986;0.1115219;0.5597557;0;
-17412.56;-11501.9;59.7456;-21905.47;-13.20035;0.6351818;-18708.52;-8358.814;0.1114098;0.4292586;0;
-17703.44;-12793.75;-1.596126;-22003.77;-10.44042;5.591158;-18703.85;-9506.709;0.2412325;-0.1558788;0;
7928.68;5246.453;-275.8941;7693;-11.9038;4.781745;8305.549;3066.934;0.3059575;-0.02578747;0;
18970.08;13566.57;-241.6809;23158.27;-8.609309;3.705214;20285.52;10943.06;-0.1491213;-0.0907289;0;
16043.17;11347.11;-22.82915;20235.06;-5.586549;3.768474;17209.78;9091.149;-0.1489715;-0.4804418;0;
17277.25;12525.68;-16.57497;21318.11;-18.91017;4.30055;18445.5;10238.45;-0.08385446;-0.09015498;0;
18277.94;13102.62;34.15057;22476.22;-22.24105;4.899076;19444.14;10424.95;0.3060338;-0.1550317;0;
2124.511;894.6337;350.7071;3089.586;-5.272143;3.085614;2029.959;-160.597;0.8254651;-0.4797127;0;
-19296.98;-13875.65;310.203;-22830.69;-2.98967;3.149497;-20625.1;-10491.57;0.2399296;-0.349296;0;
-14698.21;-9637.616;40.2144;-19452.64;0.2285151;2.409642;-16013.14;-7718.183;0.1747211;0.1707938;0;
-16593.09;-10862.53;99.33176;-21077.96;4.046679;2.541186;-17913.12;-8058.394;0.2395129;0.2355895;0;
-17184.8;-12260.61;14.91495;-21434.93;-6.071444;0.1942302;-18183.67;-9134.393;-0.4104012;-0.2194186;0;
8078.594;5379.083;-274.9075;7936.853;-8.276146;-1.346572;8476.096;3203.245;-0.3450214;-0.08926349;0;
19088.44;13683.49;-226.9209;23299.9;-7.196104;5.620883;20405.78;11056.8;-0.3446748;-0.02420646;0;
16032.13;11344.39;13.20219;20217.07;-10.27033;6.887911;17195.77;9094.714;-0.5392305;-0.4139862;0;
17112.3;12360.69;1.804019;21156.68;-11.39811;4.80452;18281.41;10073.69;-0.4737213;-0.4135702;0;
18332.86;13161.71;40.28286;22515.84;-13.66383;5.469521;19499.25;10482.81;-0.3433106;-0.1532853;0;
2010.644;816.4001;368.062;2963.815;-17.06636;0.9762909;1918.089;-235.9048;0.1118057;0.04177076;0;
-19591.38;-14203.39;301.3817;-23156.83;-17.65242;-1.101161;-20922.47;-10851.47;0.1766607;-0.1531732;0;
-14620.1;-9716.301;0.2301262;-19424.58;-23.9977;3.38768;-15937.8;-7816.089;0.1764832;0.0418827;0;
-16448.27;-10789.1;62.18313;-20969.29;-25.24638;4.188071;-17763.44;-7960.346;0.3062406;0.30171;0;
-17006.37;-12188.19;-15.55906;-21252.9;-22.40797;-2.916084;-17987.39;-9055.871;0.0460635;0.3663742;0;
8321.82;5480.475;-296.4023;8219.479;-23.59091;-4.65471;8741.634;3305.332;-0.01895012;0.4309734;0;
19061.68;13668.01;-250.393;23282.6;-6.353199;-0.564196;20381.92;11044.24;-0.08389843;0.04073628;0;
16001.24;11319.15;-24.62978;20170.8;0.3519656;-0.6975949;17161.33;9070.992;-0.4086508;-0.2841414;0;
17223.79;12472.46;-23.34005;21267.85;-8.891788;0.1069012;18395.23;10190.45;-0.08340351;-0.1539212;0;
18236.11;13058.9;43.46234;22423.32;-5.802372;0.1067938;19400.83;10376.13;0.1765497;0.04113551;0;
2148.707;845.6487;388.4484;3086.063;-8.676929;1.982209;2052.531;-178.294;0.04643758;-0.08884051;0;
-18637.29;-13368.1;341.8157;-22238.32;-8.801932;3.051822;-19983.05;-10055.79;-0.08354376;-0.3486206;0;
-13985.87;-9153.518;43.35643;-18809.39;-5.711629;-1.706911;-15321.57;-7325.444;-0.4732639;0.04153374;0;
-16528.43;-10898.53;83.66759;-21066.99;-7.715622;-1.772179;-17838.6;-8049.513;-0.1479516;0.236394;0;
-16843.71;-12057.15;-4.419125;-21125.86;8.702826;-4.851491;-17811.7;-8958.87;-0.147803;0.04125448;0;
8498.388;5625.037;-285.7889;8377.172;14.58858;-6.186214;8917.552;3399.284;-0.2126218;0.3660497;0;
19019.65;13634.28;-233.6528;23244.4;-3.846507;-0.08473401;20338.22;11031.26;0.3722979;0.2357473;0;
15989.86;11319.2;4.072;20166.52;-6.320888;1.589924;17151.77;9064.195;0.2419892;-0.1542937;0;
17155.47;12400.23;17.92032;21196.51;-2.830936;3.262778;18323.53;10119.22;-0.3429601;0.1706981;0;
18224;13063.43;87.57042;22409.01;-6.17797;5.670885;19390.48;10387.29;-0.4725502;0.3004612;0;
2139.075;870.1808;421.6582;3070.751;0.05752774;5.933119;2044.876;-174.5137;-0.01730393;-0.08964473;0;
-19061.92;-13694.44;359.4687;-22643.68;0.9291021;6.530004;-20401.96;-10344.51;0.0476808;-0.02458732;0;
-14401.43;-9389.723;35.23904;-19188.12;-12.13363;12.01592;-15727.39;-7576.031;-0.0823018;-0.1544973;0;
-16517.23;-10788.21;64.11098;-21056.69;-16.20727;13.61132;-17839.58;-8037.292;0.3725523;-0.2193094;0;
-16919.34;-12085.25;-12.38378;-21056.6;-14.31595;10.3156;-17866.68;-8976.131;0.2422433;0.04078033;0;
8394.363;5605.596;-282.7667;8518.832;-17.85154;10.37222;8869.263;3422.301;-0.2777389;0.04073936;0;
19141.4;13761.35;-233.7102;23409.53;-12.34125;6.543888;20469.34;11138.86;-0.1475251;-0.02426892;0;
16150.21;11464.93;-17.27152;20296.96;-9.514831;5.666534;17304.34;9220.904;0.04752515;-0.08921187;0;
17346.73;12618.15;-20.25266;21410.6;-28.19314;3.115489;18521.29;10339.87;0.2423794;0.2357145;0;
18268.71;13076.38;44.06349;22439.06;-31.71479;1.303941;19427.23;10391.57;0.3071032;0.495347;0;
2086.156;830.7947;377.461;2992.103;-24.5166;8.804476;1980.357;-158.1019;-0.01804207;0.1050452;0;
-18561.86;-13318.65;333.3849;-22183.83;-27.17128;10.53718;-19903.56;-9996.701;-0.01802394;-0.08996236;0;
-13693.49;-9045.03;52.94074;-18511.86;-13.07781;9.387887;-15025.26;-7320.199;0.1119289;-0.284774;0;
-16054.35;-10515.53;118.542;-20595.96;-9.91586;9.579403;-17386.74;-7810.453;-0.0181183;-0.4144225;0;
-16160.33;-11551.2;36.10493;-20379.68;-15.39825;13.65561;-17127.59;-8573.015;-0.2779694;-0.02420207;0;
8964.991;5902.092;-260.9071;8986.375;-13.4404;13.97681;9412.941;3642.276;-0.2127228;0.1057569;0;
19177.67;13817.91;-220.2902;23437.83;-26.68976;11.1496;20499.69;11231.82;0.2422623;-0.2841534;0;
16200.52;11531.28;-2.381392;20352.25;-30.14557;10.40159;17357.42;9278.88;0.5018883;-0.4138025;0;
17424.93;12680.5;-12.29589;21472.79;-32.99566;1.683599;18593.74;10405.49;0.1765473;-0.08855005;0;
18449.05;13276.22;47.40521;22622.99;-37.98635;-1.466291;19612.05;10602.88;-0.08349951;0.106441;0;
2264.966;935.9518;381.752;3172.629;-27.5657;-4.880825;2164.952;-89.35876;0.04651907;0.04136666;0;
-18515.99;-13315.36;328.3013;-22148.43;-26.7347;-7.957075;-19860.21;-10007.46;-0.01849501;-0.2835116;0;
-13478.75;-8858.727;6.632977;-18327.74;-27.17635;-4.800942;-14815.72;-7186.938;-0.1484111;-0.1532921;0;
-15862.74;-10335.64;30.98907;-20438.92;-24.46973;-5.398965;-17209.63;-7780.539;0.04664004;0.3016334;0;
-16249.41;-11496.62;-37.03914;-20388.74;-30.00484;1.304631;-17190.79;-8592.699;-0.4081782;0.1713956;0;
8891.681;5950.652;-296.762;9040.335;-29.84097;5.121225;9395.101;3706.663;-0.3428007;-0.1536133;0;
19233.29;13857.93;-228.0138;23503.99;-27.06432;-0.9792451;20560.76;11261.51;0.4371518;0.1064104;0;
16238.46;11579.1;12.65693;20373.72;-26.63499;-1.045244;17387.09;9335.613;0.1118759;0.4311402;0;
17466.52;12726.64;15.43968;21525.28;-22.05387;5.72096;18641.65;10453.73;-0.1481059;-0.02406443;0;
18281.29;13112.49;90.18346;22453.74;-19.55347;6.452024;19441.84;10430.7;0.2418469;-0.348877;0;
2046.459;787.701;416.5069;2942.926;-21.40885;5.440797;1944.606;-194.1173;0.1116692;-0.2185917;0;
-18293.67;-13027.83;341.1417;-21943.35;-20.45031;5.234381;-19644.37;-9734.674;0.1765244;-0.2183721;0;
-13668.04;-8876.246;36.32695;-18487.09;-15.87444;-1.000169;-15006.21;-7105.053;0.5011837;0.2366187;0;
-16560.96;-10900.45;70.7575;-21097.85;-13.84875;-4.348188;-17890.54;-8071.814;0.3707455;0.431283;0;
-16256.71;-11668.2;-15.56712;-20438.47;-13.63474;-2.937178;-17200.2;-8700.103;0.04553621;0.1060129;0;
9120.97;6041.899;-292.5216;9221.526;-12.01345;-3.671039;9605.318;3748.214;-0.3443136;0.3657758;0;
19155.05;13811.37;-256.5581;23432.92;-13.00576;-12.64288;20482.94;11243.01;-0.408935;0.3654083;0;
16273.5;11610.34;-25.18214;20408.45;-12.99269;-15.4434;17425.44;9354.356;-0.08368736;0.1051717;0;
17513.18;12777.74;-4.073687;21568.74;-9.630733;-11.74388;18687.53;10508.97;-0.01863593;0.2350007;0;
18378.33;13218.19;57.0247;22540.18;-9.218915;-12.73682;19536.57;10548.24;0.5011215;0.2997319;0;
2162.974;866.9385;380.383;3016.832;-6.998849;-7.365514;2048.674;-157.9347;0.69552;-0.02540594;0;
-18540.45;-13304.67;333.8833;-22221.83;-5.184131;-6.15242;-19897.93;-10001.22;-0.1497543;-0.2202824;0;
-13551.94;-8910.955;47.87891;-18436.39;-13.55167;-4.538709;-14891.38;-7244.41;-0.5394078;-0.02515907;0;
-16054.69;-10493.14;99.10191;-20669.61;-16.41746;-2.390694;-17392.38;-7904.186;-0.08409446;0.1697682;0;
-16500.85;-11647.88;26.11709;-20668.17;-6.48798;-9.756292;-17452.73;-8698.418;0.04592472;-0.09027172;0;
8729.646;5870.144;-244.7105;8862.636;-4.471729;-11.01917;9212.455;3642.326;-0.01908877;-0.6099197;0;
19198.29;13820;-195.6142;23465.32;-13.1084;-12.28071;20526.46;11223.43;-0.08403693;-0.2195029;0;
16134.63;11487;23.2693;20261.75;-13.89854;-14.34478;17282.77;9245.908;0.1109495;0.3654238;0;
17268.56;12530.13;2.287703;21328.25;-14.82258;-10.71341;18444.2;10259.7;0.1108381;0.2351219;0;
18079.57;12929.47;51.13585;22224.97;-18.425;-9.898848;19232.06;10248.84;0.04575934;0.104951;0;
1609.377;474.7782;391.2885;2413.396;-4.74246;-11.89833;1477.882;-479.2717;0.3055827;-0.1550238;0;
-18941.85;-13578.67;340.1083;-22663.13;-1.455165;-10.61376;-20308.07;-10229.79;0.2403083;-0.2848027;0;
-13904.78;-9123.521;39.44879;-18771.24;-14.85029;-8.325735;-15244.11;-7364.966;0.1101322;-0.08961455;0;
-16580.97;-10919.42;80.23238;-21169.68;-15.37123;-6.240898;-17912.07;-8161.553;-0.01991316;0.1053775;0;
-16585.14;-11851.7;-19.82924;-20823.12;-20.446;-2.751576;-17564.38;-8889.872;-0.01989315;0.04030429;0;
8814.298;5884.218;-310.1634;8865.3;-23.17212;-0.9403939;9248.146;3615.763;-0.1498078;-0.02470355;0;
19000.47;13656.66;-266.4829;23265.7;-20.60324;4.352081;20323.6;11082.22;-0.2146247;0.1702233;0;
16120.68;11460.25;-44.79517;20242.33;-23.99879;6.290213;17273.54;9210.019;-0.08447432;0.1050849;0;
17437.06;12709.98;-42.47005;21482.43;-9.305295;9.632916;18608.54;10444.81;0.2404473;-0.15489;0;
18291.57;13145.02;27.3032;22432.53;-5.411179;13.17321;19438.82;10471.49;0.4351077;-0.08976706;0;
1755.93;581.8506;369.2757;2560.857;-17.46218;1.706259;1602.318;-387.3339;0.04486645;0.1701925;0;
-18878.88;-13612.44;310.9651;-22578.24;-17.24356;0.364886;-20250.46;-10273.05;-0.08511332;0.4948582;0;
-13513.13;-8963.596;24.10913;-18371.28;-24.05874;0.6994341;-14847.51;-7294.786;0.3047763;0.5593283;0;
-16349.22;-10796.73;92.34747;-20922.61;-26.51281;-2.516327;-17683.31;-8127.533;0.04460065;0.2339296;0;
-16907.81;-12025.24;-2.6976;-21089.96;-27.15576;11.01639;-17844.11;-8999.643;0.1095232;0.3636292;0;
8678.293;5829.017;-301.8102;8760.943;-30.54472;13.7515;9167.827;3619.702;0.1743805;0.2982965;0;
19109.42;13739.31;-263.5104;23372.84;-16.91638;9.182961;20436.66;11148.59;-0.02069678;-0.09180728;0;
16107.59;11465.67;-29.30069;20241.15;-12.94824;10.51339;17258.44;9228.161;0.1092587;-0.09171504;0;
17445.85;12717.26;-3.174995;21501.18;-19.90145;7.086821;18619.09;10455.83;-0.4105898;-0.2865249;0;
18219.63;13072.46;63.60713;22378.41;-17.80437;7.0797;19373.41;10395.35;-0.2802426;-0.3512043;0;
1606.364;506.2704;380.259;2450.85;-19.79622;3.120594;1488.553;-430.6293;0.7595164;0.1688873;0;
-18869.71;-13494.14;315.4406;-22535.18;-20.51326;0.7731775;-20222.39;-10151.61;-0.02085478;0.3636196;0;
-13849.84;-9068.517;29.04866;-18659.49;-11.85148;4.523323;-15181.42;-7329.133;-0.6055399;0.03841753;0;
-16674.06;-11006.21;83.49209;-21216.48;-9.696122;2.442429;-17997.34;-8231.296;0.239644;-0.3514251;0;
-16385.04;-11798.87;-20.18036;-20621.23;-14.5765;10.87958;-17344;-8854.535;0.5642399;-0.4160393;0;
9057.413;5989.911;-320.7434;9089.881;-15.90102;13.54784;9513.112;3704.99;0.4337383;-0.1557519;0;
18961.22;13627.35;-267.557;23235.16;-9.790453;1.410686;20285.81;11064.93;-0.02146894;0.2342086;0;
16036.24;11402.08;-30.40726;20173.14;-8.374096;0.1365928;17188.7;9157.636;0.04351997;0.1690059;0;
17334.57;12599.86;-29.23665;21395.98;-14.92976;-4.418262;18507.98;10343.24;0.4982476;-0.02606591;0;
18060.05;12934.69;49.6281;22210;-14.2442;-7.762908;19210.64;10260.24;0.302845;0.1688623;0;
1249.669;269.4944;387.9706;2039.17;-23.1385;-3.535244;1110.93;-638.9528;-0.2821654;0.1037253;0;
-19330.26;-13853.82;318.1157;-23020.11;-27.06736;-4.87135;-20692.88;-10450.74;-0.6067186;-0.2212157;0;
-13772.01;-9068.155;25.5055;-18598.77;-12.84027;-1.115533;-15101.72;-7398.079;-0.4112069;-0.02609134;0;
-16413.1;-10746.48;80.21798;-20968.33;-11.75564;-0.1096686;-17737.79;-8118.123;0.2388797;0.4287063;0;
-16631.05;-11780.25;12.82746;-20773.21;-3.90695;-2.587805;-17562.23;-8877.049;0.108705;0.2983408;0;
8753.904;5886.34;-241.8074;8887.325;2.527337;-2.25029;9248.148;3628.917;-0.216241;0.1681064;0;
18937.72;13574.14;-178.7991;23216.17;-15.76093;-3.520705;20265.19;11004.55;0.04384566;0.2329048;0;
15850.67;11226.39;41.33245;19981.4;-18.96028;-2.713372;16997.04;8992.072;-0.02116574;-0.2221006;0;
17080.48;12337.62;14.72615;21151.08;-7.286927;-9.006919;18258.16;10083.41;-0.3459812;-0.3518122;0;
17787.84;12683.97;76.27415;21922.79;-7.145883;-10.94037;18930.26;9999.608;-0.2806662;0.03834541;0;
620.6032;-155.6427;404.7667;1370.424;-8.075732;-3.427415;473.556;-985.0637;0.04445253;-0.1565951;0;
-19878.58;-14219.9;317.5599;-23602.07;-7.130589;-2.285261;-21239.93;-10782.3;0.1743425;-0.5462418;0;
-14465.67;-9492.154;22.40464;-19258.56;-10.00284;1.802872;-15796.45;-7635.547;0.04423269;-0.545693;0;
-17438.98;-11598.38;78.05727;-21954.41;-9.189478;5.217068;-18762.85;-8557.033;0.1741229;-0.1553406;0;
-16853.65;-12202.01;-24.00115;-21089.15;-13.93567;3.805185;-17816.16;-9170.7;0.04401328;0.2346195;0;
8921.823;5919.288;-306.6318;8951.533;-16.7347;6.145764;9367.959;3616.545;-0.345835;0.5592205;0;
18720.66;13381.27;-242.6838;23001.33;-2.920136;6.273554;20040.52;10834.7;-0.3454875;0.4936912;0;
15809.67;11188.83;-7.823545;19941.03;-0.5726768;6.870097;16956.6;8943.184;-0.280173;0.1683585;0;
17159.41;12406.83;2.491635;21220.37;-2.715555;11.41791;18334.7;10155.94;0.04494522;0.2331567;0;
17683.97;12611.58;76.82677;21801.76;0.1002125;11.9423;18819.51;9930.049;0.3047694;0.362857;0;
291.7159;-344.3979;384.0951;991.7546;-9.478082;15.21234;115.9594;-1149.989;-0.08534086;0.2325578;0;
-20380.36;-14587.39;282.8067;-24133.27;-10.74136;16.53672;-21753.35;-11096.24;-0.1502225;0.1673568;0;
-14703.85;-9661.204;-7.097477;-19528.59;-12.53922;11.69745;-16029.58;-7819.748;0.1097979;0.2321559;0;
-17425.12;-11506.56;70.05837;-21969.28;-17.2147;11.08285;-18750.6;-8507.696;-0.08521449;-0.09291406;0;
-17052.68;-12229.07;-18.73305;-21228.86;1.556845;6.918896;-18000.79;-9171.107;-0.2150635;-0.6125594;0;
8718.712;5850.23;-302.4466;8823.127;6.043259;4.567541;9189.884;3585.06;-0.2798148;-0.5469766;0;
18741.55;13388.43;-235.8948;23021.88;-8.363778;6.974337;20066.79;10831.05;-0.2145663;-0.09165559;0;
15618.79;10996.99;6.642353;19744.47;-8.489096;6.230517;16761.79;8757.077;-0.1493834;-0.2864655;0;
16857.33;12110.47;-0.9854903;20929.4;-10.82509;7.563915;18033.8;9859.438;-0.1492333;-0.4810797;0;
17613.16;12549.84;49.006;21721.26;-12.15436;8.493954;18744.31;9865.539;-0.1490833;0.1041098;0;
165.9091;-455.7098;377.9164;869.2437;-9.730273;6.208122;-7.604298;-1237.298;-0.2788682;0.2989072;0;
-20509.52;-14764.72;297.7643;-24266.42;-9.654123;5.599037;-21880.74;-11279.96;-0.5384573;-0.4160339;0;
-14976.14;-9905.674;-10.14593;-19819.2;-6.965106;9.009418;-16297.63;-7913.405;-0.472949;-1.000322;0;
-18130.65;-12174.56;48.085;-22656.28;-7.02448;8.665452;-19429.52;-8893.488;0.047265;-0.6095127;0;
-17385.49;-12676.24;-43.30803;-21634.05;0.4173175;10.66623;-18373.06;-9534.538;0.2421195;0.4305771;0;
8791.676;5845.365;-311.0674;8760.155;2.291932;11.92819;9178.42;3567.274;-0.08296046;0.6900138;0;
18626.02;13286.67;-239.8217;22894.67;-3.939661;0.9312483;19941.8;10743.75;-0.1478444;0.03964709;0;
15692.88;11073.25;-29.38955;19830.91;-6.011807;-2.552678;16845.71;8824.729;-0.1476959;-0.09032743;0;
17116.4;12370.47;-38.80839;21173.06;-9.28732;1.200809;18287.65;10126.48;-0.4723842;0.03969802;0;
17665.32;12596.4;42.47102;21783.69;-12.35945;0.06089283;18800.49;9907.726;-0.5368769;-0.4151132;0;
44.28259;-524.5699;369.186;737.884;-18.91111;-2.015639;-146.7155;-1292.995;-0.2115007;-0.5446308;0;
-20588.63;-14773.88;288.5741;-24329.8;-21.16929;-2.549355;-21969.02;-11294.03;-0.01638617;0.04062249;0;
-14705.99;-9672.389;-1.851276;-19533.94;-29.25331;-2.814725;-16029.55;-7850.217;0.04859763;0.105549;0;
-17559.37;-11632.62;54.41917;-22124.72;-31.76854;-3.079829;-18888.21;-8566.121;0.1135161;-0.1544264;0;
-17052.55;-12249.02;-35.16862;-21221.14;-23.09643;0.2722902;-18012.95;-9190.898;-0.1464673;0.1055981;0;
8850.387;5976.259;-298.048;8975.846;-20.46126;1.611675;9308.492;3690.881;-0.08135277;0.1704594;0;
18688.68;13337;-235.9202;22982.33;-14.01033;1.409107;20012.93;10791.95;0.308533;0.1053207;0;
15599.62;10989.43;-24.82042;19728.64;-11.11587;3.082143;16743.29;8748.217;0.1782883;0.3650843;0;
17007.56;12249.27;-48.2212;21087.7;3.162543;-1.006791;18185.46;10004.17;0.04817449;0.03988073;0;
17671.67;12632.03;19.48074;21769.33;8.852792;-2.613248;18798.08;9943.28;-0.01684125;-0.1550614;0;
-74.49937;-591.3546;371.2375;580.8167;1.609252;5.226137;-268.1519;-1333.501;0.3080124;-0.2848402;0;
-20926.12;-15013.45;300.7434;-24676.88;2.210848;6.426579;-22300.39;-11525.85;0.6325396;-0.6743581;0;
-15522.34;-10126.19;4.324478;-20299.85;-6.231467;1.865404;-16838.03;-8175.384;-0.0177694;-0.2838764;0;
-18651.24;-12502.25;56.38771;-23149.09;-8.36866;1.059734;-19957.11;-9173.367;-0.08271889;-0.02372183;0;
-17639.84;-12891.66;-53.67615;-21885.74;-22.96131;-0.08004072;-18610.83;-9717.277;0.04729891;-0.1536327;0;
8685.813;5824.832;-325.6417;8675.872;-30.97619;-1.352636;9105.4;3544.669;-0.2775853;0.04142372;0;
18546.72;13201.78;-249.4933;22825.32;-15.20493;-3.829523;19868.38;10658.48;-0.1473717;-0.02358524;0;
15560.73;10952.78;-16.04729;19694.18;-14.98858;-5.634214;16710.34;8712.277;0.04767838;0.1063731;0;
16993.51;12228.44;-12.6891;21064.05;-11.3562;-5.226656;18174.24;9985.41;0.3724672;0.236201;0;
17478.85;12464.63;63.14492;21568.65;-7.125229;-5.690284;18602.01;9773.899;0.6969296;0.1709963;0;
-557.4818;-956.8779;388.0275;72.97938;-12.74415;-8.095891;-764.3029;-1626.633;0.3713926;0.3007591;0;
-21530.86;-15485.72;294.4189;-25296.29;-11.59324;-8.891491;-22906.76;-11928.6;-0.08375192;0.6252936;0;
-16106.1;-10512.14;-10.53635;-20904.78;-9.237069;-7.475976;-17409.56;-8446.719;-0.01870042;0.4947307;0;
-19410.72;-13086.48;20.25564;-23901.97;-9.160439;-7.937345;-20681.32;-9531.494;0.04628571;0.1044295;0;
-18375.32;-13412.47;-92.98905;-22636.31;-4.664232;-4.647266;-19343.69;-10100.64;-0.2136302;0.1692919;0;
8382.564;5725.766;-341.8954;8301.721;-2.448742;-3.168972;8765.303;3483.872;-0.08348083;0.1691218;0;
18567.63;13211.64;-254.9548;22819.58;-10.95275;-8.859216;19883.64;10668.35;0.2414398;-0.02595016;0;
15524.57;10897.85;-17.61469;19657.01;-12.7504;-10.39092;16677.56;8654.624;0.04629514;-0.2208261;0;
16908.47;12165.74;-6.165231;20970.49;-9.38869;-6.964412;18085.49;9925.8;-0.08368606;-0.1556369;0;
17464.85;12421.5;82.51514;21539.28;-11.18792;-7.158363;18588.91;9723.126;0.2412347;0.1043889;0;
-828.499;-1196.747;412.0634;-238.5359;-3.942031;-8.758699;-1042.235;-1792.298;0.176025;-0.02565071;0;
-21847.68;-15799.03;308.7324;-25636.06;-1.527172;-8.013147;-23227.35;-12157.66;-0.4088579;-0.2854943;0;
-16120.66;-10652;16.66254;-20918.27;-7.352787;-14.23433;-17422.45;-8535.166;-0.4084471;-0.02533807;0;
-19387.48;-13159.63;70.44688;-23900.18;-4.867152;-15.96158;-20660.91;-9550.122;-0.01823266;0.2995241;0;
-18173.72;-13335.04;-53.68655;-22437;-15.84697;-8.644584;-19136.96;-10043.43;0.046753;-0.02561357;0;
8613.628;5828.948;-327.9947;8571.566;-19.44837;-7.162273;9006.59;3553.427;-0.01826132;-0.3504245;0;
18492.96;13145.94;-251.9063;22761;-1.410545;-5.346599;19807.93;10616.52;-0.1481777;-0.2201377;0;
15552.66;10925.97;-24.75164;19679.66;1.135491;-2.929841;16701.6;8674.576;-0.2779635;-0.1549492;0;
17126.09;12386.87;-23.24314;21179.54;4.751673;-2.725948;18298.8;10147.57;-0.3426515;-0.5445976;0;
17576.88;12522.92;70.24886;21679.01;8.832735;-1.383672;18703.27;9832.994;-0.01747049;-0.4141157;0;
-449.8551;-858.1514;399.4815;180.6806;2.862989;-0.4445208;-657.7277;-1575.891;0.1124818;0.2359739;0;
-20847.9;-14951.47;292.946;-24644.26;3.194905;-0.57804;-22227.94;-11469.26;-0.1475006;0.1058021;0;
-15056.91;-9948.767;12.54239;-19860.4;-0.5593495;2.771688;-16368.78;-7943.764;0.0475496;-0.219141;0;
-18422.79;-12382.63;77.70016;-22940.28;-3.640246;3.773524;-19733.82;-8990.267;0.3073712;-0.02401874;0;
-17255.68;-12509.78;-43.28589;-21470.5;-0.3540589;-0.6510188;-18231.62;-9431.023;-0.1477091;-0.08896195;0;
9097.777;6169.376;-322.8206;9149.315;-1.359057;-0.4494158;9517.366;3845.581;-0.2774953;-0.3487419;0;
18738.36;13400.26;-253.6402;23019.91;-5.912043;-7.348023;20057.3;10881.6;0.04762022;-0.5432935;0;
15782.87;11161.02;-30.27877;19907.65;-6.844108;-10.62274;16928.8;8903.89;0.04757237;-0.4128129;0;
17297.07;12566.89;-39.61863;21365.49;-10.25348;-0.8997877;18471.79;10332.22;-0.01744277;0.1073406;0;
17805.16;12725.9;38.83488;21894.81;-12.38566;-0.496986;18928.53;10030.08;0.1125094;0.1722001;0;
-16.23419;-539.4627;374.6583;588.1351;-4.8721;1.111104;-233.8945;-1252.63;0.1123964;0.1070597;0;
-20180.75;-14418.91;301.4122;-23980;-3.325987;2.918405;-21577.67;-10972.97;0.04731611;0.2368868;0;
-14280.65;-9391.663;26.88781;-19081.45;-5.332376;-0.7014843;-15620.56;-7638.395;0.1122359;0.1716814;0;
-17495.74;-11609.53;78.24122;-22051.89;-4.322641;0.4379304;-18844.14;-8505.171;-0.08277889;0.4963457;0;
-16415.23;-11835.03;-17.92972;-20540.78;-6.059609;-5.523869;-17355.92;-8865.486;-0.2775978;0.4308796;0;
9435.688;6337.301;-269.5821;9675.522;-6.522035;-6.924899;9927.614;3981.671;-0.4722208;-0.08929211;0;
18761.33;13443.67;-206.1398;23084.27;-3.903514;-3.166957;20083.94;10923.96;-0.2768443;-0.02423505;0;
15827.79;11212.43;-2.644257;19934.21;-3.028935;-3.833605;16961.05;8962.886;0.1782053;0.2356587;0;
17368.27;12628.29;-12.7459;21442.15;-9.321555;3.806058;18542.84;10383.94;0.5028629;-0.02444749;0;
17824.24;12751.1;89.38745;21906.69;-11.99151;6.280602;18939.44;10059.56;0.3074556;-0.1543576;0;
150.4521;-508.5395;419.1943;740.9763;-1.999122;2.724318;-82.94427;-1244.327;-0.0826574;0.1056669;0;
-19946.71;-14219.53;302.7377;-23768.42;0.8822985;2.788563;-21367.51;-10809.49;-0.2774764;0.3654301;0;
-14596.09;-9509.178;16.49909;-19396.85;-9.098923;2.651795;-15948.62;-7658.345;-0.3421649;0.2351282;0;
-18152.4;-12155.66;82.46497;-22721.83;-9.357224;1.577404;-19515.48;-8919.137;-0.1469191;0.0399899;0;
-16704.64;-12116.03;-27.76565;-20864.36;-5.998919;-0.433669;-17678.88;-9149.977;-0.1467714;-0.08998497;0;
9387.629;6322.247;-296.2747;9624.697;-5.122235;-1.237028;9854.206;3946.639;-0.536428;0.04004014;0;
18695.31;13375.44;-224.9033;23014.35;0.5763387;-8.201827;20008.99;10853;-0.340987;0.429804;0;
15734.36;11125.66;3.161288;19823.15;3.924662;-10.60491;16857.24;8862.462;-0.1457423;-0.09036665;0;
17233.67;12491;2.361637;21308.71;5.663007;-9.589511;18400.1;10237.92;-0.2755306;-0.3501452;0;
17700.56;12641.67;82.60018;21766.35;8.135563;-11.38835;18804.34;9936.938;0.1145503;0.1699454;0;
-169.2836;-742.9396;419.3635;365.9156;11.27522;-3.875005;-440.0832;-1463.211;0.3743046;0.0398399;0;
-20416.23;-14593.54;315.3535;-24293.01;11.73241;-2.062694;-21891.89;-11191.58;-0.01587555;-0.1551022;0;
-14913.16;-9702.409;-0.1330154;-19751.07;16.00752;-2.730329;-16316.53;-7854.854;-0.0158596;0.03995572;0;
-18432.18;-12348.43;47.843;-23025.38;15.79037;-0.7852024;-19843.12;-9076.063;-0.08081101;-0.02505177;0;
-16915.35;-12274.34;-65.08583;-21138.69;10.55057;-2.994728;-17944.69;-9310.898;-0.4055665;0.1698754;0;
9323.761;6319.732;-324.8586;9481.721;8.798653;-1.853131;9749.762;3934.772;-0.3401917;0.4945415;0;
18652.26;13327.83;-240.7618;22957.45;-5.745851;-6.27196;19955.36;10795.13;-0.4048172;-0.02569421;0;
15719.83;11114.15;-31.1251;19807.57;-12.50523;-7.873248;16833.6;8838.874;0.05036098;-0.1556031;0;
17262.36;12520.35;-40.19862;21321.34;-9.210136;-0.832312;18414.59;10252.95;0.5050818;0.6891288;0;
17594.65;12546.51;50.31192;21641.38;-10.87582;-0.3625952;18681.16;9826.903;0.3096722;0.1037302;0;
-501.6297;-939.3686;377.347;-29.86992;-16.89311;3.321708;-816.0525;-1643.086;0.3743284;-0.5460474;0;
-20646.63;-14726.95;275.2533;-24601;-18.41638;6.064671;-22178.71;-11342.14;0.3089849;-0.09072738;0;
-14976.55;-9727.951;-19.18791;-19883.36;-10.82941;0.4321328;-16433.76;-7884.145;-0.01616223;-0.09063622;0;
-18304.33;-12193.89;38.70853;-22997.95;-9.478386;0.8335962;-19782.18;-8933.456;0.3086907;-0.0255778;0;
-16480.05;-11967.23;-62.37333;-20764.33;-1.498259;-0.03801949;-17547.7;-9108.685;0.04851118;0.4292193;0;
9554.539;6434.072;-318.2601;9726.971;1.7848;-1.37764;9984.794;3993.574;-0.601211;0.4937554;0;
18547.43;13233.81;-236.3095;22841.69;3.324224;4.719069;19843.46;10710.95;-0.2108028;0.2333899;0;
15574.17;10973.46;-21.19568;19625.83;7.808863;5.317174;16675.6;8674.392;-0.08065633;-0.02671403;0;
17076.87;12332.62;-36.83839;21119.84;-9.949827;5.311831;18219.76;10057.82;-0.21051;0.1032475;0;
17467.14;12426.48;55.80833;21485.19;-14.49418;5.90934;18550.97;9705.104;0.1145383;0.2330784;0;
-698.9896;-1079.752;388.0696;-304.0241;-5.102494;2.554378;-1010.271;-1842.644;0.2443579;0.1678769;0;
-20891.36;-14948.88;270.5042;-24967.23;-6.101745;1.547067;-22460.24;-11620.74;0.4390143;0.1027409;0;
-14650.47;-9518.053;-26.47786;-19686.33;-6.229336;0.2728369;-16164.46;-7863.739;0.3086385;0.0376703;0;
-17669.07;-11608.06;48.57353;-22460.77;-7.02736;-1.000113;-19190.71;-8662.089;-0.0165083;-0.02733489;0;
-16345.38;-11732.9;-52.72126;-20687.47;0.8165822;-1.334023;-17448;-8972.959;-0.08145905;0.1026273;0;
9510.554;6454.295;-318.2692;9651.592;5.170018;-1.064751;9929.799;4043.441;-0.1463445;0.2324588;0;
18691.05;13370.17;-227.6822;22975.77;-10.2415;-5.283484;19984.96;10822.3;-0.2111648;0.1022906;0;
15632.92;11036.56;3.00883;19683.48;-13.78118;-6.617772;16724.06;8743.915;-0.1459853;-0.0277469;0;
17134;12391.43;-6.895466;21169;-2.84899;2.096476;18276.37;10111.66;-0.08087128;0.167183;0;
17498.18;12462.29;73.82089;21502.31;-3.917855;4.572616;18563.23;9729.886;-0.2107247;0.2969497;0;
-665.1835;-1038.371;394.7416;-309.8716;-0.832459;3.831209;-1033.05;-1745.409;-0.2754803;0.231684;0;
-20583.63;-14661.15;282.2607;-24690.26;1.310855;5.501933;-22187.94;-11327.29;-0.08030149;0.1664838;0;
-14793.3;-9563.725;-16.40419;-19796.02;-11.34914;5.965284;-16315.23;-7859.397;0.04971389;-0.2234875;0;
-18236.41;-12091.79;47.98619;-22998.36;-12.94532;6.093256;-19767.59;-8976.591;-0.1452381;-0.2882303;0;
-16267.6;-11829.97;-52.1055;-20592.15;-14.07139;8.699347;-17363.33;-9038.77;-0.01515747;0.2317981;0;
9735.696;6543.827;-321.5271;9928.822;-15.12898;9.762332;10166.89;4095.106;0.2447271;0.4264672;0;
18543.14;13247.43;-259.7036;22848.14;-15.91709;4.527976;19836.22;10713.37;0.1795139;0.101202;0;
15559.04;10965.11;-55.62328;19603.63;-20.188;4.121529;16647.74;8664.235;0.1143662;0.1660676;0;
17126.44;12383.03;-56.56688;21171.87;6.021269;1.84009;18267.44;10103.25;-0.1456181;0.03596607;0;
17406.3;12379.7;53.90321;21414.92;13.78573;0.4315993;18470.26;9644.859;-0.01553712;-0.4838088;0;
-745.3218;-1086.214;395.1931;-376.9691;-7.729036;6.52649;-1116.437;-1781.796;0.3093152;-0.09351862;0;
-20500.71;-14569.58;300.0468;-24593.76;-7.922341;7.658642;-22110.95;-11225.91;-0.08079965;0.03651003;0;
-14548.18;-9402.779;3.425457;-19565.58;-17.22513;10.12919;-16074.21;-7759.605;-0.4705225;-0.2883634;0;
-18014.45;-11889.11;50.13291;-22783.32;-24.44149;12.26247;-19550.6;-8848.694;-0.145213;0.1666978;0;
-16247.73;-11693.35;-48.08687;-20523.35;-8.408378;10.37463;-17347.02;-8915.219;-0.01513243;0.296465;0;
9677.836;6557.936;-297.2258;9933.361;-6.591267;10.29722;10114.46;4131.249;-0.3399539;0.3611344;0;
18588.75;13285.95;-217.2953;22910.12;-18.70843;13.97081;19886.79;10751.55;-0.274645;0.5556736;0;
15520.36;10926.31;-3.621748;19579.95;-19.15913;15.09548;16613.72;8637.678;-0.1444343;0.1653112;0;
16997.23;12259.34;-19.67254;21068.44;-18.20187;9.252922;18149.2;9989.377;-0.3391913;0.03521039;0;
17374;12342.71;60.04155;21378.91;-18.45102;8.506812;18439.2;9611.681;0.1808883;0.2950444;0;
-892.5176;-1305.106;380.7731;-496.1931;-12.67268;5.216223;-1246.585;-1917.421;0.5055432;0.03487854;0;
-20857.68;-14953.79;284.1107;-24872.18;-12.05674;2.330837;-22422.02;-11522.56;-0.07967079;-0.09509119;0;
-15112.22;-9819.605;2.232453;-20042.8;-1.729495;11.77285;-16590.27;-8008.863;-0.4693948;0.1648737;0;
-18727.84;-12530.09;55.70333;-23406.28;3.764599;13.83736;-20201.04;-9245.128;-0.2740211;0.03477338;0;
-16520.06;-12052.89;-59.18554;-20759.17;-8.564043;8.330982;-17582.86;-9223.376;-0.2087784;0.1646731;0;
9740.49;6587.529;-325.4453;9994.961;-8.220646;8.791492;10168.7;4140.351;-0.273536;0.229475;0;
18485.02;13183.89;-237.1313;22823.23;-9.216763;10.39025;19788.72;10677.18;-0.2082938;-0.03062494;0;
15456.12;10868.17;-1.074065;19518.45;-10.74774;11.71947;16562.84;8581.473;-0.6628559;-0.09556151;0;
17062.8;12317.24;-10.11532;21135.54;-2.698992;10.23407;18223.13;10061.1;-0.7271572;-0.1604328;0;
17287.05;12272.53;74.21184;21295.65;-1.223388;10.22378;18360.35;9549.041;-0.3366225;0.09959774;0;
-1197.005;-1386.376;399.0208;-818.3124;3.801683;15.17013;-1540.29;-1978.139;-0.1413822;0.09949766;0;
-20855.75;-14822.93;272.8081;-24865.03;8.084771;15.82471;-22392.18;-11384.94;0.1186292;-0.420341;0;
-14673.51;-9518.165;-35.74851;-19571.32;2.182149;20.49749;-16123.87;-7785.786;-0.01142469;-0.09508198;0;
-18339.06;-12172.4;38.90615;-22988.14;2.381027;23.22308;-19788.08;-8973.643;-0.2712826;0.2948176;0;
-16345.83;-11810.21;-44.37235;-20514.23;5.593816;16.56868;-17358.62;-9019.427;-0.1410753;0.229554;0;
9829.759;6690.523;-309.9911;10158.16;3.176321;16.2841;10305.77;4236.883;-0.2059009;0.5541601;0;
18602.73;13308.19;-241.9637;22949.91;13.42188;13.72238;19916.61;10811.87;-0.3356287;0.4886359;0;
15520.05;10921.49;-17.75499;19587.73;15.75292;10.76147;16630.85;8642.993;-0.07542208;-0.1615285;0;
17096.2;12366.21;-15.12909;21179.6;-0.7409513;17.18089;18263.22;10119.75;0.2494904;-0.3562682;0;
17475.21;12427.79;84.3986;21492.36;-3.620595;16.4938;18558.21;9712.188;0.3791744;-0.2259755;0;
-727.5006;-1115.72;403.5752;-342.5568;-9.243035;15.60645;-1058.632;-1776.974;0.118924;-0.09581379;0;
-20409.38;-14475.04;273.3443;-24421.8;-13.18586;16.05965;-21934.45;-11200.73;-0.2060322;0.03421716;0;
-14772.21;-9477.437;-24.23403;-19646.86;-10.02381;8.273613;-16195.41;-7782.471;0.3788809;-0.03078456;0;
-18473.56;-12267.3;42.83474;-23114.34;-10.88439;6.992746;-19885.35;-8966.724;0.7683042;0.03421371;0;
-15972.46;-11612.5;-66.01299;-20138.57;-5.649517;3.234675;-16918.26;-8826.967;0.4426956;0.03417934;0;
10088.07;6831.603;-328.5959;10446.12;-3.902528;0.4182639;10626.59;4340.257;0.3772834;0.1640797;0;
18573.84;13297.63;-247.8218;22930.51;2.665477;7.986671;19894.17;10820.96;0.311937;0.2288822;0;
15691.6;11094.9;-37.19413;19757.79;6.815985;8.782441;16802.88;8823.293;-0.2730825;-0.09618454;0;
17279.23;12544;-37.76582;21373.1;2.522228;10.98405;18456.91;10302.62;-0.4677102;-0.03112055;0;
17442.18;12404.19;72.49797;21469;2.989184;13.04937;18527.12;9697.876;0.05249853;0.03387806;0;
-709.0729;-1164.395;404.5863;-316.9886;2.048176;10.29008;-1024.853;-1770.234;0.1174131;-0.2260253;0;
-20438.32;-14542.69;296.6557;-24429.5;0.03638578;10.34672;-21932.92;-11136.53;0.2472298;-0.1608309;0;
-15071.06;-9736.124;7.471556;-19903.3;1.912359;9.465544;-16458.81;-7876.408;0.3769161;0.2941021;0;
-18941.64;-12694.01;72.10343;-23541.08;1.843089;8.25034;-20325.31;-9263.059;0.116668;0.2288393;0;
-16451.39;-11963.32;-39.44423;-20619.34;-8.607613;8.041101;-17437.75;-9100.094;-0.07835125;-0.0962274;0;
9897.978;6753.241;-319.4513;10230.74;-11.81414;7.430297;10372.54;4304.317;-0.01330519;-0.161098;0;
18642.02;13350.76;-239.7015;22999.01;-8.52072;4.073685;19966.16;10881.17;0.2465775;-0.0310015;0;
15603.03;11003.77;-0.2996353;19668.42;-9.784956;3.667694;16727.52;8734.137;0.3112971;0.3588337;0;
17184.19;12457.32;-11.34066;21270.86;-5.152447;1.051796;18363;10229.56;-0.07881971;0.5533752;0;
17588.83;12543.42;63.53935;21605.13;-3.540656;-0.690817;18684.76;9839.642;0.05119417;0.1630151;0;
-775.6952;-1167.481;387.6251;-391.702;-2.129603;7.950431;-1076.642;-1755.609;0.2460448;-0.09701808;0;
-20534.94;-14643.21;273.4803;-24524.96;0.95302;9.550034;-21993.83;-11225.41;0.1158628;-0.03195325;0;
-14638.1;-9469.772;-14.80601;-19505.69;-3.000052;9.205523;-15993.98;-7725.668;0.05077908;-0.3567578;0;
-18536.3;-12394.47;48.05228;-23146.81;-2.125406;10.268;-19888.88;-9101.538;-0.01423928;-0.4863341;0;
-16314.06;-11878.41;-71.18609;-20419.54;0.2876272;9.855784;-17246.72;-9026.551;-0.2740943;-0.2909434;0;
9991.771;6776.093;-334.1542;10371.55;0.08626741;10.71666;10501.69;4343.944;-0.3387863;-0.03078166;0;
18566.38;13274.69;-247.0964;22921.66;6.783986;3.940737;19895.11;10796.58;-0.07857649;0.1641513;0;
15505.16;10923.49;-21.74254;19567.8;7.916245;1.927412;16635.38;8670.673;-0.4033342;-0.09588301;0;
17157.03;12412.65;-42.80385;21256.37;8.778947;2.394234;18344.78;10185.24;-0.6627983;-0.4206234;0;
17296.05;12284.49;35.1375;21295.17;10.57879;0.2484961;18386.28;9581.353;-0.207361;-0.5501354;0;
-1264.239;-1528.231;382.0528;-918.9628;2.663928;5.941674;-1564.156;-2014.107;0.05271676;-0.4196479;0;
-20658.22;-14680.71;294.6814;-24637.49;1.790595;7.208379;-22093.09;-11168.89;0.05266379;-0.2892916;0;
-14837.21;-9623.008;17.96174;-19647.81;-3.569839;5.45958;-16172.26;-7752.938;0.2475129;-0.0940989;0;
-19027.26;-12844;61.90596;-23614.41;-8.053254;7.329616;-20371.68;-9371.861;0.3771989;0.3607671;0;
-16373.97;-11961.64;-83.83302;-20505.17;3.274343;3.035344;-17313.34;-9098.608;-0.01298418;0.2304699;0;
10097.23;6876.623;-333.1547;10467.6;3.605845;2.831345;10595.75;4417.854;-0.4027752;0.360173;0;
18540.4;13254.08;-226.6233;22911.49;4.807671;7.383217;19869.53;10799.89;-0.4023705;0.7496151;0;
15492.95;10907.58;-9.910643;19570.03;8.621233;7.777696;16623.73;8642.01;-0.07712946;0.09918848;0;
17142.53;12406.06;-18.59944;21244.42;-3.511218;14.46805;18327.71;10186.62;-0.01208462;-0.1607805;0;
17363.09;12344.28;75.29394;21381.85;-3.641412;17.46775;18461.28;9639.533;-0.4018765;0.03428302;0;
-1169.671;-1397.428;390.6691;-778.9741;-3.57138;12.82837;-1460.293;-1903.199;-0.1416034;-0.09568611;0;
-20469.56;-14524.74;277.7238;-24415.53;-6.046038;13.21738;-21900.27;-11050;0.248343;0.03434472;0;
-14407.01;-9314.957;5.284621;-19215.35;9.299006;13.73996;-15752.28;-7601.813;-0.07674327;-0.03065713;0;
-18383.22;-12239.54;71.05875;-22977.48;11.09832;13.39124;-19750.17;-8980.478;0.1182359;-0.2904957;0;
-15833.25;-11477.19;-52.34129;-19873.43;14.83822;12.03825;-16734.58;-8722.954;-0.271687;-0.1602691;0;
10263.51;6969.533;-333.6004;10759.37;17.83742;10.35158;10826.97;4498.607;-0.5962507;-0.09514074;0;
18571.74;13296.03;-257.3815;22954.97;6.16422;13.6902;19907.6;10839.9;-0.01094551;-0.4198818;0;
15589.1;11007.24;-29.61222;19649.12;5.153648;13.74343;16716.02;8753.657;0.3788695;-0.4844273;0;
17234.57;12494.11;-46.97997;21350.93;-7.041692;8.83999;18427.88;10274.58;0.3784888;0.1007655;0;
17281.95;12268.23;36.91571;21273.8;-12.66167;7.357482;18367.84;9561.763;0.1182392;0.03569695;0;
-1201.099;-1492.062;369.5864;-903.1074;-7.89255;8.28785;-1520.426;-1897.028;0.1830877;-0.02930626;0;
-20216.69;-14312.68;281.4935;-24213.39;-10.43021;8.413489;-21657.04;-10790.18;0.1179364;0.3605272;0;
-14554.07;-9358.063;18.76443;-19330.6;-2.917646;4.118249;-15882.33;-7619.959;-0.1420515;0.03532827;0;
-18899.66;-12700.1;73.88974;-23487.48;-0.9723316;3.511265;-20250.09;-9292.941;-0.2068761;0.1002601;0;
-15947.43;-11632.4;-49.12271;-20006.44;0.2340942;5.115327;-16845.38;-8826.85;-0.5315049;0.3600287;0;
10268.14;6978.547;-315.8611;10778.79;2.644757;4.641307;10830.28;4488.253;-0.2711015;0.2297323;0;
18461.3;13190.61;-235.787;22858.8;2.709448;13.61211;19798.78;10751.66;-0.01095972;0.3594362;0;
15457.59;10884.07;-9.101368;19527.03;5.252321;17.41634;16587.9;8630.007;-0.07591605;0.09920561;0;
17063.95;12308.82;-25.49023;21189.22;-3.460494;13.313;18261.38;10094.45;-0.2057745;-0.1607634;0;
17199.18;12231.35;56.04129;21193.15;-5.198329;15.57705;18289.3;9533.994;-0.1406004;-0.09563456;0;
-1761.832;-1856.869;374.8403;-1389.337;-2.313694;12.74811;-2050;-2229.334;0.639149;-0.2254732;0;
-21219.14;-15138.09;254.9613;-25149.47;-4.990686;11.46275;-22627.49;-11504.07;0.4436048;-0.09531191;0;
-15142.77;-9841.645;-23.20211;-19911.41;5.195735;20.09178;-16448.97;-7898.771;-0.2065144;0.03471854;0;
-19543.04;-13239.81;33.3709;-24064.57;6.664382;20.74142;-20845.57;-9612.922;-0.1413395;0.099651;0;
-16814.2;-12293.37;-95.61344;-20930.53;1.299051;21.52438;-17730.89;-9321.732;-0.5310016;-0.09535115;0;
9886.314;6753.154;-342.0341;10231.38;1.365095;23.04324;10383.92;4334.134;-0.5954353;-0.3551247;0;
18310.8;13017.5;-246.3477;22688.81;-6.473158;12.43702;19648.06;10562.6;-0.1400657;-0.2898005;0;
15298.28;10728.19;-37.72054;19379.15;-8.811178;8.740587;16438.19;8478.84;-0.2698596;-0.224542;0;
17015.91;12261.24;-58.42221;21134.16;-10.47726;10.80828;18214.43;10051.15;0.2501503;0.1005203;0;
16958.69;12001.4;37.79128;20948.51;-11.40377;7.24732;18046.76;9302.376;0.5097683;0.6851254;0;
-2125.654;-2138.585;376.3488;-1805.627;-11.45966;9.58444;-2434.164;-2451.677;-0.07544999;0.8143716;0;
-21374.7;-15236.04;265.3699;-25312.73;-11.31442;9.038946;-22778.71;-11559.13;-0.01040683;-0.09598941;0;
-15395.62;-9977.443;-9.789791;-20143.77;-4.336825;0.6572416;-16687.11;-7964.024;0.05457097;-0.680599;0;
-19756.05;-13391.99;46.08259;-24299.71;-2.925948;-0.9510092;-21059.55;-9704.034;-0.3352879;-0.09520908;0;
-16512.58;-12138.24;-104.513;-20618.32;8.597568;-4.299078;-17411.03;-9263.453;-0.5948204;0.2946906;0;
10202.09;6975.966;-363.2467;10591.31;13.54542;-5.835366;10722.22;4491.227;-0.5292554;-0.09540953;0;
18415;13137.25;-262.5103;22800.26;9.312253;-3.820014;19750.11;10712.02;-0.3987889;-0.03034632;0;
15386.7;10806.6;-54.33537;19466.13;12.92022;-4.686954;16522.66;8542.173;-0.2034862;0.2945209;0;
16991.38;12252.43;-77.8939;21115.73;-2.364385;4.159258;18187.55;10047.23;-0.1383144;0.2292576;0;
17087.9;12104.83;14.38802;21079.92;-6.782639;6.767413;18178.59;9403.036;0.1866613;-0.03084212;0;
-1945.257;-1982.93;351.0949;-1620.343;1.998087;5.153023;-2245.266;-2330.285;0.3813758;-0.09577847;0;
-21257.44;-15229.9;243.14;-25195.02;0.05369624;7.090228;-22659.93;-11559.79;0.2510579;0.03425245;0;
-14596.09;-9532.409;-37.82259;-19360.63;7.689453;1.992523;-15896.63;-7760.513;0.4457077;-0.09571665;0;
-18562.12;-12364.7;28.80694;-23107.23;9.691458;1.45478;-19881.71;-9045.05;0.3153251;-0.2255552;0;
-15978.29;-11569.15;-89.53753;-19980.17;6.131747;-2.297726;-16854.48;-8776.67;-0.3996325;-0.1603612;0;
10266.45;7006.609;-348.6142;10773.59;6.795171;-5.376511;10827.16;4546.487;-0.3992309;0.2945714;0;
18463.96;13184.38;-253.8426;22865.46;3.573162;0.5902508;19803.23;10744.13;-0.2039277;0.7490467;0;
15412.3;10829.73;-29.01291;19496.4;2.766265;-0.2141374;16545.65;8582.556;-0.2686902;0.3584901;0;
17063.16;12336.39;-32.32582;21196.76;1.55706;0.455907;18261.03;10131.12;0.05641653;0.1632278;0;
17056.13;12033.03;81.78993;21060.24;1.891265;0.9243295;18146.23;9334.037;0.1213272;0.2280312;0;
-1701.974;-1842.455;413.2755;-1365.602;-5.010488;-4.569077;-2004.854;-2176.436;-0.008729412;-0.2269694;0;
-20298.71;-14456.89;286.127;-24248.41;-7.751143;-5.569231;-21698.42;-10830.24;0.3161161;-0.161774;0;
-13761.5;-8940.563;11.08701;-18524.32;5.117368;-9.046686;-15067.44;-7316.042;0.2508311;-0.03167673;0;
-17722.73;-11708.34;98.18833;-22321.74;7.054609;-10.91306;-19074.8;-8645.238;-0.07425766;-0.1615796;0;
-14706.18;-10712.9;-26.0979;-18726.72;9.659489;-9.830364;-15568.85;-8170.364;-0.1391504;0.09845214;0;
10888.03;7316.434;-316.6288;11488.25;12.59654;-10.9592;11493.91;4783.667;-0.2039779;0.2932552;0;
18537.62;13318.11;-238.1468;22958.54;7.158879;-8.06798;19878.88;10908.33;0.05609642;0.2929606;0;
15632.02;11047.83;-18.36159;19690.5;6.414752;-7.657976;16763.7;8791.799;-0.07389463;0.3576336;0;
17205.86;12478.79;-24.96481;21341.01;6.207235;-7.583298;18411.26;10277.38;-0.1387877;0.09740482;0;
17177.51;12163.18;70.15311;21164.26;5.464064;-7.17378;18262.42;9465.492;0.4460578;-0.3574644;0;
-1419.035;-1582.889;383.8468;-1121.147;-2.980544;-7.233555;-1727.809;-1986.361;0.7704462;-0.2271706;0;
-19730.44;-14042.8;287.7748;-23727.58;-7.398178;-5.953672;-21133.32;-10502.18;0.5098028;-0.03204029;0;
-13013.62;-8606.118;25.77345;-17814.84;0.3787875;-13.24865;-14328.48;-7078.403;0.05451916;-0.2918774;0;
-17322.24;-11449.44;91.46452;-21940.73;0.5121288;-15.37873;-18676.98;-8501.806;0.05446438;-0.2266168;0;
-14750.31;-10548.43;-16.76053;-18690.84;-2.502496;-9.602864;-15587.52;-8052.25;0.2493117;0.03348023;0;
10813.75;7309.57;-298.7426;11530.64;-1.428254;-9.526294;11446.81;4788.125;0.05415914;0.09841394;0;
18534.79;13301.54;-243.5013;22966.5;-6.383312;-8.57896;19878.97;10881.69;-0.3356993;0.2932171;0;
15594.25;11028.75;-33.06536;19634.62;-8.118211;-8.704306;16724.54;8786.034;-0.2054273;0.2279551;0;
17206.35;12457.85;-37.12383;21346.94;1.267069;-5.614406;18413.61;10252.12;0.05464845;-0.03214331;0;
17114.05;12136.11;85.77359;21096.78;3.14083;-4.269106;18201.39;9438.458;0.1845282;-0.4219151;0;
-1708.83;-1884.966;415.7246;-1387.771;-1.550399;-10.15919;-2005.326;-2219.749;0.1193755;-0.4214911;0;
-20444.34;-14491.31;275.9863;-24411.02;-2.419497;-10.21597;-21842.25;-10916.79;-0.1406139;-0.03126356;0;
-14575.37;-9449.403;-1.526644;-19333.99;-2.350693;-15.02835;-15867.81;-7555.954;-0.2054399;-0.3560688;0;
-19212.05;-13003.66;71.4226;-23762.74;-4.892951;-16.82179;-20516.17;-9413.581;-0.1402661;-0.2907437;0;
-15778.04;-11533.16;-63.15968;-19864.96;-2.879278;-11.84827;-16654.52;-8813.356;-0.4649619;-0.2254843;0;
10520.75;7152.699;-325.6049;10987.52;-2.942758;-11.7024;11069.25;4612.458;-0.2046253;-0.5500944;0;
18300.31;13050.95;-231.4655;22707.72;-18.34612;-7.068882;19639.1;10650.22;0.3802863;0.03516442;0;
15400.05;10833.76;-21.5883;19466.84;-24.22218;-5.521232;16536.62;8577.7;-0.1398345;0.2949985;0;
17076.26;12330.16;-30.3903;21206.71;-18.30335;-2.434592;18280.74;10134.83;-0.334596;0.1647674;0;
16977.46;12021.47;79.03837;20952.66;-19.8252;-0.02075963;18058.21;9322.686;0.3803809;0.1646018;0;
-2230.034;-2243.464;404.7171;-1947.897;-25.43135;-3.570712;-2551.863;-2495.434;0.250064;0.2294038;0;
-21102.79;-15099;272.2831;-25058.53;-27.6166;-2.160605;-22504.05;-11420.72;-0.1399913;0.4890426;0;
-14515.87;-9480.048;-32.99349;-19254.03;-21.15849;-9.794244;-15802.98;-7692.051;0.05505142;0.1637145;0;
-19163.86;-12935.51;16.09313;-23677.2;-18.65899;-11.99478;-20461;-9417.935;0.5747348;-0.09631936;0;
-16291.54;-11825.02;-99.75545;-20240.55;-25.27167;-5.619531;-17141.21;-8970.879;0.4442227;0.2935815;0;
10341.54;7114.689;-358.6344;10925.62;-24.91148;-5.814833;10914.26;4648.872;0.1189396;0.4881885;0;
18428.58;13149.88;-275.5656;22840.47;-18.65716;1.960908;19770.03;10720.54;0.2487548;0.3577633;0;
15338.58;10785.5;-51.77608;19401.16;-15.8244;5.776843;16472.09;8544.931;0.05360279;0.4223711;0;
17084.37;12326.32;-56.6747;21230.71;-15.87585;1.216321;18292.51;10124.08;-0.01141841;0.2270447;0;
16912.41;11989.32;43.20707;20878.34;-13.98486;2.353687;17986.77;9288.289;0.3134298;-0.03305278;0;
-2546.921;-2416.773;369.1248;-2268.471;-10.35349;3.356066;-2880.511;-2599.385;0.1182128;0.09691512;0;
-21250.77;-15109.57;242.9422;-25202.1;-10.00829;2.749847;-22650.77;-11418.01;-0.1417753;0.03185039;0;
-14999.49;-9705.35;-38.28572;-19708.98;-4.706951;5.761316;-16269.75;-7775.676;-0.2715676;-0.03314895;0;
-19859.59;-13517.13;27.06367;-24361.87;-4.768594;5.487595;-21135.41;-9775.369;0.05354201;0.0318517;0;
-16162.36;-11914.28;-104.8503;-20219.49;-6.505115;0.05658573;-17017.65;-9110.471;0.2483902;-0.1630823;0;
10517.95;7169.32;-351.6678;11003.25;-6.968069;-3.15853;11071.65;4634.014;0.118206;-0.2928531;0;
18203.4;12949.04;-240.4326;22615.5;-18.4143;-3.02139;19544.18;10551.12;0.3129892;-0.03268952;0;
15307.38;10748.67;-45.25778;19359.23;-20.74032;-5.295774;16440.66;8492.418;0.2477074;0.03231066;0;
16959.65;12198.85;-77.19623;21094.28;-32.91061;-10.515;18165.19;10002.89;-0.3372476;-0.3575259;0;
16692.89;11779.74;43.3208;20644.67;-39.10683;-11.71013;17762.19;9080.014;-0.4018761;-0.09729724;0;
-2859.11;-2719.752;377.5311;-2648.501;-26.47426;-19.73607;-3205.332;-2849.696;-0.2715376;0.2276372;0;
-21901.12;-15726.7;244.9838;-25903.49;-27.31929;-22.32851;-23300.07;-11917.73;-0.14133;0.03250648;0;
-15238.11;-9914.998;-22.45613;-19992.31;-13.82791;-16.81366;-16517.37;-8021.625;0.1186813;0.09744116;0;
-19657.36;-13306.53;55.32422;-24209.24;-7.317278;-16.99765;-20966.21;-9675.573;0.1835294;0.1623106;0;
-16328.05;-11967.81;-72.47966;-20327.91;-16.15118;-6.598522;-17192.66;-9126.123;0.2483124;-0.03275453;0;
10340.08;7084.193;-326.1543;10909.59;-12.78605;-2.372089;10904.33;4595.202;-0.07677386;-0.03272162;0;
18259.75;12981.23;-236.6214;22674.77;-20.47636;-3.776225;19597.2;10562.1;-0.4665008;-0.09765608;0;
15222.55;10677.98;-36.90578;19277.07;-22.73297;-0.8922868;16352.69;8435.346;-0.466032;-0.1625253;0;
16945.55;12164.78;-63.69896;21093.01;-13.06458;-3.9055;18152.4;9959.943;-0.0757597;0.03254004;0;
16623.49;11764.17;36.33042;20563.92;-12.11345;-3.700627;17685.91;9067.113;0.2491531;0.2923767;0;
-3252.702;-2920.334;359.5064;-3042.217;-11.23062;-3.830874;-3591.063;-3003.856;0.3138701;0.1621483;0;
-22178.5;-15885.19;225.3843;-26174.22;-10.14761;-3.960991;-23571.94;-12033.73;0.1836201;-0.4227207;0;
-15718.29;-10264.17;-40.44301;-20450.46;-8.864615;-7.641011;-16997;-8171.032;-0.07643381;-0.3573287;0;
-20500.65;-14081.81;35.48136;-25026.86;-8.387194;-10.6475;-21791.74;-10191.68;-0.271259;0.2277365;0;
-16690.58;-12399.24;-91.63104;-20793.48;-8.177696;-0.4556442;-17604.53;-9470.372;0.1188176;0.487377;0;
10333.8;7061.791;-333.9796;10769.98;-7.834686;0.4155917;10821.88;4596.656;0.4435349;0.3569526;0;
18150.39;12885.11;-232.8666;22564.94;-11.71158;-2.800007;19487.89;10469.32;-0.01168216;-0.03321013;0;
15183.23;10635.02;-16.88164;19247.17;-12.23568;-2.127364;16320.66;8385.652;-0.2065724;-0.3580135;0;
16980.36;12198.54;-29.85815;21120.76;-16.71136;-9.694054;18183.89;10000.58;-0.07643019;0.03215032;0;
16605.95;11746.77;74.16645;20527.34;-18.7043;-11.49285;17667.55;9045.103;-0.01138606;0.2270201;0;
-3325.026;-3051.536;399.5689;-3186.568;-14.66604;-12.61995;-3692.729;-3115.612;0.1185601;-0.3579141;0;
-22450.41;-16056.6;245.604;-26483.37;-15.25452;-13.87995;-23865.41;-12229.65;-0.2063958;-0.2925872;0;
-16161.61;-10354.06;-48.21394;-20906.26;-7.669753;-11.9235;-17439.82;-8304.702;-0.01128636;0.2924129;0;
-20823.41;-14205.67;28.38977;-25366.64;-4.0457;-11.37571;-22107.03;-10284.84;0.5734311;0.1621844;0;
-16942.03;-12522.63;-104.6032;-21026.77;-10.3373;-7.010453;-17809.06;-9563.162;-0.0118512;0.09705409;0;
10161.45;7022.701;-357.3709;10617.68;-9.925745;-4.860016;10703.42;4562.164;-0.4016433;0.3568259;0;
18137.35;12841.59;-245.8021;22549.92;-8.776696;-0.09946664;19477.61;10423.66;-0.4662071;0.5513694;0;
15094.38;10549.24;-28.4143;19157.75;-9.303741;3.048709;16227.13;8303.28;-0.5956733;0.5508154;0;
16897.36;12114.93;-45.04925;21037.65;-7.686802;3.782458;18104.18;9912.671;-0.3352054;-0.03444414;0;
16543.6;11699.72;62.67626;20459.17;-8.28229;6.792889;17600.09;8996.916;-0.01003192;-0.2942789;0;
-3716.399;-3284.774;385.6853;-3570.383;-6.867449;-0.9838343;-4074.798;-3281.426;0.1848802;-0.3589506;0;
-22734.03;-16332.84;247.5076;-26754.78;-5.922544;-3.461092;-24149.75;-12463.6;0.05475973;-0.5534919;0;
-16246.34;-10554.05;-22.01198;-20959.97;-11.67639;2.90552;-17531.79;-8455.043;-0.3350993;-0.3580337;0;
-21219.26;-14637.47;38.77647;-25700.81;-12.00043;0.6253029;-22487.87;-10634.96;-0.1398606;0.4219342;0;
-17102.43;-12773.99;-105.0652;-21164.57;-16.81017;5.916204;-17981.54;-9848.776;-0.2046874;0.3565429;0;
10208.32;6996.899;-344.7297;10663.65;-21.54967;7.048969;10723.29;4497.539;-0.2044818;-0.2285215;0;
17973.24;12694.89;-236.1097;22393.14;-2.571728;-4.746865;19312.52;10287.04;0.5753318;0.09654483;0;
15054.1;10506.09;-22.66709;19115.96;1.917858;-5.880805;16185.79;8254.334;0.5747537;0.2263825;0;
16793.13;12001.54;-33.68563;20953.03;-13.55676;-16.52494;18000.53;9798.947;0.05443747;-0.4235184;0;
16294.74;11468.81;83.50807;20206.12;-14.61389;-21.79986;17342.9;8764.554;0.1843175;-0.09825612;0;
-4041.094;-3571.117;398.4065;-3904.542;-15.00135;-10.32412;-4421.485;-3511.025;0.1191649;0.2916467;0;
-23210.63;-16752.2;224.2185;-27183.15;-16.59386;-9.844868;-24627.26;-12810.73;-0.07585685;0.09645159;0;
-16329.43;-10597.4;-69.82786;-21019.88;-16.10868;-6.619856;-17611.07;-8514.805;-0.2057153;0.161322;0;
-20932.59;-14312.79;-8.069955;-25407.47;-17.16422;-4.134897;-22209;-10318.76;-0.3354433;0.09619258;0;
-17141.45;-12661.29;-148.9129;-21195.52;-14.60137;-5.738332;-18023.45;-9668.65;-0.01026953;-0.03383876;0;
10042.4;6948.891;-375.8835;10469.05;-14.98884;-5.866532;10556.78;4488.454;0.3795448;-0.1637394;0;
17936.37;12636.36;-233.4366;22356.59;-12.0934;-1.841784;19275.23;10214.47;0.3141961;-0.4234443;0;
14829.65;10285.81;-6.628432;18908.62;-11.34431;-0.5672574;15960.26;8036.749;0.1839457;-0.4879861;0;
16595.51;11796.33;-39.07421;20754.1;-17.89699;-11.81952;17801.21;9588.342;0.05382623;0.09721026;0;
16247.55;11444.62;66.42767;20142.84;-21.09419;-14.41991;17295.49;8742.847;0.1837068;0.4219493;0;
-4443.372;-3871.72;378.782;-4372.258;-14.84371;-16.41491;-4823.717;-3740.277;0.1185549;0.2915906;0;
-23840.45;-17288.79;196.4616;-27869.89;-12.14947;-18.67578;-25242.74;-13247.93;-0.1414336;0.161363;0;
-16836.65;-10943.19;-79.30042;-21549.68;-32.83487;-16.51362;-18101.55;-8752.836;-0.0113568;-0.03370121;0;
-21330.91;-14651.89;7.844881;-25849.01;-37.08878;-16.89886;-22610.02;-10593.19;0.05362196;0.03129999;0;
-17155.51;-12832.7;-127.7355;-21214.71;-28.67877;-11.32248;-18039.81;-9856.598;0.1185354;0.2261706;0;
10179.27;6993.13;-349.6986;10648.75;-31.19555;-9.770496;10698.63;4517.977;0.05344897;0.4208454;0;
17909.4;12616.44;-221.5365;22329.54;-13.61443;-4.469149;19247.36;10200.63;-0.01157208;0.09558576;0;
14935.18;10393.86;-13.27783;18991.88;-8.577888;-0.7807193;16065.56;8139.75;0.4432109;-0.3592817;0;
16678.9;11869.03;-38.01767;20828.44;-13.12362;-8.013908;17887.12;9662.755;0.3128309;0.1608181;0;
16091.26;11301.49;72.29322;19985.52;-9.292041;-8.072839;17140.12;8599.903;-0.01232012;0.2256238;0;
-4571.563;-3914.266;393.9495;-4490.225;-19.12932;-10.34209;-4944.57;-3870.35;0.2475616;-0.0994396;0;
-23714.86;-17138.5;221.0466;-27783.78;-19.24382;-12.74302;-25125.16;-13175.25;0.1823455;0.09556234;0;
-16829;-11013.35;-69.26406;-21593.14;-26.32443;-8.24248;-18097.21;-8727.725;-0.01273972;-0.1644031;0;
-21861.61;-15196.33;10.23436;-26397.9;-31.59024;-8.368164;-23115.29;-10967.11;0.1172078;-0.1642379;0;
-17813.86;-13352.84;-130.0179;-22035.87;-14.00872;-9.498405;-18747.66;-10212.93;0.1820573;0.1607639;0;
9887.833;6811.171;-373.14;10152.49;-13.05762;-8.618143;10324.14;4421.623;-0.2079296;-0.1642344;0;
17788.59;12489.61;-240.7377;22182.49;-7.886936;-12.29342;19123.74;10050.05;-0.3376554;-0.294004;0;
14707.2;10165.36;-13.25065;18768.08;-2.586749;-12.81693;15843.01;7913.631;-0.2073814;-0.03383924;0;
16553.95;11733.57;-40.33309;20688.12;-19.93285;-10.45971;17759.31;9523.413;-0.4020751;-0.1637399;0;
16088.62;11340.76;79.95949;19936.87;-22.65851;-11.45389;17127.3;8633.443;0.05310031;-0.2935101;0;
-4902.954;-4220.588;411.9154;-4919.037;-18.54991;-4.610302;-5313.105;-4047.643;0.3129163;-0.2932152;0;
-24499.38;-17824.87;233.3098;-28580.46;-20.20621;-3.332994;-25913.44;-13753.05;-0.07720215;0.03191618;0;
-17544.81;-11396.22;-56.07617;-22296.28;-21.32401;-9.357986;-18807.01;-9113.904;-0.1420919;0.3567208;0;
-22088.13;-15263.32;7.010995;-26641.57;-23.6471;-11.02316;-23349.13;-11044.99;-0.4667858;0.1614604;0;
-17808.41;-13329.48;-154.3212;-21961.3;-15.65274;-12.88754;-18713.14;-10242.77;-0.3363821;0.03136344;0;
9858.165;6867.827;-381.6143;10219.43;-13.22611;-14.14721;10325.06;4432.74;0.05375991;0.226234;0;
17795;12483.23;-226.3868;22203.92;-20.17807;-22.50568;19127.08;10048.09;-0.4010655;0.1610393;0;
14748.16;10197.75;-9.830592;18804.54;-19.28714;-25.02835;15881.78;7945.167;-0.4656298;0.03094279;0;
16617.25;11804;-47.75477;20764.22;-22.08178;-25.0032;17821.81;9590.071;-0.07535793;-0.03405565;0;
16032.96;11271.18;81.50951;19901.22;-22.72918;-26.51869;17072.8;8564.398;0.1196198;-0.2289235;0;
-5102.765;-4335.804;401.017;-5104.81;-19.08901;-17.51651;-5496.832;-4164.157;-0.0754024;-0.09875874;0;
-24353.71;-17700.4;215.8631;-28428.06;-19.53835;-14.68569;-25757.71;-13663.7;-0.2052613;0.03127517;0;
-17298.6;-11328.29;-50.42315;-22001.29;-9.673079;-10.92001;-18553.93;-9028.523;0.4446183;-0.1636583;0;
-22129.2;-15372.57;13.20494;-26623.45;-5.912315;-6.689174;-23373.27;-11082.34;1.028878;-0.03355915;0;
-17644.52;-13237.22;-158.4564;-21714.35;-11.66715;-8.089094;-18521.78;-10157.71;0.2482357;-0.09849277;0;
10136.56;7055.82;-382.9968;10593.61;-10.18156;-6.004557;10630.56;4605.678;-0.2067851;-0.4232305;0;
17882.81;12578.09;-245.9619;22312.28;-14.39089;-5.529643;19221.17;10153.2;0.05329207;0.09693348;0;
14792.8;10237.44;-40.69278;18854.69;-16.11774;-4.988223;15927.59;7977.286;-0.2066309;0.4216728;0;
16713.03;11907.01;-56.76878;20868.07;-10.14067;-3.844501;17921.44;9698.995;-0.4013253;0.2913144;0;
16156.98;11371.9;79.51665;20035.01;-9.660994;-3.505723;17197.12;8655.597;-0.01111795;0.2910217;0;
-4706.528;-3952.329;399.6977;-4675.929;-11.32623;-4.305996;-5106.666;-3808.09;0.1188279;0.1607946;0;
-23321.33;-16807.35;211.531;-27386.45;-11.78336;-4.904516;-24739.66;-12859.99;0.05374117;-0.034269;0;
-16141.15;-10537.38;-63.90254;-20839.74;-9.427971;-2.421219;-17414.63;-8437.631;0.1836219;0.09570011;0;
-21207.27;-14613.05;32.92553;-25690.25;-9.150078;-2.150976;-22476.94;-10513.34;0.11847;0.290506;0;
-16864.93;-12542.09;-111.7848;-20874.15;-10.61475;-2.617574;-17737.32;-9577.896;-0.1415184;0.09531205;0;
10446.17;7222.676;-360.8754;10993.78;-10.20195;-2.079202;10970.88;4727.479;-0.2063435;0.03024894;0;
17913.34;12623.81;-243.6028;22358.66;-14.94712;-4.488377;19254.16;10205.49;-0.01123418;0.1601532;0;
14962.49;10409.03;-32.69827;19015.66;-16.00382;-4.617832;16091.78;8145.811;-0.1411576;-0.03490971;0;
16912.09;12104.48;-57.09064;21072.23;-10.69646;-6.622619;18121.82;9890.791;-0.0760484;-0.3597113;0;
16260.38;11457.34;59.79863;20148.96;-7.404156;-8.893324;17300.96;8742.909;0.4437667;-0.2294152;0;
-4577.644;-3945.407;387.2302;-4515.914;-15.29997;-0.3108162;-4974.981;-3857.031;0.2484188;0.2255867;0;
-23233.1;-16736.57;217.4731;-27269.36;-16.89219;1.029155;-24647.62;-12839.23;-0.3365369;0.09542533;0;
-16361.39;-10652.2;-69.08587;-21045.23;1.812658;-4.263409;-17627.73;-8449.031;-0.4661334;-0.1645399;0;
-21294.4;-14671.72;-1.831471;-25782.24;5.36081;-4.125159;-22561.47;-10516.64;-0.270763;0.03052744;0;
-16517.8;-12305.55;-143.9613;-20536.27;6.560873;-11.35499;-17392.23;-9468.125;-0.4004256;-0.09943792;0;
10680.17;7372.743;-359.4114;11229.77;9.300946;-14.69266;11201.23;4823.757;-0.529958;-0.1643053;0;
17981.04;12697.36;-219.1987;22427.77;3.598173;-10.72603;19319.17;10306.21;-0.2045887;0.09572911;0;
15042.99;10488.47;-8.459265;19097.23;3.795629;-12.2558;16172.06;8209.923;-0.07444848;0.3555023;0;
16883.66;12075.63;-36.6241;21054.54;-10.60915;-11.10477;18093.51;9871.787;0.1854957;0.2901778;0;
16280.27;11468.4;75.7;20156.52;-17.16355;-10.42385;17319.44;8748.177;0.3802113;-0.09991788;0;
-4491.45;-3836.778;386.6551;-4465.135;-9.174724;-16.97752;-4902.142;-3813.725;0.1849273;-0.2297522;0;
-23112.84;-16625.26;205.9197;-27145.9;-11.30896;-18.3671;-24532.52;-12824.38;-0.01016058;-0.09958663;0;
-15768.28;-10210.28;-61.27797;-20450.07;-9.623632;-17.07597;-17041.12;-8233.449;-0.1400851;0.2253502;0;
-20495.66;-13934.9;45.04269;-24993.35;-7.87265;-18.66634;-21785.84;-10021.07;0.1848924;0.1601564;0;
-16204.14;-11960.71;-101.9599;-20186.33;-12.35174;-12.08344;-17055.16;-9182.776;0.249674;-0.1648413;0;
10797.85;7460.459;-362.2266;11366.21;-11.53602;-9.258077;11361.39;4915.572;-0.2703156;-0.2946103;0;
18115.3;12830.63;-237.597;22554.58;-7.237525;-19.89882;19454.04;10430.89;-0.2050767;-0.424249;0;
15157.62;10598;-25.43353;19223.91;-5.01945;-21.41937;16285.44;8328.459;0.1849334;-0.09898598;0;
17132;12336.14;-48.2871;21288.5;-2.402438;-16.1733;18343.36;10124.56;-0.1400891;0.2259502;0;
16529.7;11676.87;85.45985;20421.49;-0.25657;-16.22403;17566.96;8955.671;-0.464785;0.2906905;0;
-3917.012;-3491.964;414.5991;-3847.312;1.618722;-14.33227;-4318.898;-3467.837;0.1203881;0.4203331;0;
-22288.53;-15962.93;252.1702;-26352.3;2.019237;-13.91597;-23713.75;-12210.91;0.5750385;0.09507404;0;
-15772.36;-10187.07;-17.0105;-20475.86;6.77263;-12.49541;-17048.99;-8168.916;0.3145913;-0.03495618;0;
-20929.15;-14376.44;44.97544;-25442.56;8.172344;-11.54509;-22199.93;-10346.58;0.4442099;0.4848177;0;
-16072.33;-11928.85;-121.3612;-20066.23;1.064186;-15.21749;-16914.71;-9159.913;0.2488615;0.6142652;0;
10962.06;7572.734;-355.3091;11597.21;-0.07498296;-15.53711;11525.01;4993.666;-0.2711273;0.223844;0;
18040.56;12766.73;-203.3876;22492.72;-5.835684;-19.20544;19381.53;10374.55;-0.07595281;-0.4260544;0;
15102.11;10554.96;26.06091;19128.92;-9.312445;-21.39652;16226.05;8274.91;0.05405819;-0.5555609;0;
17025.91;12207.1;-5.746178;21185.64;-5.686741;-15.34674;18236.28;9997.257;-0.2058655;-0.4250681;0;
16308.05;11511.81;98.37914;20157.67;-6.886476;-13.92468;17341.22;8789.127;0.05421073;-0.3596736;0;
-4470.935;-3828.079;397.0676;-4510.895;-5.138244;-19.40316;-4881.575;-3754.67;0.1191236;0.03049185;0;
-22857.45;-16392.8;213.8543;-27021.64;-4.730939;-20.12048;-24275.61;-12569.53;-0.2058328;-0.09947348;0;
-15691.59;-10089.34;-43.45014;-20499.99;-5.328422;-15.61253;-16967.13;-8195.198;-0.400528;-0.03440618;0;
-20574.5;-13979.02;45.72059;-25191.3;-5.390417;-15.73081;-21866.45;-10127.55;-0.01032151;0.1605304;0;
-16107.28;-11876.71;-103.0787;-20133.14;-2.906754;-11.69608;-16960.99;-9107.96;0.1196235;-0.03453291;0;
10763.88;7448.951;-327.1437;11406.49;-0.8277286;-9.942838;11329.54;4897.812;-0.4002354;-0.1644329;0;
17918.38;12629.83;-187.4319;22367.44;-10.27137;-17.43475;19258.59;10225.94;-0.2698985;-0.3591697;0;
14837.38;10286.18;20.93302;18861.98;-11.93501;-18.75683;15960.77;8013.651;0.05520936;-0.6836455;0;
16740.42;11926.47;-6.324321;20906.65;-8.171974;-19.74273;17954.04;9716.036;-0.4645849;-0.2931545;0;
16025.26;11237.48;101.7527;19860.22;-9.23549;-21.3974;17050.9;8515.95;-0.6590201;-0.09795794;0;
-4801.349;-4021.034;398.3607;-4872.019;-0.9208146;-20.17027;-5221.707;-3910.677;-0.1386191;-0.2277942;0;
-22588.3;-16236.52;234.5426;-26748.97;2.16157;-20.28397;-24000.52;-12413.71;0.2513242;-0.2925327;0;
