Fp1;Fp2;O1;O2;POLY3;POLY4;A1;A2;Video;Audio;event;
11919.04;9198.92;-2708.771;11426.25;-17.14262;-3.153479;11654.06;5864.392;-0.413842;-0.1982803;0;13:06:11 Рука;
25493.69;16894.82;-1771.909;25870.3;-3.059223;-8.173908;23850.11;12475.46;-0.08858943;0.191723;0;
21449.41;13789.52;6.244082;21918.86;5.717761;-10.644;19915.7;9893.836;0.1064016;0.2564977;0;
23187.58;15265.03;2448.557;23578.79;4.439218;-13.24558;21632.85;11310.47;-0.2835093;0.1263053;0;
22665.08;15187.86;3708.119;23099.12;8.05208;-18.25587;21203.8;10742.22;-0.2832245;-0.0687237;0;
-3168.628;-2171.262;3416.475;-2760.838;6.704819;-15.22335;-3006.144;-2209.962;0.04189682;-0.133622;0;
-27893.27;-18948.55;2367.318;-27951.13;1.67424;-12.66277;-26201.23;-13438.38;0.04185472;-0.003553045;0;
-20077.67;-11580.96;546.2281;-20640.87;12.18876;-18.20951;-18454.91;-8128.724;-0.08812203;0.06141788;0;
-23530.4;-14663.73;-1767.955;-23810.37;22.82643;-18.25819;-21813.82;-9235.324;-0.08803347;-0.06857853;0;
-19537.77;-12876.19;-3017.643;-20118.83;4.918928;-22.25876;-18005.99;-9090.534;-0.08794502;-0.1984443;0;
13129.29;9959.919;-2695.552;12607.22;-1.650098;-29.3364;12828.06;6243.928;-0.02288931;-0.1332776;0;
25368.46;16732.02;-1784.863;25759.55;-6.604933;-15.91064;23726.7;12399.4;0.04210103;0.1916931;0;
21479.14;13871.59;1.658575;21951.08;-17.98515;-10.26821;19947.56;9963.55;0.1719934;0.3864025;0;
23172.42;15205.49;2468.058;23571.96;-6.311805;-6.774904;21612.36;11248.89;0.8214939;-0.06875718;0;
22654.62;15242.61;3742.936;23087.29;-6.23909;1.738552;21206.37;10809.03;0.6907339;-0.2635901;0;
-3330.111;-2259.499;3444.073;-2941.005;6.761624;-6.300963;-3153.003;-2304.569;-0.3494376;0.2564135;0;
-28429.96;-19452.87;2371.369;-28480.1;25.17526;-7.366298;-26731.15;-13867.6;-0.4790212;-0.003713538;0;
-20298.93;-11796.55;542.8415;-20837.2;6.930604;-12.04758;-18675.17;-8384.021;0.1711335;-0.06867715;0;
-24456.63;-15607.76;-1783.316;-24689.32;-0.4437502;-18.86761;-22741.67;-10056.03;0.4957983;0.3211959;0;
-21875.04;-14889.99;-3049.59;-22371.55;6.723015;-14.62879;-20301.98;-10440.25;0.3653654;0.1909385;0;
11768.15;9023.348;-2687.659;11273.73;4.907599;-15.14995;11516.85;5724.937;0.3000309;0.06081196;0;
25353.54;16740.45;-1727.846;25717.53;8.587339;-14.46496;23711.29;12320.4;0.3646968;-0.1991185;0;
21255.8;13612.94;65.56754;21722.01;11.45812;-14.7183;19717.35;9728.299;0.1694284;-0.2638858;0;
23100.14;15152.32;2534.12;23492.26;6.624814;-11.22052;21540.27;11193.05;-0.02564391;-0.06871861;0;
22554.07;15149.15;3800.374;22981.78;6.483459;-7.391279;21099.32;10733.5;-0.09058549;0.06128513;0;
-3852.676;-2721.172;3512.823;-3452.194;1.721523;-10.39802;-3679.127;-2559.753;0.03944022;0.2561256;0;
-28596.72;-19587.91;2463.725;-28656.99;-2.700836;-10.25361;-26907.83;-13915.41;0.03940059;0.0609662;0;
-20774.39;-12158.98;600.7781;-21332.57;1.253992;-13.45843;-19159.13;-8604.277;0.1043283;-0.2639318;0;
-25012.25;-16098.31;-1747.583;-25278.34;0.9179398;-17.19583;-23300.08;-10482.36;0.1691909;-0.3286339;0;
-20995.1;-14206;-2986.391;-21551.93;5.939883;-16.50878;-19458.67;-10143.96;-0.2207832;-0.198369;0;
12559.19;9623.802;-2642.655;12052.85;9.953379;-17.16196;12258.47;6067.343;-0.2855287;0.126667;0;
25116.63;16493.74;-1723.101;25506.38;12.01948;-20.29285;23465.32;12122.73;-0.02537243;-0.198297;0;
21242.04;13615.09;73.32164;21708.74;17.76818;-22.28189;19705.98;9718.518;0.1045877;-0.4579671;0;
23101.54;15139.21;2530.935;23497.07;13.46342;-23.13028;21537.63;11179.39;0.364352;-0.1976376;0;
22348.02;14977.79;3771.517;22775.94;11.57388;-24.91551;20892.45;10556.28;0.1690839;-0.002536952;0;
-4017.647;-2793.521;3468.939;-3643.442;13.63933;-22.74709;-3846.927;-2656.274;-0.2858574;0.257335;0;
-28764.76;-19733.46;2403.894;-28864.24;10.81161;-21.25067;-27078.82;-14089.2;-0.1556355;0.1921091;0;
-20304.44;-11776.56;555.0627;-20908.33;15.35608;-20.35853;-18701.99;-8345.064;-0.09051175;0.06198135;0;
-24375.4;-15479.31;-1781.352;-24644.81;16.74717;-16.98899;-22673.81;-9863.583;-0.3502902;0.3217884;0;
-21310.29;-14438.75;-3027.216;-21814.71;15.45754;-18.71348;-19764.68;-10159.77;-0.4149055;0.3864324;0;
12274.26;9372.832;-2660.545;11790.25;19.5952;-18.29278;11982.97;5940.821;-0.2195866;0.3210768;0;
25379.16;16743.81;-1718.438;25757.04;6.44734;-16.39894;23729.77;12356.36;0.1704381;0.2557869;0;
21324.18;13696.62;79.79245;21790.25;-1.931883;-18.12395;19789.39;9797.316;0.4301362;0.06062781;0;
23234.97;15277.14;2551.251;23629.17;-1.728871;-8.795359;21672.93;11325.09;0.03989993;-0.2642698;0;
22588.77;15202.91;3789.72;23012.35;-9.162849;-2.825162;21131.57;10762.92;-0.0251075;-0.588841;0;
-3662.011;-2472.864;3472.82;-3312.994;0.4918995;-3.157238;-3503.154;-2428.078;0.2997544;-0.2634126;0;
-28276.79;-19255.75;2395.87;-28402.22;7.524979;0.6638398;-26605.38;-13668.99;-0.02538347;0.06168878;0;
-20583.02;-12005.29;494.5105;-21176.77;3.967445;-4.427347;-18986.38;-8480.415;-0.2852273;-0.003340561;0;
-24679.43;-15763.63;-1864.863;-24977.95;9.656885;-7.035172;-22985.91;-10179.85;0.1048633;-0.06830455;0;
-20460.99;-13764.99;-3090.169;-21037.24;2.613608;-8.970608;-18952.38;-9760.497;-0.1551114;-0.1332033;0;
12899.27;9807.421;-2733.414;12399.38;-5.092177;-13.78424;12566.64;6216.457;-0.2848902;-0.3929388;0;
25277.44;16639.77;-1776.631;25667.95;9.984466;-11.02415;23620.53;12278.32;-0.02473462;-0.4575113;0;
21338.72;13724.63;56.78001;21799.69;15.73423;-10.27626;19804.25;9825.175;-0.2845791;-0.002280192;0;
23227.99;15256.67;2532.166;23616.44;16.65643;-12.34235;21660.1;11296.26;-0.1543585;-0.06724524;0;
22546.56;15163.32;3768.031;22970.93;18.7158;-11.79408;21093.78;10740.29;0.4305027;-0.2620797;0;
-3743.217;-2590.579;3441.719;-3361.588;19.16648;-13.12189;-3574.871;-2551.026;0.4950374;-0.001946994;0;
-28253.82;-19238.17;2364.582;-28340.43;25.17544;-14.31434;-26574.48;-13662.55;0.3646053;-0.1318797;0;
-20367.12;-11792.67;490.3654;-20945.07;7.667723;-10.95093;-18765.89;-8285.484;0.2343043;-0.2616819;0;
-25465.64;-16565.66;-1862.648;-25720.72;-3.726836;-10.33708;-23764.67;-10863.78;0.2340689;-0.1964516;0;
-22024.68;-15136.49;-3071.699;-22544.52;-4.392677;-6.240857;-20484.43;-10787.49;0.03893166;-0.00135219;0;
12315.41;9455.567;-2658.006;11825.43;-13.63166;-2.081705;12015.87;6071.707;-0.2209768;0.06361653;0;
25424.61;16790.94;-1684.855;25801.47;-4.709358;-5.294733;23770.07;12384.35;-0.3506895;0.0635526;0;
21276.31;13642.58;128.5371;21735.2;1.457315;-5.825276;19740.5;9752.662;-0.4153045;0.2583908;0;
23216.74;15265.31;2599.978;23608.44;-3.567991;-7.962816;21654.22;11312.51;-0.2199851;0.2581311;0;
22529.15;15146.79;3831.152;22953.22;-4.233991;-9.964242;21074.37;10709.43;-0.08982939;-0.1319323;0;
-4084.401;-2849.453;3489.659;-3715.261;1.463691;-12.70047;-3921.455;-2661.151;-0.1547065;-0.1317997;0;
-28301.62;-19309.69;2422.094;-28419.65;3.471952;-16.23774;-26642.95;-13773.09;-0.2195184;0.1282021;0;
-19961.54;-11498.69;580.616;-20566.44;10.70213;-15.81953;-18376.4;-8188.429;-0.1543304;0.1280733;0;
-24247.44;-15349.27;-1754.56;-24538.67;23.21731;-16.13855;-22545.21;-9818.222;0.2356287;-0.06695747;0;
-19788.65;-13255.03;-2975.292;-20358.85;4.707179;-17.12701;-18293.15;-9421.332;0.4302939;-0.001922843;0;
13488;10136.05;-2631.754;12997.33;-10.5028;-17.44472;13127.48;6407.979;0.1699922;0.06304645;0;
25285.88;16622.85;-1722.8;25685.32;6.588036;-15.61871;23623.8;12292.61;0.1048541;-0.00198426;0;
21318.82;13729.67;95.44001;21782.18;13.27922;-14.33034;19788.95;9828.21;0.03978136;0.06298509;0;
23254.18;15271.28;2563.635;23646.27;7.305007;-11.70367;21684.28;11318.64;-0.2850953;0.3877585;0;
22410.04;15049.17;3790.909;22834.3;9.708565;-9.079638;20961.25;10618.44;-0.2848088;0.6472383;0;
-3977.269;-2733.916;3480.754;-3591.5;2.53249;-8.601695;-3785.496;-2584.672;-0.02465331;0.06188183;0;
-27906.1;-18916.97;2426.316;-28013.02;-5.240563;-8.726957;-26234.44;-13418.05;-0.6093346;-0.2630171;0;
-19589.59;-11150.72;585.8334;-20190.32;6.621048;-5.503129;-18017.27;-7924.759;-0.6736897;0.1920186;0;
-23702.86;-14829.69;-1734.48;-23989.9;12.64262;-2.28248;-22018.38;-9417.511;0.1065953;0.3217604;0;
-19192.7;-12666.43;-2944.191;-19775.68;9.749523;-6.299041;-17719.02;-9002.33;-0.0884138;-0.00339967;0;
13533.77;10231.62;-2581.757;13037.55;7.797344;-5.823892;13170.94;6433.243;-0.5430964;-0.1982983;0;
25271.57;16646.05;-1646.35;25670.91;15.22425;-11.17655;23617.39;12340.43;-0.2826813;-0.198099;0;
21551.55;13946.05;182.9322;22005.19;23.71542;-16.72472;20015.84;10040.35;-0.08749522;0.0619694;0;
23673.45;15700.49;2658.91;24060.1;12.9753;-11.55035;22104.91;11746.92;-0.1523746;0.1268745;0;
22940.33;15572.97;3874.938;23372.32;11.82318;-12.20858;21490.45;11156.26;0.2375825;0.06177965;0;
-3934.803;-2721.347;3512.1;-3540.303;4.577633;-4.493456;-3757.92;-2528.245;0.6921151;0.1266849;0;
-28155.86;-19167.86;2419.15;-28267.49;-8.153968;3.749777;-26487.61;-13697.12;0.1067137;0.06159028;0;
-19527.97;-11074.35;580.9545;-20143.95;8.398643;-0.2058619;-17954.5;-7935.012;-0.2831976;-0.003438959;0;
-23733.05;-14830.14;-1733.935;-24023.12;12.2086;0.1292596;-22039.01;-9333.582;0.106891;-0.2633049;0;
-19345.98;-12874.99;-2942.444;-19901.62;18.1572;2.741342;-17863.28;-9019.373;-0.08811843;-0.392975;0;
13673.69;10219.26;-2594.457;13202.09;29.9953;2.135741;13284.71;6494.803;-0.08802989;-0.4575475;0;
25265.01;16598.24;-1684.478;25665.38;16.03271;6.956244;23594.94;12274.85;0.6266993;-0.327153;0;
21212.42;13637.3;139.2204;21672.38;11.66235;12.9776;19684.76;9748.907;0.4961349;0.06297976;0;
23196.6;15199.76;2607.84;23586.84;7.833211;3.788139;21624.59;11242.92;-0.02410232;0.3227859;0;
22225.3;14920.09;3818.141;22653.14;1.126559;-1.172282;20783.62;10515.04;0.04088924;0.1925268;0;
-4497.531;-3131.069;3488.156;-4087.927;1.059054;0.9722273;-4297.733;-2828.679;0.1058155;-0.1974707;0;
-28206.81;-19163.55;2424.684;-28320.79;-3.36264;-2.578723;-26530.08;-13663.48;-0.02422552;-0.327207;0;
-19555.9;-11104.43;579.9858;-20193.91;-0.07770712;5.059801;-17980.38;-7943.56;0.1057335;-0.1969435;0;
-23624.93;-14725.7;-1735.246;-23926.43;2.669037;10.815;-21926.54;-9214.107;-0.02430741;-0.1317783;0;
-18788.98;-12403.28;-2945.097;-19371.89;-0.01296194;7.790028;-17308.52;-8734.772;-0.219185;-0.3265479;0;
13894.35;10383.16;-2606.01;13406.69;-1.218398;8.652978;13507.09;6544;-0.2839321;-0.5860891;0;
25179.6;16525.88;-1683.431;25581.97;4.141461;9.046182;23513.33;12243.84;-0.1537121;-0.1956962;0;
21289.76;13707.76;129.5528;21739.68;8.959095;8.434245;19760.92;9806.801;0.1063117;0.4541739;0;
23207.41;15216.74;2571.539;23597.66;6.672917;11.17195;21637.03;11268.19;0.04123751;-0.06602121;0;
22452.85;15104.22;3805.833;22876.14;8.14008;14.17496;21006.77;10699.93;-0.1537059;-0.1958896;0;
-4222.923;-2977.376;3500.348;-3838.039;5.251513;8.802199;-4028.78;-2751.299;-0.2834862;0.2590787;0;
-28298.94;-19308.86;2430.867;-28411.09;0.892956;4.104671;-26617;-13735.42;-0.6080381;-0.1309857;0;
-19851.15;-11411.87;596.9074;-20462.12;6.317066;7.784486;-18276;-8133.566;-0.6723945;-0.1958214;0;
-24510.51;-15623.24;-1708.877;-24802.7;7.248724;7.642699;-22816.19;-10056.8;-0.2819147;0.1941794;0;
-19915.48;-13407.58;-2914.741;-20502.49;8.580611;7.434071;-18430.77;-9471.248;-0.2166641;0.1939843;0;
13538.2;10145.71;-2551.072;13043.93;13.52848;9.302123;13147.88;6480.146;-0.1514791;0.3886914;0;
25227.49;16570.68;-1623.317;25628.98;4.807352;3.532366;23555.02;12233.04;0.1735098;0.1933988;0;
21229.89;13651.92;175.4264;21687.48;0.1808206;0.7825162;19699.01;9778.332;0.1083681;0.2581718;0;
23162.14;15156.88;2610.276;23557.22;2.391442;-0.6247896;21584.11;11183.42;-0.2815448;0.1929451;0;
22097.17;14817.97;3829.008;22524.04;-0.6250712;-4.241179;20655.97;10461.38;-0.08635988;-0.1320855;0;
-5020.789;-3652.52;3521.563;-4633.312;6.742948;-1.021798;-4818.51;-3259.267;0.1086289;-0.002018126;0;
-29254.42;-20170.7;2448.094;-29368.71;12.63067;-0.4179247;-27588.92;-14483.21;0.1734871;-0.1969181;0;
-21059.72;-12462.67;580.2592;-21682.36;9.872289;0.721083;-19498.99;-8898.549;0.5631168;-0.06678557;0;
-25606.03;-16678.6;-1729.741;-25909.82;10.53195;3.801573;-23922.34;-10910.84;0.367649;0.1281836;0;
-20368.75;-13791.13;-2910.346;-20951.32;11.32468;0.4486069;-18900.89;-9923.025;0.1074102;-0.2617493;0;
13368.52;10138.56;-2549.352;12879.08;9.304543;-0.08758528;12974.89;6446.675;0.1722696;-0.3264536;0;
24996.64;16343.77;-1636.451;25394.63;15.32341;-0.2884461;23326.41;12012.43;0.1071292;-0.2611583;0;
21027.26;13442.13;157.6829;21479.94;22.34061;-0.9579856;19499.16;9571.157;-0.2178152;-0.1959285;0;
22987.71;14986.43;2578.948;23375.18;10.19438;-0.01926192;21409.85;10998.22;-0.8023024;-0.3256663;0;
21865.65;14603.46;3785.218;22296.81;2.280881;-0.622089;20430.43;10281.39;-0.4766595;-0.2603717;0;
-5388.258;-3965.448;3478.941;-4979.221;5.694841;2.459629;-5166.512;-3429.713;0.3034275;-0.0002407609;0;
-29687.14;-20575.86;2408.544;-29761.43;2.540311;3.461901;-27999.89;-14655.08;0.4330573;-0.1301752;0;
-21329.06;-12713.52;545.4347;-21896.56;4.280046;6.472533;-19740.14;-8892.692;0.1727528;0.2597597;0;
-26507.39;-17584.37;-1788.753;-26757.32;5.146402;10.35104;-24796.89;-11561.6;-0.2172248;0.1945313;0;
-22208.36;-15415.61;-3005.905;-22748.17;2.193494;6.991492;-20686.19;-11025.79;-0.1520392;-0.2604356;0;
12377.8;9433.413;-2640.536;11893.94;3.531437;7.386364;12046.01;6112.412;-0.2168538;-0.1302392;0;
25049.29;16409.8;-1715.846;25437.16;-2.969822;3.360089;23385.63;12001.1;-0.1516685;-0.0001736402;0;
20834.71;13231.04;92.0951;21299.65;-6.248392;-1.599903;19303.06;9372.079;-0.2164835;0.1297612;0;
22934.92;14938.04;2537.586;23328.44;-5.907321;3.425303;21359.56;10955.08;-0.411168;-0.1302385;0;
21742.59;14530.36;3725.406;22164.81;-8.044839;5.967091;20321.18;10202.38;-0.02095078;-0.389977;0;
-6168.877;-4591.803;3378.742;-5779.79;-3.950918;3.683797;-5900.393;-3802.412;0.2389396;0.1301536;0;
-30100.87;-20955.8;2299.388;-30217.99;-5.219746;2.876301;-28400.46;-14950.7;0.3686342;0.2599575;0;
-21497.94;-12901.71;437.1371;-22106.54;4.698484;5.552606;-19931.87;-9138.111;0.5631658;0.1297616;0;
-26292.11;-17346.71;-1882.293;-26585.45;13.00014;5.680992;-24593.1;-11424.71;0.4976326;0.3895006;0;
-20856.88;-14167.82;-3074.317;-21435.36;8.03058;10.09616;-19380.89;-10246.9;0.1722959;0.1942072;0;
13110.55;10024.84;-2720.998;12640.59;10.90192;15.31056;12716.09;6404.174;-0.02277924;0.194012;0;
24810.14;16154.95;-1808.533;25214.78;2.518224;8.530022;23136.99;11815.66;0.1071783;0.3887191;0;
20914.63;13319.93;4.639003;21364.18;-0.7658605;4.502596;19385.69;9440.145;-0.2177661;0.1284592;0;
22930.92;14932.15;2434.382;23316.07;-5.990004;5.301745;21351.2;10946.99;-0.3474819;0.1932974;0;
21676.15;14442.63;3623.118;22103.27;-13.21765;2.751189;20247.54;10122.63;0.1076386;0.0631685;0;
-6006.976;-4484.043;3295.266;-5592.327;-6.640289;1.2748;-5769.207;-3791.595;-0.08737158;-0.2617317;0;
-30150.25;-21020.8;2219.462;-30241.3;-9.848798;-0.0660178;-28461.84;-15110.3;-0.02231645;-0.2614687;0;
-21368.52;-12774.64;373.6277;-21991.65;6.504446;-5.290559;-19797.8;-9164.189;0.3025427;-0.1312713;0;
-25887.37;-16948.23;-1931.277;-26194.92;18.82277;-9.505046;-24201.3;-11082.7;-0.08756536;0.3885994;0;
-20840.37;-14195.06;-3125.329;-21398.46;16.6604;-11.17007;-19357.2;-10075.89;-0.4123141;0.6480783;0;
13029.39;9874.438;-2764.181;12562.68;22.67188;-12.96732;12659.23;6375.468;0.0428716;0.3875577;0;
24904.34;16239.97;-1837.227;25296.75;16.88832;-16.03545;23233.11;11884.91;0.6925019;0.1922663;0;
20945.9;13357.42;-2.412106;21398.62;18.5463;-18.16273;19412.74;9476.708;0.3020021;0.06213838;0;
23174.22;15171.69;2454.48;23562.88;4.863629;-17.80956;21597.84;11203.95;-0.2180401;-0.06785876;0;
22290.84;15027.15;3641.854;22715.66;-7.80091;-17.99262;20852.88;10673.52;0.171983;0.06214413;0;
-5424.532;-3993.461;3284.622;-5035.304;-3.171371;-16.5679;-5210.485;-3532.367;0.3667122;0.4518857;0;
-29704.3;-20597.49;2186.965;-29814.46;-10.87134;-15.88148;-28033.62;-14782.88;0.3013764;0.3864643;0;
-21725.18;-13127.32;317.3315;-22295.95;0.5937834;-12.58342;-20161.41;-9348.031;0.4310083;-0.1336627;0;
-27949.96;-19047.01;-2010.068;-28192.04;4.545302;-8.953758;-26256.34;-13004.39;0.04077114;-0.1984958;0;
-22960.9;-16052.43;-3189.188;-23517.24;9.429878;-9.078728;-21457.34;-11690.62;-0.5439759;-0.06836163;0;
12416.26;9632.27;-2794.447;11937.21;23.4202;-5.787563;12058.37;6258.395;-0.6083966;-0.1982276;0;
24918.77;16282.45;-1845.911;25316.84;2.430646;-8.929824;23248.68;11881.76;-0.1530139;-0.06809376;0;
21041.91;13414.85;8.247211;21498.12;-4.738116;-11.46614;19509.2;9548.582;-0.08789285;-0.003058003;0;
23318.83;15346.36;2473.781;23706.23;-10.15934;-6.899903;21743.66;11368.51;-0.6075433;-0.06802227;0;
22144.4;14851.82;3646.142;22570.47;-21.87078;-7.026936;20700.66;10510.77;-0.1521614;0.1269481;0;
-5745.644;-4323.394;3276.381;-5337.056;-12.67177;-1.728346;-5533.538;-3695.668;0.4326976;-0.2629835;0;
-29789.05;-20706.81;2176.328;-29902.98;-13.99919;2.62716;-28116.03;-14856.47;-0.3473453;-0.4576213;0;
-21279.55;-12699.93;303.4252;-21907.02;-3.335202;1.48581;-19727.64;-9111.686;-0.671833;0.1275446;0;
-26704.03;-17786.54;-2025.896;-26996.55;7.78756;4.565532;-25014.41;-11908.32;-0.02148454;0.1274165;0;
-21497.59;-14821.26;-3210.155;-22063.78;3.827621;-0.730585;-19998.02;-10596.1;-0.2813323;-0.002646258;0;
13130.66;10035.99;-2820.03;12656.06;7.441097;-4.6148;12751.76;6587.27;-0.540919;0.06232376;0;
25067.4;16408.26;-1879.231;25459.9;7.031478;-2.734702;23391.8;12017.2;0.04433059;-0.002706223;0;
21010.61;13414.54;-36.39282;21458.76;8.297211;-5.277245;19480.62;9545.97;0.4990574;0.1272312;0;
23112.81;15113.1;2436.791;23499.69;5.877;-1.119061;21532.71;11125.84;0.1737193;0.257038;0;
21806.56;14565.47;3618.248;22233.11;2.454843;1.427293;20373.6;10235;0.1085774;0.1918124;0;
-5860.101;-4332.569;3250.92;-5459.558;2.587075;0.08632196;-5630.469;-3678.672;0.3683377;0.256587;0;
-29534.12;-20423.67;2157.295;-29645.01;-5.319755;2.162584;-27859.2;-14619.85;0.1080982;0.5161986;0;
-21140.01;-12559.34;275.9783;-21735.68;8.349621;-1.925426;-19577.23;-8879.334;-0.08691247;0.4507126;0;
-26083.55;-17131.96;-2038.448;-26368.47;22.07261;-4.401799;-24392.67;-11255.88;0.1730442;-0.06947907;0;
-20196.62;-13701.01;-3193.584;-20788.86;1.888691;-3.861512;-18732.09;-9949.757;0.107903;-0.1343766;0;
13693.32;10353.45;-2822.935;13215.78;-4.811012;-6.201974;13290.75;6637.783;-0.1520748;0.2555625;0;
24940.79;16270.77;-1876.651;25346.35;-8.623595;-3.181632;23264.38;11950.24;-0.151922;0.125371;0;
21022.05;13452.71;9.334822;21476.12;-19.60062;-1.704811;19490.19;9565.016;-0.1517693;0.0602777;0;
23128.65;15092.83;2471.104;23524.07;-6.184338;-2.305944;21542.87;11107.56;-0.2165842;0.1901518;0;
21613.4;14473.54;3620.854;22037.77;2.060899;0.5765172;20194.39;10141.12;-0.08643185;-0.004941291;0;
-6302.892;-4565.33;3242.623;-5932.853;-2.763943;-4.514582;-6041.252;-3938.034;0.1735244;-0.134871;0;
-29992.88;-20821.82;2125.268;-30127.66;-1.756788;-7.122319;-28314.19;-14927.13;0.04341532;0.06016655;0;
-21442.65;-12893.39;222.5257;-22037.38;0.9916435;-5.239701;-19897.13;-9093.993;-0.08656299;-0.1997633;0;
-26222.93;-17272.63;-2093.159;-26511.95;-1.086434;-7.310846;-24546.13;-11310.11;0.1733934;-0.5243993;0;
-20232.7;-13773.34;-3238.463;-20830.62;9.096064;-0.3373975;-18783.58;-9865.546;-0.411487;-0.06910096;0;
13709.12;10350.99;-2829.023;13232.95;17.39232;4.619556;13296.05;6749.177;-0.8008775;-0.004064187;0;
25043.32;16376.71;-1860.119;25444.13;8.131443;3.543188;23364.25;12031.24;-0.1503994;-0.1339948;0;
21006.31;13427.25;0.6281312;21454.37;8.190621;4.611354;19472;9538.973;-0.1502483;0.4508459;0;
23108.71;15087.4;2453.91;23497.98;-1.395802;5.745309;21519.33;11116.23;-0.280032;0.5153603;0;
21692.76;14513.83;3603.022;22103.26;-5.815029;7.280143;20273.09;10163.38;0.04508611;0.1900057;0;
-6140.154;-4465.327;3218.624;-5785.065;-13.24393;3.923804;-5878.569;-3771.257;0.2399428;0.3197495;0;
-29232.38;-20101.53;2127.687;-29389.56;-28.56959;2.245288;-27558.14;-14338.45;0.3046691;0.1245262;0;
-20334.47;-11813.28;235.0927;-20956;-6.035592;0.2336657;-18795.28;-8397.007;0.04449357;-0.3303703;0;
-25217.14;-16254.16;-2099.923;-25524.87;1.606283;-1.508125;-23537.76;-10525.67;-0.08548582;-0.2001037;0;
-19119.6;-12860.22;-3237.537;-19735.71;10.98277;-2.578337;-17677.09;-9209.903;-0.1503673;-0.00500062;0;
14353.03;10719.77;-2839.482;13874.12;30.19547;-4.183276;13919.83;6924.308;-0.2801509;-0.1349303;0;
25062.79;16383.98;-1900.6;25468.1;11.7447;-1.298867;23380.89;12086.5;-0.214902;0.06010734;0;
21194.95;13639.87;-33.19021;21634.5;6.977476;-1.02963;19665.32;9745.216;-0.4095881;0.3848836;0;
23357.85;15322.16;2410.958;23747.06;4.827011;5.200695;21771.21;11353.28;-0.5391113;0.05966021;0;
21748.54;14589.56;3545.964;22171.73;-4.287518;10.01812;20326.19;10218.21;-0.08379814;-0.3302038;0;
-5846.38;-4120.736;3161.655;-5474.551;2.01343;11.21362;-5599.481;-3546.945;0.1111881;-0.3948393;0;
-28637.2;-19512.37;2046.193;-28785.25;-0.2667452;15.42228;-26967.66;-13895.35;0.1760437;-0.1995406;0;
-19635.75;-11166.23;158.3041;-20267.31;5.42695;11.78971;-18086.37;-7908.265;0.2408342;0.06052929;0;
-24307.87;-15337.96;-2146.119;-24613.71;15.26811;10.10341;-22619.04;-9673.583;0.3705269;0.1254358;0;
-18253.57;-12213.41;-3297.726;-18836.59;0.7844553;9.088511;-16818.1;-8612.72;0.2402199;0.06034243;0;
14771.36;10882.4;-2917.539;14318.79;-8.459734;6.467045;14325.63;7042.632;-0.01989088;0.1252491;0;
25250.96;16585.93;-1970.083;25661.18;2.399758;6.661496;23569.66;12313.09;-0.2797403;0.255058;0;
21289.28;13741.9;-112.5201;21732.44;4.540801;6.654802;19759.99;9835.863;-0.3444265;0.1898343;0;
23363.01;15326.79;2319.808;23754.48;6.880763;3.767972;21776.51;11373.59;-0.08421107;-0.07022578;0;
21996.88;14798.01;3456.186;22413.24;12.5009;0.415039;20579.17;10413.03;0.2407103;-0.1351226;0;
-5442.284;-3830.585;3066.595;-5086.686;4.115597;4.768513;-5195.829;-3394.168;0.6302724;0.1898499;0;
-28261.17;-19203.24;1948.886;-28421.33;-0.5775872;6.036275;-26592.55;-13645.48;0.4997045;0.4495285;0;
-19522.06;-11174.99;32.99923;-20151.68;1.566447;7.905732;-17972.46;-7937.738;0.3043003;0.3191422;0;
-24844.6;-15944.26;-2314.666;-25157.06;1.497524;11.51474;-23160.87;-10357.37;0.2390272;0.1888868;0;
-18770.02;-12632.35;-3456.937;-19374.57;-3.058332;7.752252;-17350.21;-9055.237;-0.2159843;0.05876233;0;
14717.73;10901.78;-3054.305;14259.4;-8.882408;7.878428;14251.68;7059.734;-0.5406041;0.188638;0;
25148.09;16482.36;-2116.815;25564.79;-2.77889;3.114846;23459.61;12193.99;-0.6699955;0.3833505;0;
21225.98;13681.67;-258.699;21671.12;1.042295;-3.318523;19700.36;9789.771;-0.799257;0.3179979;0;
23442.23;15399.52;2172.042;23832.82;-2.777145;2.043324;21853.5;11434.23;-0.5385845;0.1227764;0;
21730.07;14570.88;3297.793;22151.02;0.3071041;3.112998;20318.57;10197.39;0.04666273;-0.007281697;0;
-5726.177;-4025.829;2932.193;-5350.828;-6.65943;0.8324498;-5454.357;-3509.538;0.4364199;-0.1372091;0;
-28034.44;-18925.87;1838.388;-28195.12;-12.9484;1.635409;-26362.05;-13442.02;0.1111447;-0.07210385;0;
-19250.21;-10848.65;-62.69161;-19898.26;-3.558269;-3.389833;-17715.21;-7693.908;-0.1488364;0.1228706;0;
-24502.63;-15557.57;-2380.885;-24821.72;-2.014452;-7.271315;-22819.66;-9943.855;0.1761499;0.05777983;0;
-18309.83;-12179.72;-3525.776;-18930.41;6.628736;-6.12536;-16891.94;-8722.238;0.0460382;-0.07221292;0;
14807.52;10975.07;-3137.661;14334.79;17.33837;-6.588024;14341.82;7044.964;-0.08394275;0.1227617;0;
25102.8;16431.31;-2182.346;25521.52;9.082901;-7.3852;23419.58;12184.86;0.176011;0.05767098;0;
21242.37;13700.48;-314.8718;21686.2;4.318352;-6.105165;19714.09;9797.39;0.04589943;-0.332191;0;
23534.63;15494.59;2129.248;23920.62;12.0162;-9.715986;21945.53;11538.1;-0.01911403;-0.3318572;0;
22186.56;15004.12;3287.087;22609.71;15.88889;-13.72514;20761.01;10630.77;0.1108399;0.05828027;0;
-5473.507;-3843.901;2916.344;-5098.045;8.17074;-5.94151;-5238.884;-3435.673;0.1107285;0.1231891;0;
-28548.77;-19463.14;1807.032;-28688.7;3.004966;-0.4430007;-26888.69;-13904.96;0.04564988;-0.07183676;0;
-20115.34;-11737.49;-81.16315;-20711.42;3.001947;-2.519027;-18568.92;-8376.272;0.1755387;-0.07176458;0;
-25921.09;-17017.5;-2400.338;-26193.26;3.802238;-1.444768;-24238.3;-11252.67;0.500199;-0.1366598;0;
-19957.68;-13588.41;-3540.929;-20534.99;-5.377635;0.4320833;-18528.45;-9765.638;-0.149977;-0.07155515;0;
14163.64;10615.64;-3132.06;13707.59;-12.07101;0.9675126;13714.36;6931.771;-0.474663;-0.1364506;0;
25120.49;16453.74;-2180.093;25524.09;-7.570905;3.712841;23436.78;12142.12;0.2404547;-0.2012808;0;
21246.55;13690.29;-311.8087;21687.63;-8.969817;5.249717;19719.62;9803.324;-0.08462363;0.3186602;0;
23605.87;15574.94;2127.857;23992.73;-0.9902014;5.780184;22016.48;11613.56;-0.6692446;0.513242;0;
21931.79;14782.46;3258.368;22348.43;3.632494;8.587659;20519.9;10409.21;-0.08386613;0.1878896;0;
-5864.598;-4120.742;2886.904;-5505.672;6.10709;3.421466;-5590.62;-3589.361;0.04615282;-0.007201253;0;
-28384.79;-19252.28;1781.963;-28535.83;9.182413;-0.5338424;-26709.57;-13687.68;-0.4086649;-0.07216136;0;
-20018.57;-11587.19;-129.9451;-20607.67;4.484137;1.543043;-18481.81;-8245.214;-0.2783196;0.1877805;0;
-25795.55;-16852.59;-2451.554;-26083.81;-0.945376;-2.008481;-24116.4;-11149.75;-0.1481053;0.2525592;0;
-19102.11;-12932.29;-3589.408;-19699.89;-2.083502;4.423777;-17690.96;-9384.784;-0.2778912;0.1873381;0;
14727.52;10945.82;-3213.285;14284.78;4.683746;9.844827;14250.32;7124.103;-0.01774257;0.1871498;0;
25059.32;16380.48;-2263.657;25471.36;-30.68697;3.136764;23368.58;12103.56;0.307112;0.1869618;0;
21080.83;13553.6;-371.7233;21519.45;-56.31023;3.669475;19554.61;9665.136;0.241836;0.1218066;0;
23254.91;15194.43;2075.983;23645.37;-50.49288;-3.166349;21660.82;11223.79;-0.01827633;-0.2681199;0;
21540.13;14464.7;3218.228;21956.2;-63.57031;-9.325414;20135.46;10120.78;-0.1481926;-0.2028831;0;
-6527.406;-4670.524;2836.309;-6166.381;-44.08163;-5.565122;-6247.813;-3954.193;0.176793;0.4469942;0;
-29258.59;-20081.61;1726.328;-29430.75;-27.96241;-7.568957;-27584.81;-14421;0.5664194;0.3166103;0;
-19955.16;-11475.61;-150.9323;-20587.83;-35.03426;-1.064129;-18401.08;-8217.968;0.3709482;0.1213902;0;
-25014.78;-16033.6;-2467.429;-25309.04;-28.70241;4.965282;-23317.24;-10307.58;0.2406408;0.2512029;0;
-19034.32;-12703.85;-3629.63;-19626.24;-23.9855;2.481925;-17605.01;-9087.406;0.1754317;0.05604846;0;
14350.14;10769.99;-3259.276;13897.24;-14.24851;3.350209;13898.18;6956.461;-0.4094507;0.2508942;0;
24937.19;16263.64;-2325.188;25348.73;-16.31127;5.959055;23253.57;11977.96;-0.3440719;0.1856747;0;
20986.56;13448.66;-454.3532;21424.44;-17.96885;8.766351;19461.16;9570.597;0.3059472;-0.1393486;0;
23266.69;15209.24;1971.697;23658.99;-3.617176;6.212191;21672.15;11227.81;0.5005418;-0.009273861;0;
21271.77;14249.16;3090.027;21680.94;-1.53646;3.660719;19877.64;9925.01;0.4350715;-0.1391992;0;
-6946.26;-4938.298;2733.132;-6617.305;18.89427;5.934339;-6637.854;-4138.461;0.3046997;-0.3339614;0;
-29020.82;-19826.52;1643.057;-29192.18;37.76325;4.789788;-27346.44;-14098.98;-0.1503779;-0.008789108;0;
-20127.74;-11685.42;-265.4482;-20715.72;28.21446;5.655631;-18583.06;-8214.906;-0.2801615;-0.07374762;0;
-25630.47;-16660.68;-2588.842;-25917.33;29.25784;7.324522;-23929.25;-10814.37;0.3048261;0.05626118;0;
-18829.36;-12601.13;-3721.748;-19453.19;22.53063;1.020888;-17410.77;-9154.413;0.3694872;-0.07373004;0;
14600.53;10932.36;-3329.219;14136.81;8.977687;-3.065974;14137.45;7043.023;-0.1506228;-0.3984927;0;
24836.54;16171.16;-2398.356;25254.07;19.61859;-3.598757;23152.54;11912.26;-0.2154388;-0.07325555;0;
20932.5;13398.91;-555.1367;21379.47;27.16734;-4.197927;19406.79;9522.784;-0.08528766;0.3166221;0;
23134.56;15061.43;1854.351;23534.18;2.491294;-9.016357;21542.08;11063.97;-0.1501693;0.121402;0;
21206.84;14227.97;2976.61;21620.54;-10.97417;-14.36581;19824.66;9961.789;0.4346877;0.05631262;0;
-7505.641;-5464.088;2601.9;-7143.903;-13.57609;-8.791914;-7175.075;-4476.859;0.8240549;-0.07367866;0;
-30323.8;-21062.88;1489.281;-30453.12;-24.14502;-6.170868;-28628.55;-15093.19;0.2385208;-0.333474;0;
-21131.82;-12590.18;-407.4974;-21716.3;-14.9447;-6.097684;-19586.58;-8905.225;0.1083465;-0.2032042;0;
-26621.27;-17631.99;-2720.987;-26903.66;-11.17864;-2.943421;-24931.5;-11565.36;0.2381723;0.1218367;0;
-20259.04;-13835.31;-3865.067;-20849.93;-7.617437;-4.94989;-18831.44;-9912.092;-0.2168384;-0.1381551;0;
13856.82;10401.91;-3478.017;13403.48;1.834688;-5.413797;13406.24;6795.178;-0.1516532;-0.462853;0;
24689.4;16004.87;-2523.781;25104.73;-1.918199;-3.465913;23004.86;11673.5;0.2383033;-0.1375512;0;
20643.69;13110.99;-631.1175;21097.51;0.1598329;-3.261482;19121;9264.65;0.1730965;0.05748901;0;
22922.56;14844.4;1800.451;23320.15;3.442202;-0.9807848;21327.19;10812.51;-0.08694682;-0.1374708;0;
20695.9;13764.91;2905.492;21117.66;2.769158;0.6276691;19322.3;9586.618;-0.02189212;-0.2023;0;
-8425.396;-6285.221;2534.133;-8054.531;12.07615;0.5600555;-8072.246;-5115.38;0.2379992;0.05777265;0;
-31370.5;-22081.48;1432.639;-31477.07;17.49;1.564237;-29666.88;-15797.91;-0.152044;0.1876493;0;
-22890.29;-14351.52;-481.2146;-23407.65;16.73549;-0.379718;-21333.67;-9898.201;-0.1518912;0.05752605;0;
-28699.28;-19753.71;-2785.323;-28934.71;18.79478;-3.393569;-26996.07;-13301.21;0.2380655;0.3173376;0;
-21643.97;-14925.32;-3892.138;-22240.37;15.22592;0.4947295;-20182.99;-11037.07;-0.1519778;-0.07278531;0;
13166.74;10120.61;-3489.209;12694.38;13.73773;3.240533;12758.6;6584.885;-0.2167924;-0.8523203;0;
24378.18;15709.4;-2529.528;24789.07;10.1066;-1.250458;22697.46;11358.26;0.3031642;-0.6565618;0;
20349.93;12791.45;-635.5303;20805.2;7.082338;-1.517133;18821.63;8945.223;0.5627289;-0.1361634;0;
22723.14;14646.63;1802.617;23107.22;3.391526;-5.601507;21121.67;10600.58;0.1723594;0.4486795;0;
20440.76;13612.72;2918.432;20862.45;-4.850904;-10.68646;19086.85;9466.389;0.1072189;0.2533267;0;
-9482.533;-7076.173;2536.627;-9104.179;5.871239;-4.580397;-9087.048;-5677.75;0.2370459;-0.526536;0;
-32530.79;-23197.38;1436.037;-32640.9;12.36207;-2.030504;-30817.18;-16715.06;-0.02306169;-0.7209089;0;
-23175.3;-14669.34;-465.0919;-23693.83;7.795301;-1.693549;-21620.96;-10182.72;-0.1529732;-0.4603152;0;
-28910.73;-19934.29;-2795.797;-29163.18;11.00265;0.3845019;-27222.78;-13448.81;-0.08785216;-0.07004865;0;
-22081.13;-15499.59;-3924.668;-22683.36;2.685222;1.321877;-20638.63;-11313.95;-0.1527312;0.3847932;0;
13124.32;9923.914;-3516.147;12664.66;-6.359806;3.597968;12715.91;6595.911;-0.2825124;0.3844065;0;
24456.45;15778.43;-2570.244;24859.88;3.895339;2.321677;22767.14;11372.35;0.1075755;0.2540856;0;
20333.75;12779.64;-674.1288;20783.19;11.05774;0.577788;18799.79;8938.889;0.3673368;0.4487323;0;
22868.66;14796.78;1781.44;23249.32;0.5304356;3.725405;21266.79;10735.19;0.237033;0.3183467;0;
20628.67;13729.38;2874.474;21050.71;-2.952722;4.257525;19257.21;9610.429;0.6265988;0.2530595;0;
-9404.318;-7151.602;2460.73;-9008.674;-1.744306;3.85135;-9021.627;-5680.813;0.3011325;0.0579032;0;
-32724.74;-23421.69;1329.825;-32819.1;-4.288149;4.98619;-31023.97;-16834.6;0.04096058;-0.2669917;0;
-24048.32;-15544.26;-605.1802;-24540.41;2.414941;0.2255135;-22513.23;-10700.34;0.2358215;-0.1367887;0;
-29789.17;-20850.62;-2921.814;-30034.56;3.819034;-1.918167;-28098.35;-14222.33;0.04068247;0.05825074;0;
-22101.13;-15439.77;-4013.437;-22731.71;11.98687;-4.997394;-20675.04;-11519.06;-0.08929309;-0.006775149;0;
13199.28;10068.95;-3590.24;12732.38;21.08451;-9.011226;12755.96;6589.119;-0.08920337;-0.2016704;0;
24297.68;15607.79;-2628.114;24708.19;15.70468;-6.523864;22608.68;11222.43;0.04082095;-0.1365004;0;
20243.06;12695.24;-733.4246;20692.21;18.16715;-6.919206;18713.57;8852.2;0.1057473;0.1235062;0;
22650.86;14556.07;1700.121;23033.97;8.771773;-4.366963;21047.75;10481.2;-0.2191957;0.2533167;0;
20286.04;13482.43;2791.832;20719.74;-4.097763;-1.817285;18917.31;9396.631;-0.08904076;0.4479642;0;
-10005.75;-7572.37;2386.854;-9595.523;9.905177;-1.011664;-9639.779;-6066.418;-0.02398395;0.3825468;0;
-33276.67;-23955.52;1260.145;-33370.97;18.40169;2.673292;-31586.96;-17338.09;-0.4787312;-0.00764168;0;
-24281.67;-15823;-672.6031;-24769.47;4.049585;-0.6784188;-22755.55;-11031.6;-0.6731522;0.05733335;0;
-30843.95;-21924.91;-2998.273;-31055.8;-1.982704;-2.888174;-29171.95;-15189.5;-0.4775738;-0.07265895;0;
-23818.22;-17002.33;-4080.044;-24424.36;-1.84699;-0.07198872;-22345.49;-12496.86;0.04264478;-0.3974226;0;
12576.51;9685.332;-3602.916;12092.76;-7.002697;-1.478558;12205.9;6586.018;0.1075693;0.05774809;0;
24543.21;15871.52;-2594.816;24941.31;1.176013;3.077645;22859.74;11404.8;-0.1524082;0.3175594;0;
20384.86;12808.27;-676.1255;20842.05;9.011712;8.232117;18845.62;8963.736;-0.2172224;0.1873057;0;
22963.44;14889.08;1785.067;23343.06;1.032054;1.257742;21362.4;10834.16;0.04286525;0.6418889;0;
20624.04;13795.15;2878.223;21050.54;-1.915744;-0.5519391;19250.84;9655.579;0.2377242;0.5113092;0;
-9817.804;-7384.946;2442.205;-9410.138;1.836249;-2.025009;-9447.633;-5852.332;0.1075507;0.1209914;0;
-32664.86;-23351.61;1307.633;-32779.18;-1.246079;-5.506026;-30980.94;-16857.37;0.1074426;0.3807392;0;
-23594.84;-15131.36;-624.0704;-24105.93;4.113808;-0.2758856;-22074.64;-10574.74;0.4321713;-0.009447467;0;
-30055.94;-21103.16;-2959.488;-30286.2;2.769527;2.403587;-28376.58;-14564.7;0.5616718;-0.009437974;0;
-22260.31;-15664.6;-4028.194;-22887;4.776477;3.539882;-20846.09;-11666.18;-0.02359868;0.2504409;0;
13564.58;10371.63;-3568.704;13094.51;13.21079;5.411725;13106.4;6903.384;-0.2834443;-0.3345169;0;
24479.42;15783.77;-2588.484;24886.86;-12.99146;8.956383;22784.28;11379.51;-0.0882575;-0.399148;0;
20470.03;12914.01;-654.8691;20911.18;-21.88702;11.82753;18939.37;9059.421;-0.1531362;-0.008942945;0;
22940.04;14849.1;1783.61;23326.6;-43.76808;14.16005;21333.14;10787.21;0.1068871;-0.203836;0;
20388.04;13563.5;2844.659;20797.28;-76.81293;17.42786;19028.04;9406.403;0.2367144;-0.3985332;0;
-9548.924;-7112.224;2425.26;-9187.897;-41.83826;15.06607;-9160.202;-5684.155;-0.2182949;-0.1382634;0;
-32168.71;-22841.07;1287.3;-32311.32;-22.77355;14.3811;-30485.9;-16466.72;-0.08814085;0.4465816;0;
-23145.28;-14674.86;-658.9063;-23697.37;-38.02229;11.68733;-21633.36;-10255.81;0.1068497;0.3811656;0;
-29100.84;-20122.83;-2979.452;-29374.89;-38.78837;5.714229;-27420.51;-13660.08;-0.02319231;0.3807826;0;
-21195.94;-14783.37;-4042.032;-21820.37;-28.30054;12.27269;-19805.71;-10886.32;-0.1531037;0.5103347;0;
14006.16;10548.03;-3581.591;13552.54;-19.3635;18.2887;13515.7;7035.753;-0.2179172;-0.1398516;0;
24652.17;15940.71;-2610.791;25060.45;-19.87991;7.218387;22954.67;11556.69;-0.1527309;-0.07474371;0;
20594.25;13057.61;-708.6068;21032.46;-16.24261;2.388484;19063.01;9187.138;-0.02264274;0.3801028;0;
23091.33;14991.55;1728.381;23475.12;-17.49909;2.921948;21486.41;10942.25;-0.02261999;0.05488416;0;
20710.65;13864.21;2797.106;21130.87;-20.22719;-1.367774;19332.47;9668.94;0.1073374;-0.01013834;0;
-9088.985;-6717.013;2364.824;-8728.361;-14.98293;5.733548;-8749.597;-5365.098;0.4970336;0.0548392;0;
-31375.26;-22067.29;1227.362;-31554.27;-12.8908;8.608052;-29710.25;-15895.07;0.1067301;-0.01018326;0;
-22116.52;-13630.32;-719.7996;-22699.84;-14.48543;11.61351;-20600.87;-9458.87;-0.1532465;-0.1401077;0;
-28063.07;-19068.04;-3046.032;-28359.63;-14.27078;18.56795;-26398.3;-12739.68;0.04180955;-0.2049343;0;
-20175.69;-13917.8;-4113.964;-20827.61;-15.46189;11.44922;-18821.17;-10323.2;-0.08816715;-0.2047284;0;
14603.95;10944.04;-3675.345;14149.36;-16.9866;9.562316;14083.76;7229.264;0.04185612;-0.26949;0;
24810.89;16093.49;-2698.688;25226.07;-14.42394;9.083828;23111.83;11762.39;0.1717488;-0.1392845;0;
20821.94;13301.23;-773.0058;21255.72;-12.73548;5.591588;19292.7;9409.435;-0.02332585;-0.2041119;0;
23252.39;15137.91;1646.743;23638.81;-13.72706;9.069081;21644.52;11105.47;-0.08826975;-0.1389395;0;
20716.63;13876.65;2705.898;21136.68;-15.25449;7.653327;19345.74;9646.301;0.1716883;0.1210695;0;
-8729.627;-6368.249;2288.169;-8358.748;-11.95663;13.07113;-8375.696;-5107.121;0.3014505;-0.008986826;0;
-30543.5;-21237.29;1149.223;-30709.92;-12.07833;19.89014;-28874.16;-15188.64;-0.2185912;-0.1389125;0;
-21319.29;-12833.08;-796.7825;-21897.49;-8.114083;10.42568;-19805;-9017.658;-0.02346949;-0.3336749;0;
-27944.9;-18956.35;-3125.342;-28202.03;0.8017013;5.257639;-26259.52;-12718.03;0.4962928;-0.5282416;0;
-20573.24;-14252.01;-4183.418;-21170.23;-15.14031;7.328827;-19189.18;-10410.12;-0.1538793;-0.5926782;0;
14437.2;10882.17;-3712.215;14006.62;-24.3685;4.977182;13930;7243.406;-0.08875731;-0.267246;0;
24884.98;16179.11;-2737.52;25300.96;-18.58324;6.512667;23187.56;11823.21;0.2361686;-0.3969122;0;
20929.7;13387.9;-810.3931;21364;-21.57867;10.45799;19401.45;9496.934;-0.2188401;-0.7863173;0;
23589.81;15495.03;1632.272;23975.43;-12.84945;1.672966;21987.13;11477.67;-0.2835875;-0.3957232;0;
21181.16;14275.83;2665.018;21610.13;-7.344186;-2.079638;19793.83;9992.083;0.1714688;-0.3303583;0;
-8175;-5912.923;2201.759;-7790.68;-6.398802;-1.340736;-7853.374;-4798.996;0.5611005;-0.459961;0;
-29652.72;-20392.76;1054.404;-29857.68;-4.383616;-6.831867;-27996.01;-14649.81;0.2357;-0.1996295;0;
-20624.78;-12156.68;-888.5077;-21268.42;-0.1586767;7.441996;-19119.31;-8714.21;-0.4142102;-0.004526858;0;
-27392.01;-18378.07;-3220.177;-27690.21;7.543666;17.07982;-25718.32;-12337.85;-0.4787613;0.1254124;0;
-19519.9;-13358.07;-4291.151;-20151.57;-4.721425;15.18725;-18162.84;-9811.51;0.04145844;0.06031903;0;
15158.66;11364.48;-3845.593;14721.47;-10.27639;19.7937;14616.11;7517.518;-0.0885179;-0.1346436;0;
24994.92;16271.09;-2875.792;25423.06;-12.87803;16.62561;23292.98;11968.5;-0.283331;-0.06954098;0;
21084.62;13562.15;-951.3371;21512.09;-21.63997;15.20226;19560.69;9654.87;0.3016598;0.1254309;0;
23600.81;15499.14;1469.199;23990.59;-12.4412;16.19173;21995.89;11494.79;0.1064547;0.1253049;0;
21141.05;14234.71;2516.165;21556.29;-9.348219;17.5821;19761.26;9897.782;-0.08855434;-0.2646251;0;
-7669.435;-5369.434;2085.227;-7327.923;-7.731236;12.47385;-7337.731;-4456.609;0.2363714;0.06047754;0;
-28841.83;-19602.63;936.3957;-29050.51;-1.359479;7.638671;-27191.39;-14092.55;0.04123182;0.2553188;0;
-19524.27;-11135.01;-995.559;-20165.41;-5.44395;12.58761;-18032.17;-7859.173;0.3010598;-0.3946112;0;
-25228.01;-16241.06;-3294.075;-25547.17;-4.836243;10.16358;-23558.3;-10351.42;0.3657246;-0.1343453;0;
-17348.17;-11555.65;-4367.911;-17982.92;-3.491237;21.00436;-16003.85;-8382.696;0.2354224;0.3855284;0;
15869.37;11676.62;-3941.156;15440.88;-4.827876;29.89186;15311.53;7627.98;0.3651206;-0.004663008;0;
25055.31;16353.64;-2974.93;25486.71;0.9377517;24.36934;23352.53;12117.9;0.1698517;-0.06962567;0;
21174.97;13672.67;-1063.681;21604.57;1.941187;26.15328;19649.71;9742.566;0.2346483;0.06037899;0;
23571.44;15448.2;1343.569;23961.2;7.230523;19.29498;21965.87;11451.85;0.1694452;-0.2645184;0;
21099.93;14223.24;2390.848;21502.71;13.5199;14.05105;19727.93;9888.187;0.03934027;-0.1343179;0;
-7755.125;-5449.81;1965.752;-7440.284;6.942229;12.42934;-7410.355;-4553.885;-0.2205686;0.06071908;0;
-28645.52;-19428.51;843.1839;-28892.41;6.666833;8.866876;-26986.11;-13948.27;-0.3502817;-0.00430929;0;
-19040.88;-10742.39;-1060.16;-19702.53;0.4981927;6.848478;-17543.96;-7656.897;-0.09006035;-0.2641743;0;
-25221.8;-16244.5;-3353.051;-25544.07;-7.205467;3.291624;-23549.96;-10414.13;-0.02500252;-0.3288762;0;
-17654.84;-11728.04;-4420.612;-18310.1;-2.84397;5.900528;-16337.73;-8415.458;-0.2198794;0.3211277;0;
15768.97;11668.19;-3983.154;15330.75;-5.453081;4.622046;15179.53;7647.756;-0.2846258;0.4507397;0;
25000.44;16291.96;-3003.58;25439.53;-0.7595286;12.25321;23298.83;12034.52;0.04049688;0.2553847;0;
21153.49;13647.12;-1068.626;21583.26;5.06936;21.4843;19634.51;9742.244;-0.02451115;0.3200955;0;
23794.88;15683.39;1351.622;24183.23;-2.839964;12.95612;22190.14;11671.84;-0.1544212;0.2548065;0;
21246.85;14334.99;2393.896;21662.68;-4.645772;10.93362;19866.97;10022.28;0.1056033;0.3844852;0;
-7763.689;-5511.542;1981.759;-7434.172;-5.913901;11.72643;-7435.15;-4570.555;0.04052987;0.2541641;0;
-28464.49;-19244.47;888.4722;-28716.67;-7.984064;9.77214;-26813.54;-13764.78;-0.1544129;-0.1358953;0;
-19605.55;-11260.75;-1014.714;-20258.71;-7.172734;11.97276;-18109.71;-8054.996;-0.08929039;0.189078;0;
-26324.84;-17351.21;-3309.26;-26620.3;-9.777495;12.09469;-24641.76;-11494.09;-0.02423332;0.578692;0;
-17723.84;-11892.73;-4343.866;-18348.45;-3.002517;12.55142;-16381.57;-8756.881;0.1057257;0.3182412;0;
16003.93;11817.17;-3886.01;15590.5;2.359135;12.20389;15429.25;7753.639;-0.02431521;-0.07188265;0;
24897.97;16196.62;-2916.841;25330.02;0.1459616;14.33509;23194.9;11965.48;-0.2841601;-0.006843083;0;
21107.47;13613.43;-1001.231;21528.69;1.820754;17.06686;19588.24;9705.021;-0.1539399;0.1230985;0;
23543.66;15408.97;1400.537;23934.45;1.014642;13.49974;21937;11392.85;-0.2837199;-0.1368946;0;
20899.03;14068.48;2456.255;21310.7;1.080971;12.68238;19530.69;9802.247;-0.08853283;-0.07178969;0;
-8418.261;-6060.172;2059.454;-8076.699;0.4102995;10.52618;-8065.275;-4951.128;0.04149081;-0.1366849;0;
-29596.67;-20317.38;951.534;-29807.03;-2.604223;6.965631;-27927.39;-14640.62;-0.4133223;-0.2015149;0;
-20003.67;-11564.45;-930.3829;-20624.53;2.287538;9.838776;-18489.52;-8200.206;-0.02310291;-0.2662798;0;
-25993.94;-16974.06;-3188;-26292.89;5.567769;10.23079;-24308.76;-10989.56;0.106855;-0.3959469;0;
-18025.24;-12040.85;-4232.38;-18663.5;0.6720546;10.48844;-16681.08;-8710.735;-0.3480238;-0.395549;0;
15517.1;11516.31;-3784.944;15093.28;-3.146038;12.8223;14956.23;7570.791;-0.2177394;-0.3301842;0;
24765.35;16055.18;-2803.819;25198.81;0.07230411;8.857548;23063.21;11792.99;0.04234876;0.4497556;0;
20911.75;13409.76;-868.0516;21341.26;1.746195;6.16933;19391.9;9507.397;0.1722409;0.6442057;0;
23484.26;15351.85;1561.131;23877.48;-2.542468;8.775466;21878.66;11323.49;0.1720678;0.05885238;0;
20748.31;13959.96;2627.151;21164.32;-1.400837;8.297768;19395.58;9712.993;0.2368623;0.1887279;0;
-8862.944;-6406.617;2234.27;-8518.954;-11.11134;10.09785;-8478.423;-5221.28;0.04172224;-0.2662331;0;
-30038.09;-20729.57;1131.859;-30239;-22.82183;11.82926;-28361.56;-14921.23;-0.08825436;-0.2009983;0;
-20712.44;-12241.62;-763.8884;-21314.37;-10.60873;10.1428;-19203.5;-8613.545;0.3016384;0.3189425;0;
-26780.02;-17751.92;-3017.269;-27062.95;-7.249172;11.87416;-25088.28;-11650.66;0.3663026;-0.2011168;0;
-18281.25;-12317.21;-4035.724;-18899.53;-6.706024;5.565957;-16934.34;-9037.069;0.04109785;-0.5257514;0;
15495.98;11496.18;-3572.618;15088.42;1.204944;-0.1330627;14930.94;7539.512;0.3009259;-0.07045172;0;
24639.63;15929.27;-2560.801;25078.99;-11.38857;3.886047;22938.91;11660.94;0.4305582;0.05955376;0;
20762.58;13265.6;-588.7489;21202.68;-16.80311;2.67645;19247.22;9381.908;-0.2845151;-0.1354081;0;
23330.27;15189.16;1849.602;23729.55;-15.98194;5.018041;21722.13;11138.91;-0.2192619;-0.005337373;0;
20435.07;13697.99;2905.493;20864.98;-21.99508;6.888521;19092.8;9523.848;0.5605665;-0.07029935;0;
-9543.389;-6992.923;2490.499;-9157.734;-12.79595;3.66654;-9129.96;-5531.331;0.4300686;-0.2001634;0;
-30590.73;-21265.45;1379.804;-30766.07;-10.50592;2.323198;-28902.11;-15290.32;-0.09010233;0.05990711;0;
-20911.79;-12459.84;-512.7726;-21511.14;-5.136728;-0.2244882;-19406.39;-8802.208;-0.02504445;0.1897816;0;
-27240.28;-18209.96;-2777.51;-27522.84;5.853147;-1.027936;-25549.04;-12021.27;0.1049154;0.1246236;0;
-18858.65;-12833.34;-3778.729;-19489.91;-8.687421;-7.256194;-17511.07;-9365.506;-0.1550594;0.1894657;0;
15325.12;11378.33;-3282.43;14902.95;-16.51557;-10.531;14761.98;7531.775;-0.08993624;-0.07059407;0;
24625.56;15907.16;-2281.68;25061.39;-11.67621;-13.86951;22924.37;11609.34;-0.08984587;-0.3303925;0;
20657.22;13159.66;-318.0609;21092.83;-13.20569;-18.34331;19136.91;9277.967;-0.4795597;0.1896782;0;
23426.43;15278.32;2138.961;23812.87;-12.32079;-13.50223;21813.69;11216.6;-0.1542411;0.3194223;0;
20473.8;13770.47;3190.126;20901.23;-11.5051;-13.55564;19128.66;9620.223;0.4955873;-0.2656047;0;
-9777.261;-7162.699;2768.506;-9386.772;-13.03378;-4.700458;-9362.986;-5634.937;0.430122;-0.3303052;0;
-30740.96;-21393.89;1662.591;-30909.83;-13.82497;2.404273;-29059.89;-15353.5;0.1048531;0.05983076;0;
-21381.44;-12932.5;-240.5609;-21958.55;-10.5959;4.545189;-19896.85;-9069.61;0.03978042;-0.005196713;0;
-27836.19;-18834.65;-2493.796;-28133.14;-6.432066;11.77466;-26158.9;-12559.8;-0.09019423;-0.2650609;0;
-18881.29;-12833.8;-3469.814;-19559.12;-10.71251;5.064654;-17557.86;-9512.269;-0.1550709;-0.0698925;0;
15340.7;11449.99;-2966.329;14911.48;-15.3908;1.442609;14744.04;7519.186;-0.1549151;0.1250798;0;
24475.48;15754.4;-1942.205;24916.7;-5.193926;3.249698;22768.06;11467.22;-0.2846942;0.05998675;0;
20624.17;13120.32;38.87658;21050.65;2.715523;2.308672;19108.9;9240.968;-0.3493754;0.3847632;0;
23217.46;15078.36;2472.521;23599.49;-3.852265;-0.4399481;21604.04;10999.72;-0.1541224;0.5792786;0;
20151.83;13409.92;3511.325;20574.99;-4.51798;-3.922497;18800;9295.982;-0.08900016;0.1888925;0;
-9974.703;-7424.122;3107.686;-9595.794;-5.91996;-1.440187;-9574.826;-5862.337;0.1709586;-0.3310361;0;
-31147.8;-21795.71;2004.522;-31337.84;-11.67381;-1.304774;-29467.51;-15662.58;0.5605909;-0.2657361;0;
-21870.07;-13407.54;99.82377;-22483.51;-2.553379;1.040818;-20385.58;-9375.104;0.3651256;-0.005599719;0;
-28180.57;-19180.58;-2146.397;-28477.89;2.339307;5.125609;-26515.32;-12783.95;0.1048894;-0.1355288;0;
-19399.93;-13250.12;-3118.142;-20019.63;-1.011946;1.369537;-18049.09;-9642.864;0.2347186;-0.2003599;0;
15014.94;11210.28;-2590.522;14605.41;2.270624;-1.645949;14460.62;7486.313;-0.1553213;-0.2001586;0;
24545.35;15817.79;-1551.378;24974.61;-7.108779;3.647234;22838.84;11488.35;-0.4800019;-0.07002281;0;
20527.2;13024.79;436.0577;20969;-15.27331;5.451986;19006.87;9162.349;0.04021915;0.05998225;0;
23105.78;14957.3;2907.096;23495.63;-9.498163;4.642713;21493.14;10871.4;0.3000481;-0.3298821;0;
20080.4;13391.49;3959.582;20506.03;-11.2963;6.245638;18739.77;9303.903;0.1698119;-0.4594853;0;
-10480.38;-7838.799;3532.097;-10106.26;-6.998047;0.4789526;-10061.53;-6213.76;0.299576;-0.3290889;0;
-31955.39;-22603.19;2400.272;-32099.95;-1.364937;-2.602622;-30265.32;-16185.06;0.1693403;-0.00392155;0;
-23359.79;-14923.84;445.9661;-23828.48;-8.798305;-5.346246;-21846.36;-10253.15;0.03923545;0.1909844;0;
-30196.01;-21222.06;-1826.746;-30409.12;-9.994913;-9.15884;-28497.22;-14549.74;0.03919603;0.06085784;0;
-20333.53;-14139.86;-2783.023;-20982.9;-12.79889;-7.809978;-18962.34;-10599.84;-0.3506474;0.2556987;0;
14945.33;11209.75;-2266.5;14522.93;-17.13931;-7.869114;14402.64;7489.82;-0.2853277;0.3853765;0;
24266.37;15538.42;-1236.333;24708.54;-12.50038;-6.923507;22564.25;11190.1;-0.2200737;-0.004814817;0;
20306.17;12808.74;758.2977;20750.42;-12.08568;-6.581635;18792.55;8959.849;-0.6096566;-0.5245487;0;
22984.71;14816.28;3188.72;23381.06;-8.658262;-1.082483;21369.6;10700.53;-0.1542726;-0.5240216;0;
19469.8;12915.83;4210.407;19891.78;-4.362655;4.477944;18169.87;8915.31;0.3656211;0.1261783;0;
-11618.91;-8730.544;3797.663;-11259.18;-6.367027;3.736755;-11121.91;-6795.49;0.04041702;0.1260515;0;
-32701.39;-23302.18;2680.906;-32873.56;-4.95411;5.340468;-30987.78;-16767.4;-0.08955827;-0.1989118;0;
-23279.83;-14862.49;753.8987;-23799.79;-5.619693;7.612522;-21765.73;-10302.4;-0.219403;-0.3286467;0;
-30225.64;-21227.23;-1507.707;-30458.14;-6.417354;10.1501;-28515.67;-14506.44;-0.1542152;-0.2633491;0;
-21038.79;-14725.25;-2465.647;-21660.96;-3.86531;9.804989;-19658.35;-10845.06;-0.2839949;-0.1331498;0;
14426.33;10833.05;-1921.411;14009.02;-2.857048;10.79988;13895;7301.299;-0.6735136;-0.133016;0;
24222.38;15492.27;-888.7637;24654.92;-1.246587;10.38713;22520.03;11096.02;-0.08813076;0.06201969;0;
20165.09;12659.85;1097.475;20609.42;0.2949071;7.831465;18649.58;8812.388;-0.02307486;0.4517614;0;
23025.89;14868.08;3560.415;23412.65;1.165267;14.11987;21412.24;10733.67;-0.282921;0.3213728;0;
19811.56;13229.49;4589.287;20241.64;1.298794;15.17729;18503.37;9251.439;0.1721346;-0.003786827;0;
-11883.34;-9032.966;4123.97;-11490.29;4.780113;20.7215;-11397.33;-7102.844;0.1719617;0.06118434;0;
-33959.57;-24553.57;2959.285;-34049.57;7.655698;29.81023;-32229.61;-17787.27;-0.08808049;0.3209922;0;
-24918.66;-16511.64;1017.223;-25318.45;4.834967;17.12075;-23372.63;-11366.24;-0.02302464;0.385637;0;
-31764.31;-22821.33;-1245.709;-31962.69;2.954098;10.20443;-30056.25;-15863.4;0.3668025;-0.4593259;0;
-22165.64;-15653.39;-2215.344;-22824.05;2.616338;12.73952;-20786.1;-11722.42;0.1715319;-0.7187337;0;
13918.57;10567.98;-1706.623;13484.08;0.9387692;9.44456;13400.87;7121.359;-0.08850977;-0.1982728;0;
24000.28;15267.47;-686.5134;24423.26;-1.004557;10.97568;22298.21;10826.38;0.4313179;-0.263041;0;
19924.67;12409.39;1299.975;20362.19;-1.472062;10.42879;18407.63;8578.256;0.3009498;-0.327744;0;
22679.22;14502.91;3708.395;23065.5;-6.494425;10.75322;21053.18;10325.69;-0.154124;-0.06754529;0;
18875.27;12445.11;4677.711;19289.18;-8.631353;13.22079;17608.28;8590.948;0.235835;0.1923919;0;
-13431.11;-10293.86;4202.591;-13085.4;-10.96623;8.384851;-12870.71;-8015.856;0.625402;0.1272313;0;
-35112.47;-25681.17;3050.133;-35246.87;-15.24212;6.299956;-33393.52;-18721;0.1050349;0.1920708;0;
-25352.97;-16996.53;1123.972;-25775.63;-7.993134;7.365353;-23840.92;-11713.23;-0.4148094;0.3218125;0;
-31979.42;-23023.19;-1131.977;-32191.57;-6.24379;7.5589;-30275.77;-15955.1;-0.1545232;-0.1982496;0;
-22418.51;-15861.43;-2089.748;-23047.9;1.733087;7.417339;-21041.04;-11761.98;-0.1543679;-0.3929524;0;
13735.42;10436.64;-1555.588;13343.84;11.9801;5.400399;13205.68;7133.813;-0.3491149;0.1921485;0;
23984.83;15241.8;-539.5813;24406.63;5.33663;11.42331;22273.88;10768.08;0.235942;0.5817595;0;
19843.93;12325.86;1424.568;20279.59;6.000853;14.69388;18327.86;8496.115;0.4955743;0.2563382;0;
22620.11;14434.05;3842.42;23008.47;4.789375;15.14799;20983.95;10248.44;0.1052723;-0.1337234;0;
18851.45;12483.05;4824.314;19225.87;1.837801;19.21873;17652.04;8635.482;0.1701339;-0.06862172;0;
-13602.06;-10376.27;4337.271;-13283.5;6.055513;12.97013;-12942.61;-8016.313;-0.02493912;-0.1984875;0;
-35273.66;-25835.3;3170.903;-35376.57;6.316873;10.2108;-33531.92;-18730.03;-0.4147181;-0.3931901;0;
-26399.7;-18043.76;1228.067;-26767.04;8.788772;8.191172;-24863.74;-12583.49;0.1704047;-0.392795;0;
-34520.37;-25587.85;-1030.251;-34690.54;8.646219;3.025377;-32802.42;-18417.17;0.3651355;-0.1974983;0;
-24556.24;-17860.34;-1970.93;-25204.15;14.33096;8.045936;-23161.79;-13567.91;-0.4148395;0.2574716;0;
13173.03;10080.81;-1434.484;12735.33;21.61758;10.85101;12686.71;6900.96;-0.6093247;0.2572129;0;
23820.06;15085.46;-420.3327;24238.57;12.95567;8.428845;22115.45;10567.74;-0.4138104;-0.392719;0;
19547.17;12015.43;1540.745;19985.57;9.86119;9.224049;18030.21;8202.666;-0.4133946;-0.3923244;0;
22482.28;14291.63;3939.615;22866.64;8.712205;8.344125;20849.21;10065.75;-0.2180772;0.1278086;0;
18174.62;11906.96;4915.258;18558.68;4.015378;5.857372;16976.37;8174.065;0.1069786;0.2576148;0;
-14938.11;-11519.91;4454.954;-14622.99;6.824382;12.61664;-14271.66;-8870.116;0.4966752;-0.1324481;0;
-36285.52;-26829.16;3326.074;-36373.43;4.942491;17.4936;-34525.95;-19565.21;0.4312088;-0.327217;0;
-26427.86;-18068.42;1424.561;-26763.49;8.621221;13.72509;-24849.82;-12415.06;-0.1539306;0.06291583;0;
-33090.66;-24123.79;-796.9417;-33270.79;14.17226;13.24242;-31350.85;-16880.16;-0.4136453;0.2577546;0;
-22981.34;-16396.55;-1736.387;-23628.43;3.909268;11.62153;-21593.72;-12211.74;-0.283295;0.1925283;0;
13473.23;10250.43;-1204.05;13063.6;-2.12288;9.064499;12979.83;7039.638;0.1067937;0.3872369;0;
23756.67;15010;-178.2299;24184.01;0.5585703;9.189356;22051.59;10491.69;0.1066864;0.1919457;0;
19467.36;11948.82;1784.478;19916.08;0.625358;9.314089;17954.89;8130.965;-0.6080616;0.1267855;0;
22307.02;14095.46;4190.663;22698.39;-1.920866;4.816995;20673.3;9854.861;-0.4125485;0.4514948;0;
18137.94;11935.36;5175.892;18514.58;-1.986285;1.262182;16963.74;8233.129;0.2375394;0.1262045;0;
-15197.15;-11695.77;4702.801;-14885.77;-5.064772;2.868504;-14497.22;-9022.364;-0.02256862;-0.198759;0;
-36941.77;-27475.41;3540.689;-37039.46;-10.48567;2.731656;-35180.36;-20072.4;-0.08751329;-0.133592;0;
-27570;-19232.28;1587.455;-27909.79;0.6442807;2.92986;-25995.21;-13256.57;0.3023787;0.191379;0;
-34700.71;-25767.94;-670.4904;-34867.34;9.283821;2.391052;-32966.11;-18381.58;0.0422055;0.3860887;0;
-24426.94;-17633;-1607.174;-25084.74;2.977854;5.603709;-23024.7;-13312.59;-0.347641;0.2557661;0;
12799.43;9861.378;-1074.248;12359.56;1.568342;8.545327;12338.19;6786.877;-0.412259;0.2555091;0;
23561.86;14828.78;-57.382;23978;4.983017;6.862167;21858.23;10272.6;-0.1519754;-0.06958439;0;
19392.1;11850.82;1914.31;19830.53;6.987742;7.993982;17871.65;8035.022;-0.021888;-0.1994492;0;
22542.99;14336.71;4319.957;22923.88;4.100333;4.435854;20905.63;10059.49;-0.216768;0.125588;0;
18025.55;11876.64;5281.35;18406.89;1.283174;0.9484066;16867.14;8267.542;-0.02164819;0.06049444;0;
-16232.15;-12630.76;4793.067;-15916.29;2.889475;3.358839;-15514.5;-9747.151;0.3681776;0.125401;0;
-38039.9;-28567.38;3639.36;-38123.08;2.48443;3.757362;-36284.7;-20988.67;0.3028403;0.2552097;0;
-28421.54;-20077.57;1712.388;-28742.59;0.3384797;4.021396;-26840.78;-13840.1;0.4324707;0.1899859;0;
-35701.65;-26765.23;-524.8179;-35864.32;-1.805314;6.763656;-33958.44;-19265.01;0.04223211;0.1248277;0;
-25228.4;-18404.31;-1454.963;-25873.6;-1.937222;2.60404;-23809.87;-13983.81;-0.4125817;0.1247022;0;
12534.09;9635.68;-914.6161;12106.48;-0.7298267;-2.489158;12084.04;6675.769;-0.2172651;-0.07032511;0;
23455.73;14716.33;109.2575;23869.6;-7.225828;7.828471;21750.42;10125.03;-0.08711214;-0.3950911;0;
19071.07;11528.43;2081.844;19521.21;-11.37175;12.64325;17548.99;7708.219;-0.1519919;-0.1997921;0;
22052.93;13823.38;4496.443;22436.74;-11.15926;12.36262;20409.82;9521.418;-0.2168066;-0.004689366;0;
17386.23;11418.58;5473.432;17705.63;-14.83174;15.23034;16304.99;7847.703;-0.2815561;-0.264554;0;
-17130.11;-13265.43;4991.828;-16880.76;-8.453823;11.66506;-16321.05;-10329.27;-0.08637112;-0.3292555;0;
-39188.48;-29706.7;3843.355;-39278.56;-2.618179;12.12222;-37428.36;-21962.32;0.173585;-0.2639574;0;
-29724.55;-21425.19;1925.268;-30040.57;-7.906834;4.742042;-28140.76;-14793.01;0.04347593;-0.1337574;0;
-36916.68;-27992.58;-298.0184;-37079.84;-9.506479;-1.692841;-35174.92;-20327.21;-0.2164371;0.451083;0;
-26080.86;-19176.87;-1213.399;-26732.84;-7.420823;-0.5525517;-24661.62;-14679.95;-0.281187;0.3856624;0;
12071.93;9311.43;-677.6519;11626.99;-8.551466;-4.905765;11648.75;6466.801;-0.2159371;0.06043822;0;
23234.64;14497.93;335.2077;23641.78;-5.26132;0.256728;21531.33;9878.772;-0.1507528;0.3202469;0;
19010.15;11455.4;2310.44;19454.43;-1.907131;2.600873;17487.06;7623.022;-0.02066663;0.5797945;0;
22187.13;13959.41;4722.999;22568.84;-6.325844;2.799208;20548.09;9662.442;-0.08561321;0.5142445;0;
17473.53;11505.4;5707.193;17825.08;-5.247761;6.547318;16354.3;7894.415;-0.1504945;0.4487604;0;
-17371.1;-13498.14;5245.969;-17089.45;-12.34243;1.316192;-16604.55;-10684.17;0.04455872;0.0585055;0;
-39518.65;-30039.09;4095.242;-39607.29;-20.97022;-0.96255;-37748.48;-22291.54;-0.0204534;-0.3313574;0;
-30350.45;-22055.42;2166.251;-30658.12;-10.03179;-1.564307;-28749.04;-15312.39;0.04453449;-0.2660571;0;
-38548.48;-29650.22;-73.19144;-38700.64;-6.270662;-3.50524;-36815.26;-21955.43;0.1744244;-0.3307571;0;
-27979.67;-20906.78;-1009.085;-28627.99;-5.728498;-4.640428;-26550.14;-16120.79;-0.1505875;-0.005588013;0;
11353.09;8847.174;-472.8713;10915.76;-3.110773;-6.578209;10953.06;6280.972;-0.08546889;0.5791237;0;
23313.32;14595.17;532.6768;23723.57;-4.044676;-5.098036;21611.24;9927.027;0.1744864;0.2537051;0;
18846.69;11260.72;2482.567;19294.9;-2.968885;-3.083426;17317.32;7418.575;-0.1505257;-0.2662886;0;
22076.14;13864.42;4883.427;22451.76;-5.64522;-4.219038;20433.5;9543.611;-0.2153418;0.123783;0;
17425.22;11440.37;5857.185;17767.34;-4.233028;-3.009105;16330.53;7900.811;0.3046134;0.2535934;0;
-17897.15;-14024.11;5373.196;-17603.51;-13.00366;-1.666423;-17095.37;-10936.73;0.629144;0.1234038;0;
-39746.37;-30278.39;4209.129;-39832.56;-20.02319;-2.803458;-37986.4;-22542.43;0.3036751;0.1882472;0;
-29866.13;-21577.48;2261.564;-30189.1;-15.44872;5.906896;-28284.98;-14995.5;-0.02146675;-0.006843999;0;
-37754.12;-28843.45;1.95789;-37912.98;-17.97879;10.65663;-36026.92;-21189.46;-0.1513799;0.05813023;0;
-26815.98;-19912.45;-928.592;-27465.83;-8.315187;14.06193;-25414.77;-15330.83;-0.08626041;-0.3317322;0;
12149.1;9388.617;-404.172;11716.8;-1.60805;22.01864;11709.37;6627.189;0.04376095;-0.5263009;0;
23379.16;14635.73;573.8833;23789.05;-1.13792;12.61915;21673.4;9972.221;0.1736517;0.3837707;0;
18993.64;11429.31;2513.425;19440.01;1.408819;8.252705;17465.57;7582.412;-0.02142485;0.1235157;0;
22130.26;13884.7;4877.991;22514.21;4.421514;9.583949;20479.65;9547.802;-0.151338;-0.2664125;0;
16943.55;11121.83;5809.182;17254.93;12.38767;6.158311;15908.5;7589.516;0.1736508;0.1236593;0;
-17957.95;-13876.66;5330.582;-17715.31;-2.42788;10.63986;-17091.7;-10784.13;0.1085089;0.0585677;0;
-39330.92;-29857.39;4160.936;-39423.3;-10.79818;12.43771;-37575.38;-22079;-0.2814041;0.1234762;0;
-29857.96;-21595.28;2185.278;-30171.18;-11.38957;14.03268;-28280.73;-14897.59;0.2386173;-0.2014846;0;
-37095.3;-28168.58;-56.80799;-37270.41;-22.56489;16.49694;-35376.45;-20511.58;0.6281816;-0.5261188;0;
-25466.11;-18663.99;-966.0126;-26136.94;-7.269617;17.88701;-24105.39;-14316.23;0.04284436;-0.005851479;0;
12621.76;9723.425;-442.9606;12193.03;0.9093617;19.94539;12150.24;6799.216;-0.1521007;0.1890564;0;
23365.48;14605.31;570.7408;23786.23;-2.641526;20.46121;21654;9953.155;0.1728888;0.1238991;0;
19096.73;11539.18;2555.482;19545.65;4.393727;20.50763;17565.94;7684.555;0.2376824;0.383644;0;
22160.68;13899.3;4932.281;22544.28;-7.264987;21.55875;20507.93;9535.024;0.302411;0.5131932;0;
16905.37;11135.61;5851.579;17225.27;-14.09019;23.01072;15887.04;7632.411;0.4320418;0.1878408;0;
-18397.52;-14255.42;5343.545;-18136.93;-10.05754;18.29891;-17517.97;-11124.33;0.4316077;-0.007249949;0;
-39976.49;-30510.4;4160.456;-40065.06;-12.92685;14.73043;-38223.73;-22688.6;-0.08856475;0.3175941;0;
-30127.44;-21882;2193.824;-30439.84;-7.756297;15.05054;-28545.64;-15104.89;-0.3483451;0.1873403;0;
-37272.69;-28341.06;-46.06808;-37434.54;-5.203884;13.89671;-35533.58;-20637.17;0.04180894;-0.1376847;0;
-25726.57;-18941.28;-947.6624;-26380.01;-4.662792;12.27528;-24347.77;-14531.71;-0.2830698;-0.07257902;0;
12600.48;9672.854;-413.7124;12182.96;-2.246233;9.985523;12129.16;6819.664;-0.217818;0.2523306;0;
23497.87;14726.29;597.0548;23918.83;-2.77984;10.98023;21780.3;10055.51;0.3021396;-0.07275964;0;
19208.83;11650;2587.298;19657.85;-0.4998707;9.294627;17681.32;7784.854;0.1719013;-0.2026212;0;
22320.17;14057.6;4973.06;22706.74;-4.718927;13.03633;20668;9701.533;0.2366959;0.3822885;0;
17010.04;11183.27;5883.291;17344.46;-6.992337;19.2524;15970.27;7644.564;0.5612948;0.122035;0;
-18083.58;-14007.33;5367.76;-17810.33;-7.788619;8.516032;-17219.96;-10883.79;0.3658288;-0.137957;0;
-39168.67;-29706.5;4181.679;-39258.07;-12.53621;3.885775;-37417.89;-21965.56;0.0406245;0.1870183;0;
-29487.43;-21238.28;2195.536;-29794;-4.351944;3.279146;-27910.53;-14586.19;-0.1543183;-0.3329083;0;
-36605.97;-27679.66;-65.01936;-36767.59;2.149163;-2.752491;-34867.3;-20042.44;0.04073874;-0.2676065;0;
-24636.33;-17909.9;-980.4313;-25289.49;-2.407348;6.694624;-23278.53;-13736.71;0.1056651;0.3823358;0;
13113.31;10111.86;-461.7221;12703.34;-1.266829;13.11814;12620.73;7061.068;-0.2192777;0.3169843;0;
23485.4;14706.42;538.9578;23906.48;-3.274312;8.6171;21768.01;10057.42;-0.2840247;0.05679644;0;
19257.3;11700.21;2503.741;19702.27;-8.697006;7.737785;17729.55;7817.776;-0.08883733;-0.1381627;0;
22344.02;14071.82;4855.417;22729.58;2.363795;10.87809;20690.92;9709.903;0.04118662;0.2517802;0;
17199.7;11342.28;5754.552;17567.88;8.85913;12.67569;16106.16;7772.1;0.1061126;0.5113966;0;
-17907.02;-13851.29;5229.594;-17597.65;5.567698;11.45726;-17109.99;-10807.97;0.3658753;-0.07382334;0;
-38899.33;-29427.47;4023.724;-39004.65;10.1838;12.58446;-37155.51;-21767.7;0.430475;-0.2686512;0;
-28940.3;-20686.94;2024.371;-29264.52;-1.548075;8.285032;-27375.01;-14194.03;0.2351405;0.05645548;0;
-36447.7;-27513.57;-237.7769;-36611.85;-13.73766;5.396441;-34727.23;-19910.89;0.1049695;0.1213661;0;
-24651.3;-17974.63;-1127.919;-25326.62;-1.867509;4.721189;-23298.35;-13740.85;-0.1550053;-0.2035926;0;
13440.57;10383.91;-570.8459;13013.48;1.014756;-0.03922065;12938.44;7314.334;-0.3497516;-0.39829;0;
23829.86;15047.51;459.6943;24250.17;-0.1926887;7.395802;22108.71;10379.75;-0.1544982;-0.2679552;0;
19642.23;12078.65;2477.843;20081.68;6.77373;12.41197;18112.23;8188.685;-0.02440823;-0.3976206;0;
22702.96;14437.75;4872.898;23084.64;-8.572046;8.380521;21047.78;10074.61;0.1705183;-0.2672864;0;
17634.92;11664.29;5765.738;17980.36;-21.15574;8.840981;16527.3;8024.313;0.3002817;0.3176883;0;
-16804.17;-12916.58;5230.898;-16534.23;-7.737892;7.090663;-16024.02;-9989.137;0.2350126;0.1874344;0;
-37788.36;-28331.3;4004.287;-37899.8;-4.514936;6.279743;-36042.71;-20756.4;0.6245805;0.1222787;0;
-28725.11;-20463.71;1963.881;-29042.69;-2.701738;5.26869;-27152.63;-14059.98;0.4940183;0.3820252;0;
-36526.7;-27603.27;-311.5748;-36706.67;2.592262;3.923737;-34798.19;-20075.51;0.1686851;0.05680464;0;
-24397.26;-17743.44;-1188.009;-25084.09;-0.6255235;4.254709;-23050.8;-13610.4;0.2984503;-0.1381545;0;
13647.2;10519.98;-611.1979;13229.44;2.522937;2.107102;13126.94;7378.682;0.2331831;0.1868211;0;
23772.11;14978.68;435.5154;24197.94;-4.645918;7.597463;22050.4;10321.86;0.2979161;0.3815354;0;
19588.96;12034.04;2449.877;20027.88;-13.54986;12.21153;18062.2;8138.552;0.3625841;0.18625;0;
22704.2;14422.31;4838.058;23091.87;-1.212359;8.984078;21050.39;10031.5;0.3622198;-0.1387739;0;
17429.85;11537.49;5727.403;17785.35;4.147493;8.372205;16343.28;7961.016;0.6866925;-0.0736671;0;
-17420.78;-13430.95;5192.196;-17128.06;1.330287;10.03837;-16615.96;-10375.63;0.1662638;-0.2035278;0;
-38348.4;-28886.5;3999.544;-38438.3;2.333328;11.63587;-36593.61;-21256.03;-0.6135113;-0.1383559;0;
-28563.28;-20307.18;2007.712;-28865.38;1.259257;9.748655;-26987.68;-13895;-0.6778622;0.2515872;0;
-36131.12;-27200.38;-249.1716;-36273.18;1.32534;10.14076;-34397.23;-19621.87;-0.6122137;0.2513344;0;
-24498.35;-17839.01;-1128.011;-25148.56;-1.221587;7.652322;-23132.9;-13583.07;-0.4816639;0.0561798;0;
13480.64;10395.8;-550.1202;13065.47;-3.832328;3.156776;12987.51;7333.634;-0.3512453;-0.2687134;0;
23914.64;15121.22;505.8239;24342.4;-4.900204;12.59808;22195.45;10440.5;0.1038791;-0.3334107;0;
19800.67;12231.58;2544.26;20240.6;-8.981117;19.35045;18272.75;8322.315;0.168742;0.05672837;0;
23136.46;14870.71;4975.386;23512.75;-5.35477;16.78578;21485.11;10490.5;0.2335398;0.1216387;0;
18224.31;12152.48;5892.236;18604.36;-0.5266187;18.57733;17072.76;8490.146;0.5581419;-0.07338555;0;
-16636.08;-12897.09;5342.557;-16316.1;-10.44005;19.42944;-15903.5;-10013;0.167777;-0.2682138;0;
-37909.91;-28466.74;4124.111;-37992.79;-15.11763;17.80245;-36152.05;-20885.4;0.03767373;-0.202977;0;
-29049.04;-20781.83;2110.228;-29333.24;-12.49048;24.75054;-27463.34;-14348.39;0.1026032;0.2519984;0;
-37524;-28623.82;-155.8953;-37677.2;-12.3442;29.54832;-35789.93;-21073.92;-0.3522713;0.05684313;0;
-25386.52;-18649.28;-1008.185;-26045.22;-11.12537;26.77245;-24017.1;-14363.1;-0.4168846;-0.3979854;0;
13466.26;10439.25;-403.6474;13067.87;-13.86086;29.02285;12959.29;7414.436;-0.3514984;-0.2026835;0;
23976.56;15177.75;666.939;24398.39;-1.522076;22.4296;22251.71;10482.56;-0.4161126;0.05738957;0;
19878.94;12307.65;2716.457;20316.28;8.057647;16.11079;18350.4;8391.515;-0.2857598;0.2522339;0;
23174.33;14894.18;5130.888;23552.95;3.628921;21.1182;21516.53;10493.87;-0.2205053;0.1220458;0;
17898.92;11943.6;6043.208;18268.99;6.906828;20.2262;16795.17;8310.648;0.03958563;-0.008011532;0;
-17019.55;-13101.82;5521.708;-16700.79;-0.3337802;25.16249;-16231.52;-10155.47;0.1694805;-0.07297082;0;
-38094.41;-28647.91;4314.451;-38181.56;-6.630085;32.97409;-36347.52;-21041.59;0.2342776;-0.2677995;0;
-29124.78;-20879.84;2307.248;-29420.98;-5.752767;22.96075;-27559.89;-14388.5;0.2340422;-0.07262842;0;
-37143.58;-28232.11;55.93469;-37301.73;-9.966545;15.43571;-35426.22;-20661.18;-0.155997;0.1223466;0;
-24806.22;-18178.33;-794.6159;-25466.63;-8.34894;26.27119;-23457.7;-13912.53;-0.3507423;-0.07267837;0;
13632.03;10460.72;-173.9728;13239.49;-6.53189;29.92873;13109.63;7413.892;-0.09052052;-0.07260534;0;
23890.33;15085.71;921.3547;24307;-12.48717;29.56375;22164.91;10368.77;0.1694398;-0.007565049;0;
19591.64;12032.08;2964.714;20023.63;-15.35404;32.95017;18062.15;8120.222;0.1043022;-0.1374921;0;
22738.16;14424.97;5356.344;23121.13;-14.13316;26.35286;21072.09;9976.5;-0.155672;-0.2672887;0;
16839.12;11131.04;6253.789;17145.62;-16.26241;23.71404;15810.5;7657.027;-0.1555155;-0.2670201;0;
-18783.49;-14545.85;5747.85;-18552.2;-8.945056;20.14024;-17908.65;-11256.96;0.1694774;-0.3317191;0;
-39109.59;-29655.94;4591.59;-39232.06;-0.9654654;15.16339;-37360.79;-21911.15;0.1043398;-0.4613205;0;
-29193.41;-20975.73;2624.713;-29510.26;-8.532956;16.62178;-27619.94;-14391.04;-0.09066707;-0.1360203;0;
-36674.57;-27744.99;411.9055;-36851.37;-13.07971;14.59559;-34948.27;-20160.89;0.1043261;0.1239858;0;
-23978.11;-17399.14;-404.8324;-24672.78;-6.636206;17.66214;-22643.18;-13307.26;-0.09068079;0.2537959;0;
13930.08;10715.92;185.7621;13508.4;-6.026326;20.18962;13406.27;7575.484;-0.350459;0.3185082;0;
23773;14964.25;1249.822;24194.21;-3.676722;19.9014;22049.2;10250.54;-0.02527019;-0.006648531;0;
19554.6;11998.52;3304.095;19988.1;2.221471;22.76167;18023.65;8075.063;0.1046899;0.3181949;0;
22698.28;14370.63;5704.348;23079.03;-9.36771;19.9925;21036.18;9909.476;-0.1552847;0.3178751;0;
16670.99;11070.14;6638.613;16990.14;-14.71693;17.76197;15675.22;7584.448;-0.3500307;-0.202183;0;
-19260.14;-14893.36;6179.232;-19007.72;-15.5728;21.49517;-18357.27;-11690.29;-0.02484225;0.1228569;0;
-39751.46;-30299.21;5028.099;-39860.65;-21.38528;22.81311;-37996.98;-22520.34;0.4299541;-0.07216861;0;
-29801.5;-21602.03;3080.648;-30123.28;-13.99542;21.38367;-28221.32;-14831.36;0.1696527;-0.4619001;0;
-37570.27;-28657.65;893.2131;-37748.77;-12.10633;19.82157;-35842.43;-20987.65;-0.3502565;-0.07163198;0;
-25140.77;-18462.33;73.91443;-25812.51;-7.873628;21.14131;-23784.07;-14186.52;-0.2199699;-0.1365273;0;
13386.03;10289.84;683.3151;12984.97;-2.508058;23.19642;12878.82;7305.033;0.4948919;-0.07142282;0;
23680.33;14872.65;1756.714;24104.85;-3.777359;17.14489;21960.2;10124.3;0.2994926;0.1885183;0;
19239.13;11668.46;3804.449;19680.42;-0.02251966;13.77852;17707.46;7742.932;-0.1555797;-0.2014752;0;
22504.82;14165.23;6227.969;22884.61;-5.850622;13.16183;20843.35;9674.521;0.03947866;-0.2012727;0;
16017.5;10675.69;7159.927;16311.17;-8.725132;10.00053;15115.93;7281.669;0.3642757;-0.2660378;0;
-20756.66;-16070.8;6682.188;-20511.97;-9.787115;12.80364;-19764.31;-12703.62;0.4938444;-0.4606725;0;
-41044.08;-31597.63;5549.758;-41129.09;-14.33261;13.32664;-39295.17;-23678.55;0.1035441;-0.2653076;0;
-30933.13;-22767.26;3598.91;-31233.92;-8.892223;13.38023;-29335.54;-15765.9;-0.2213967;-0.3300084;0;
-38651.66;-29731.79;1389.808;-38815.56;-7.275698;13.03187;-36892.91;-21997.07;-0.6109782;0.190062;0;
-25539.61;-18840.46;574.04;-26198.81;-6.933595;13.88955;-24173.06;-14557.85;-0.740299;0.7096097;0;
13264.03;10240.32;1172.287;12865.64;-8.534219;16.42095;12767.52;7324.236;0.1050203;-0.07071141;0;
23549.55;14732.24;2243.508;23971.4;-1.694116;9.170414;21823.3;9962.578;0.1698821;-0.5903791;0;
19264;11685.52;4292.847;19704.21;6.814053;6.080107;17733.93;7748.738;-0.09015797;-0.1999818;0;
22501.68;14166.68;6663.246;22886.03;-6.253612;1.184366;20839.86;9675.386;0.2347693;0.4498926;0;
16238.82;10752.16;7541.075;16542.11;-9.529859;-6.050859;15282.5;7338.927;0.1045987;0.5793751;0;
-20507.44;-15977.22;7010.542;-20255.82;-18.16047;-2.159891;-19564.76;-12623;0.2344283;-0.2008151;0;
-41188.63;-31747.34;5821.217;-41272.3;-31.8736;-3.296309;-39437.15;-23814.21;0.03929075;-0.330548;0;
-30939.29;-22766.58;3877.873;-31233.2;-17.97647;0.05602799;-29341.14;-15749.17;-0.1556507;0.1245555;0;
-38752.99;-29856.91;1686.42;-38901.21;-11.12591;7.022075;-37001.52;-22111.84;0.1693424;0.1893977;0;
-26102.06;-19369.35;872.2275;-26757.08;-17.34402;-2.161521;-24730.81;-14988.27;-0.4805012;0.05927274;0;
13096.59;10108.57;1489.79;12691.91;-18.59939;-5.977254;12603.79;7254.29;-0.6749204;0.1241805;0;
23716.24;14902.8;2542.482;24141.46;-13.42314;-1.61748;21990.54;10108.44;-0.1545035;-0.07084629;0;
19224.62;11633.75;4551.979;19670.2;-8.654228;-1.950769;17688.88;7688.695;-0.1543483;-0.8503832;0;
22501.73;14160.27;6912.341;22881.1;-11.39122;3.208755;20838.79;9652.369;-0.1541932;-0.6546267;0;
16070.6;10697.9;7783.61;16356.58;-11.51447;5.482951;15147.08;7300.457;0.1058311;-0.004295523;0;
-20755.4;-16085.95;7256.457;-20525.75;-10.43118;9.764227;-19784.11;-12710.25;0.3655941;-0.3291279;0;
-41272.55;-31842.23;6059.919;-41372.26;-9.817484;15.64879;-39528.28;-23852.62;0.3002594;-0.1338952;0;
-31396.82;-23252.63;4070.515;-31712.46;-10.61093;10.34154;-29805.66;-16082.06;0.170023;0.3210108;0;
-38981.38;-30065.99;1852.631;-39163.18;-11.94041;8.991488;-37239.71;-22287.38;0.03991752;0.1907535;0;
-25540.46;-18875.41;1011.16;-26220.55;-9.316445;7.642795;-24186.69;-14599.12;-0.02508993;0.1905619;0;
13372.82;10315.21;1569.769;12961.77;-8.904943;5.62575;12877.15;7423.204;0.2348046;0.3852724;0;
23624.74;14794.01;2597.3;24046.42;-6.015606;4.749319;21895.23;9992.59;-0.02530065;0.4498526;0;
19343.54;11754.71;4614.144;19783.37;-1.790003;3.136956;17809.55;7795.68;-0.2201772;0.1895312;0;
22794.81;14462.99;6981.315;23170.81;-6.075112;4.071565;21130.08;9957.365;-0.09002133;0.1243735;0;
16870.51;11216.27;7849.142;17150.22;-8.212461;3.129713;15882.75;7761.428;-0.08993088;0.3841178;0;
-19631.77;-15305.8;7293.499;-19412.79;-5.1901;8.485081;-18715.93;-11960.99;0.1050615;0.4486992;0;
-40149.25;-30730.37;6076.435;-40255.86;-4.113158;12.62937;-38399.49;-22854.13;0.0399886;0.383281;0;
-30330.58;-22166.18;4072.365;-30633.99;-4.041676;14.15729;-28745.27;-15288.94;-0.02501892;0.1230265;0;
-38580;-29695.82;1815.311;-38741.51;-3.635473;18.2289;-36843.69;-22007.88;0.1049409;-0.007031769;0;
-25545.25;-18945.77;960.1038;-26222.82;-2.761164;16.6701;-24192.21;-14587.68;-0.2849686;0.1878773;0;
13589;10408.78;1540.659;13170.69;-2.75839;15.78257;13078.81;7521.703;-0.2197149;0.05775387;0;
23868.77;15037.04;2594.175;24288.93;-1.081655;18.57988;22140.17;10222.08;0.04037522;0.3825325;0;
19583.57;11996.04;4633.385;20021.15;-0.6110774;19.63293;18046.66;8029.75;-0.08960003;0.5770502;0;
22961.59;14604.63;6996.352;23336.36;0.929778;17.80467;21295.4;10086.38;-0.08951;-0.008235708;0;
16460.7;11020.23;7851.67;16763.33;5.215752;16.44724;15506.58;7574.032;0.105482;-0.1381621;0;
-20011.58;-15423.73;7297.618;-19773.46;-3.564375;15.292;-19063.67;-12018.45;0.1703433;-0.267958;0;
-39615.92;-30193.88;6072.897;-39736.54;-10.79446;13.53508;-37878.39;-22411.33;-0.08969721;-0.3326561;0;
-29418.74;-21282.33;4052.651;-29742.95;-3.348877;11.84703;-27854.15;-14515.69;0.0403276;0.1224496;0;
-37003;-28079.72;1783.936;-37200.33;0.740325;9.490725;-35273.61;-20460.71;0.1052544;0.05735921;0;
-23425.76;-16956.57;899.1185;-24123.16;-4.752775;9.146274;-22124.3;-13070.06;-0.4795574;-0.2025678;0;
14567.03;11230.51;1429.386;14173.03;-9.034907;9.204066;14001.61;8007.239;-0.5440429;-0.007462238;0;
24059.91;15204.76;2441.471;24494.42;-1.255321;5.041998;22319.27;10431.22;-0.1536922;0.3823493;0;
19980.82;12400.62;4457.503;20413.13;3.434014;2.223649;18444.42;8410.563;-0.4134071;0.1870631;0;
23281.27;14929.44;6801.906;23658.95;2.024044;2.556329;21609.91;10424.47;-0.1531224;-0.3328636;0;
17117.03;11449.51;7639.897;17450.63;5.370913;1.883931;16068.33;7880.035;0.4317376;-0.3974965;0;
-18314.4;-13989.54;7077.749;-18060.29;-0.6627042;2.752816;-17466.88;-10726.13;0.3663364;-0.007293019;0;
-37386.07;-27970.31;5830.354;-37530.25;-8.029428;4.893504;-35667.58;-20501.26;0.2360336;0.122649;0;
-27772.73;-19615.06;3767.28;-28096.75;0.4177566;3.34798;-26232.98;-13398.66;-0.08904024;-0.1373436;0;
-35666.37;-26739.34;1471.147;-35860.05;3.029305;2.875735;-33948.39;-19315.71;-0.2188855;-0.2671403;0;
-21700.69;-15478.49;576.3367;-22419.21;1.017505;6.021044;-20436.44;-11921.73;0.04120385;-0.007002502;0;
15743.93;12102.58;1099.494;15345.28;6.642561;5.613096;15128.48;8577.092;0.2360645;0.1879066;0;
24514.18;15647.5;2103.01;24948.21;-8.36829;12.77439;22770.25;10918.59;0.04092525;0.05778308;0;
20513;12941.6;4103.577;20935.48;-19.67939;18.92386;18977.93;8926.176;-0.5438219;-0.007242336;0;
23769.85;15423.44;6426.409;24150.18;-11.42059;15.28789;22101.76;10946.73;-0.7381775;0.5125037;0;
17945.91;12062.47;7230.701;18304.46;-13.75364;16.34425;16826.94;8328.686;-0.1527297;0.4470214;0;
-16452.29;-12396.62;6636.043;-16177.81;-4.964934;12.71075;-15672.9;-9313.788;0.3671625;-0.2031012;0;
-34649.19;-25259.27;5372.413;-34834.96;3.813965;10.88956;-32955.68;-18329.36;-0.08797786;-0.2678645;0;
-24446.67;-16298.41;3294.807;-24847.48;-1.748597;8.065337;-22984.75;-11058.81;-0.5426608;0.05724139;0;
-31955.51;-23016.04;991.246;-32185.46;-0.4750178;2.564754;-30264.82;-15984.29;-0.6070829;0.1221512;0;
-18530.35;-12695.48;95.91823;-19243.15;-2.952787;9.729229;-17307.76;-9630.184;-0.8663423;0.2519632;0;
17182.77;13083.75;606.0654;16805.09;-7.303101;13.20244;16502.38;9155.898;-0.2157984;0.3166773;0;
24987.3;16124.47;1588.931;25432;-1.669684;13.65806;23242.08;11514.49;0.5640265;-0.07344493;0;
21375.95;13817.59;3583.518;21781.99;2.68625;16.59158;19839.31;9732.063;0.1736558;-0.008403795;0;
24732.01;16399.66;5922.115;25105.98;-5.890265;16.70888;23076.15;12021.49;0.0435466;0.1215393;0;
19777.33;13532.14;6736.284;20192.12;-11.17563;16.9599;18514.3;9408.388;-0.08643184;-0.2683868;0;
-12908.33;-9414.1;6141.936;-12573.23;-8.552434;19.89011;-12346.12;-7280.416;-0.2162797;0.05671956;0;
-31163.52;-21793.4;4883.144;-31385.18;-10.28515;22.6163;-29503.65;-15618.91;0.04380701;0.3814993;0;
-22465.42;-14239.19;2784.914;-22937.76;-8.198713;19.98136;-21021.89;-9804.501;0.238665;0.1212466;0;
-31300.66;-22378.3;451.2563;-31537.43;-7.922055;20.83206;-29644.12;-15617.14;0.3683599;0.2510594;0;
-18319.5;-12565.36;-434.627;-19005.9;-5.770641;15.1177;-17111.86;-9442.314;0.1081204;0.1858398;0;
17623.33;13392.88;108.8492;17261.12;0.5308208;7.332614;16907.68;9373.924;-0.02192293;-0.07421629;0;
25460.93;16599.04;1129.602;25909.86;-10.18698;15.89894;23713.2;12014.55;0.1080338;-0.07414172;0;
21769.32;14212.38;3142.86;22184.21;-16.27134;18.22725;20233.47;10123.25;-0.2169115;-0.2040019;0;
25005.83;16673.21;5453.071;25387.22;-11.70064;17.80703;23348.54;12303.71;-0.4115956;0.05607246;0;
20002.52;13708.19;6212.52;20412.17;-12.76061;22.67877;18732.64;9536.06;0.04358941;0.3808528;0;
-12020.46;-8572.016;5560.852;-11689.04;-9.197812;13.47957;-11469.77;-6502.684;0.108513;0.1855681;0;
-29479.87;-20129.48;4258.51;-29786.8;-10.05923;8.978288;-27830.57;-14364.99;0.04343658;0.1204143;0;
-20133.01;-11868.71;2150.632;-20762.11;-1.475304;9.97401;-18701.32;-8104.869;0.1083603;0.1852607;0;
-27718.44;-18765.64;-167.3651;-28043.49;8.773957;7.083723;-26059.44;-12449.91;-0.151618;-0.07479487;0;
-14781;-9581.639;-1039.259;-15489.04;-2.286921;10.35877;-13637.49;-7165.849;-0.1514656;-0.7243931;0;
18975.69;14177.33;-494.4408;18631.52;-3.958586;8.338872;18178.95;9779.399;-0.08634609;-0.6586979;0;
25639.42;16803.6;527.1833;26107.03;-8.777379;16.97105;23892.47;12344.2;-0.02129199;0.1865394;0;
22173.03;14642.45;2543.265;22579.06;-16.00223;25.8626;20641.37;10507.15;0.3035661;0.1213846;0;
25235.43;16880.69;4837.274;25626.03;-10.29272;17.39689;23574.7;12552.8;-0.02157562;-0.5284107;0;
20221.99;13953.73;5582.474;20625.58;-11.15401;17.71432;18947.8;9648.464;-0.2814233;-0.1380758;0;
-11053.84;-7582.39;4931.376;-10764.06;-5.31468;10.86451;-10539.15;-5818.992;0.1736309;0.5767037;0;
-27901.32;-18590.14;3613.082;-28243.38;-0.08540259;2.815762;-26291.74;-13193.67;0.6282278;0.2512875;0;
-18550.5;-10290.91;1484.238;-19202.64;-0.1516897;8.640326;-17145.81;-7005.548;0.4976619;-0.2687037;0;
-25858.01;-16887.82;-833.9637;-26204.6;3.464809;8.698627;-24226.27;-10891.46;0.1073578;-0.2684337;0;
-12768.33;-8069.479;-1695.536;-13486.38;0.8493593;9.225749;-11673.94;-6065.638;-0.08765214;-0.1382293;0;
19936.55;14691.21;-1156.962;19603.53;-1.362297;10.22122;19105.13;10094.88;0.04237062;-0.3979598;0;
25833.59;17041.4;-140.0127;26308.86;0.8498747;11.34966;24086.5;12662.32;0.2372301;-0.5924619;0;
22490.32;14966.2;1890.701;22894.58;1.518606;14.35237;20957.24;10792.2;-0.02287767;-0.4619319;0;
25500.29;17145.07;4198.484;25891.91;-1.49703;11.45768;23841.44;12852.08;-0.4126587;-0.2665657;0;
20597.96;14262.69;4959.131;20984.54;-1.294455;9.905683;19311.51;9867.616;-0.4772114;-0.2013306;0;
-10089.74;-6682.148;4327.275;-9834.597;-7.254025;11.30237;-9597.747;-5172.447;0.0430068;-0.07119358;0;
-26286.6;-17100.19;3046.101;-26658.25;-13.61072;10.48722;-24689.65;-12117.29;0.1728983;-0.07112204;0;
-16907.45;-8907.434;967.7392;-17571.46;-6.764545;12.62001;-15523.42;-6157.445;-0.1521122;0.05888413;0;
-24625.6;-15718.4;-1326.315;-24980.26;-5.954442;16.35838;-23010.82;-9975.617;0.2378447;0.1887596;0;
-11722.49;-7275.154;-2185.862;-12458.66;-0.2550311;9.844718;-10655.55;-5464.185;0.6274098;0.3185047;0;
20541.88;15017.64;-1640.033;20211.26;7.984248;5.280108;19683.89;10313.13;0.3019426;0.5130866;0;
26016.71;17257.09;-614.8992;26497.88;1.211071;10.03047;24271.22;12931.99;0.0417699;0.1877344;0;
22719.88;15198.54;1418.025;23110.64;-0.6651798;10.28832;21186.79;11000.65;0.1066953;-0.007356288;0;
25707.85;17359.38;3734.467;26100.33;1.746386;13.29209;24047.1;13099.5;-0.02334662;0.05761846;0;
20910.87;14513.92;4509.947;21301.36;0.3381117;16.56078;19612.97;10033.94;-0.08829051;-0.007406792;0;
-9140.342;-5784.014;3889.6;-8897.703;3.620302;15.53952;-8666.362;-4555.176;-0.1531691;0.3824047;0;
-25013.1;-15929.15;2605.773;-25381.79;5.960213;18.13612;-23420.81;-11211.28;-0.2179826;0.4469878;0;
-15670.33;-7874.275;530.0717;-16320.23;2.739043;13.89809;-14272.55;-5317.989;-0.02286151;-0.07320007;0;
-22698.55;-13887.57;-1741.991;-23074.08;1.932984;10.26717;-21072.43;-8387.413;0.1070961;-0.008159176;0;
-9745.318;-5700.444;-2587.612;-10502.61;-1.083069;14.14174;-8732.569;-4311.623;-0.2178482;0.1217837;0;
21241.65;15378.05;-2034.413;20923.63;-5.837402;13.72563;20328.82;10509.79;-0.1526619;0.1866287;0;
26188.72;17479.63;-1003.667;26676.29;-1.679327;16.99388;24447.7;13244.32;0.3672302;0.2514085;0;
23078.78;15555.21;1027.914;23473.5;1.136375;20.5269;21550.57;11323.72;0.2369265;0.1861885;0;
25959.98;17625.44;3344.341;26360.9;-3.017952;17.42506;24301.75;13416.22;-0.2180829;0.3159361;0;
21367.23;14863.01;4129.834;21753.59;-0.7377443;17.80945;20063.73;10295.41;-0.3477985;0.3156187;0;
-7956.882;-4724.55;3525.674;-7726.052;-8.372813;14.9784;-7492.913;-3871.908;-0.02261232;0.0554322;0;
-23388.83;-14488.19;2251.989;-23774.27;-17.13929;11.14532;-21798.03;-10121.51;0.3022471;-0.0745582;0;
-14242.66;-6825.757;180.3908;-14904.57;-3.189615;15.28706;-12846.51;-4644.14;0.3019434;0.05545142;0;
-21724.71;-13002.92;-2091.461;-22087.85;2.172225;16.67822;-20099.93;-7755.782;0.4315747;-0.00957166;0;
-9203.96;-5249.491;-2926.158;-9931.993;6.791742;16.5275;-8220.636;-3897.893;0.3661737;-0.3343987;0;
21498.75;15475.03;-2353.145;21199.52;16.16204;19.05624;20561.6;10599.58;-0.348835;-0.2041281;0;
26321.23;17640.82;-1311.584;26810.63;9.983859;15.68807;24588.97;13423.04;-0.5433865;0.2508484;0;
23246.27;15721.27;733.0351;23636.49;8.968473;13.52885;21720.36;11496.7;-0.3479385;-0.07424033;0;
26194.2;17874.89;3056.63;26597.88;10.56705;17.46713;24539.69;13682.47;-0.4775235;-0.2690678;0;
21556.88;14955.11;3838.352;21946.29;8.815122;18.38734;20254.34;10371.83;0.1726297;0.1210067;0;
-7320.477;-4255.813;3247.509;-7110.693;10.61493;21.44995;-6864.374;-3545.12;0.6921949;0.1858524;0;
-22368.1;-13583.36;1983.13;-22771.42;9.265089;24.04074;-20770.7;-9333.631;-0.153076;-0.009236358;0;
-13733.7;-6410;-91.97713;-14400.79;10.59495;24.61943;-12338.39;-4275.805;-0.08795485;0.1207076;0;
-21018.13;-12369.28;-2341.426;-21417.83;11.92445;26.67104;-19405.59;-7378.166;0.2369702;0.1205863;0;
-8044.627;-4384.045;-3167.828;-8803.979;8.36152;24.56789;-7070.966;-3422.346;-0.1530719;-0.3992736;0;
21839.61;15602.72;-2618.545;21548.43;9.224751;23.33751;20888.99;10629.89;-0.2178854;-0.4638397;0;
26183.97;17560.62;-1569.33;26675.78;1.847115;23.31406;24445.33;13401.89;-0.2826339;0.3812018;0;
23308.14;15781.26;496.6931;23690.07;-4.919896;22.88874;21781.05;11535.92;-0.4122846;0.3808188;0;
26168.41;17842.63;2832.02;26572.25;-1.163908;20.32051;24509.28;13667.67;-0.08703358;-0.1393026;0;
21539.15;14999.41;3635.113;21919.48;-5.784439;16.48206;20226.31;10405.21;0.1729232;-0.3340647;0;
-7272.943;-4117.993;3057.468;-7093.659;5.005016;19.47973;-6833.64;-3453.972;0.1727495;-0.3986964;0;
-22173.59;-13329.05;1819.703;-22619.22;15.85098;19.79508;-20592.78;-9159.46;-0.2172281;-0.008491698;0;
-13407.1;-6184.18;-212.7605;-14110.56;3.711262;19.57424;-12033.38;-4261.62;-0.3469446;0.1214515;0;
-21712.24;-13032.68;-2459.792;-22104.2;2.099942;22.70264;-20123.07;-7904.942;0.0432081;-0.008605201;0;
-9505.053;-5476.295;-3280.329;-10235.97;-2.322797;16.58451;-8537.65;-4019.651;0.04316469;0.0563708;0;
21401.98;15396.2;-2688.032;21102.8;-7.879193;15.69707;20460.44;10554.1;-0.1517807;0.1212815;0;
26360.47;17697.97;-1637.686;26844.7;-4.456;11.86339;24625.82;13473.8;-0.2815629;0.3160617;0;
23277.16;15757.28;406.0429;23665.7;-6.326557;3.277896;21751.68;11552.89;-0.2163126;0.2507767;0;
26407.25;18115.32;2762.825;26804.99;-0.09090908;19.28316;24754.71;13931.44;-0.02119325;0.05562273;0;
22008.31;15345.25;3593.63;22394.77;4.262463;28.64115;20678.26;10759.01;-0.02117195;0.05556684;0;
-6759.919;-3798.086;3023.96;-6571.808;6.000468;25.66524;-6354.204;-3204.877;-0.08611802;-0.009456346;0;
-21757.21;-13030.6;1784.199;-22205.62;10.48144;28.72055;-20183.55;-8940.49;0.04390319;0.1854552;0;
-13628.47;-6466.732;-254.0699;-14312.94;9.06439;26.88315;-12239.58;-4302.428;0.1088264;0.3152035;0;
-21964.53;-13338.7;-2488.16;-22345.79;9.591146;25.71755;-20360.55;-8046.377;-0.08618495;0.05501745;0;
-9046.335;-5173.472;-3305.842;-9788.298;8.174989;25.55774;-8079.306;-3885.442;-0.1510657;-0.01000519;0;
21693.65;15579.94;-2739.693;21399.88;5.286386;26.40272;20744.72;10688.64;0.3038575;-0.07496247;0;
26304.62;17668.54;-1686.344;26792.05;6.68857;18.33848;24571.96;13485.49;0.4334868;-0.1398545;0;
23351.3;15837.21;372.7386;23741.57;6.881944;10.81809;21828.29;11631.42;-0.2166221;0.2500901;0;
26414.94;18119.61;2702.818;26817.15;3.593476;14.29033;24764.05;13950.88;-0.08646978;0.05493678;0;
21772.78;15160.37;3510.851;22175.39;3.120374;11.59665;20448.61;10586.06;0.4983232;-0.4648572;0;
-7037.61;-3944.301;2946.511;-6811.85;-1.034971;16.27368;-6620.606;-3241.147;0.3678878;-0.1395534;0;
-21574.38;-12908.33;1698.083;-22006.26;-5.789353;21.28093;-19998.76;-8844.494;0.3025508;-0.2693478;0;
-12860.22;-5843.514;-354.7489;-13545.93;-0.7606701;16.36992;-11466.14;-3997.477;0.1073447;-0.6588812;0;
-20597.16;-11986.32;-2594.345;-20981.72;-0.6252079;16.68838;-18984.4;-7087.733;-0.4774692;-0.3333825;0;
-7681.825;-4086.238;-3405.844;-8406.726;4.197216;14.12638;-6770.97;-3094.958;-0.4120221;-0.008210792;0;
22134.93;15740.9;-2818.434;21881.98;10.02112;11.56684;21119.22;10795.19;0.2380653;0.05676482;0;
26233.18;17637.69;-1770.643;26730.71;6.26001;13.36375;24501.46;13497.55;0.1078914;-0.2031616;0;
23184.96;15683.41;260.319;23573.97;8.933037;12.61351;21665.77;11475.63;-0.476923;-0.1379901;0;
26037.64;17723.38;2569.615;26450.84;2.292629;15.01223;24378.64;13569.12;-0.4114765;0.2519526;0;
21336.58;14813.18;3365.726;21734.23;-4.809622;17.07349;20036.07;10251.56;-0.2811283;0.1867321;0;
-7370.208;-4199.262;2805.874;-7153.399;2.62995;16.58745;-6920.741;-3513.354;-0.3458132;0.1215771;0;
-21987.17;-13186.99;1547.435;-22393.97;2.694657;17.91044;-20404.97;-9105.043;0.04433831;0.1864223;0;
-13462.13;-6215.176;-530.3885;-14103.22;7.246301;16.82072;-12073.42;-4200.839;0.4990652;-0.2685364;0;
-20768.94;-12121.26;-2757.314;-21156.62;13.87045;15.53114;-19157.23;-7128.66;0.173727;-0.333234;0;
-7479.54;-3972.245;-3553.048;-8242.981;6.622846;18.12787;-6555.058;-3065.911;0.04361774;-0.2029644;0;
22004.25;15620.98;-2987.917;21740.22;4.53911;18.98044;21006.37;10658.37;-0.02139343;-0.1377931;0;
26044.49;17465.88;-1927.04;26544.51;3.596544;20.50185;24314.1;13347.94;-0.606078;-0.1376547;0;
23209.13;15705.16;142.6226;23599.35;-2.100497;25.03609;21690.79;11507.01;-0.4755343;-0.267451;0;
26004.71;17705.57;2446.727;26423.27;4.666768;17.50897;24346.24;13552.71;-0.08525247;-0.397117;0;
21214.28;14679.35;3213.007;21607.24;7.87726;10.65924;19921.37;10162.43;0.1097352;-0.07188127;0;
-7691.536;-4574.65;2616.765;-7482.863;4.051928;20.49477;-7224.611;-3730.053;0.3694943;0.3829624;0;
-22373.49;-13551.9;1363.077;-22800.41;8.133693;24.62712;-20792.92;-9387.304;0.174221;0.1876755;0;
-13502.44;-6230.751;-675.6284;-14170.71;-4.601481;24.33444;-12135.6;-4244.764;0.2390133;-0.4621865;0;
-20993.66;-12297.22;-2905.406;-21377.69;-13.97398;27.3241;-19403.53;-7289.747;0.5636098;-0.006950673;0;
-8174.108;-4393.08;-3719.202;-8933.983;-7.127436;25.82302;-7238.247;-3394.424;0.1732395;0.3828604;0;
21646.64;15409.68;-3154.044;21366.02;-10.06801;26.26596;20674.25;10502.99;0.04313073;0.1226063;0;
25898.96;17286.73;-2103.026;26400.09;1.998545;25.43577;24169.93;13155.28;-0.02187994;0.3173851;0;
22779.88;15303.55;-41.2139;23170.87;12.91488;22.66403;21259.56;11134.15;-0.411662;0.5119683;0;
25809.86;17479.68;2281.535;26214.71;8.481271;26.19123;24152.55;13305.29;-0.2163463;0.4464865;0;
20854.29;14495.86;3058.288;21244.64;11.55421;26.2319;19568.4;10039.57;-0.02122693;0.1861685;0;
-8731.205;-5331.373;2464.356;-8520.891;9.399144;27.21029;-8252.665;-4252.807;-0.1511403;-0.07388796;0;
-23261.27;-14305.8;1209.791;-23683.67;4.499579;30.73292;-21669.38;-9948.45;-0.08602108;0.05612098;0;
-14604.08;-7137.458;-865.7573;-15260.74;13.06887;21.79355;-13203.61;-4799.708;0.04400004;-0.07387011;0;
-22411.81;-13681.06;-3108.26;-22784.66;18.95024;16.54711;-20789.63;-8277.385;-0.2159135;-0.3986326;0;
-8720.211;-4977.287;-3883.901;-9462.95;9.419378;15.12384;-7781.803;-3847.228;-0.4105986;-0.1383627;0;
21571.67;15400.74;-3294.278;21303.33;6.061011;8.343609;20591.13;10513.69;-0.215284;-0.203191;0;
25700.24;17094.17;-2221.177;26201.75;1.366848;14.49753;23969.55;12958.67;-0.1501004;-0.2679542;0;
22734.19;15259.41;-125.4038;23126.78;-7.074619;18.70277;21215.83;11100.37;-0.2149169;-0.0727829;0;
25711.45;17374.75;2198.929;26116.58;0.03243612;11.9858;24051.81;13196.05;-0.3446356;-0.1376771;0;
20333.74;14093.66;2962.99;20720.3;2.577999;12.17471;19061.18;9692.187;-0.279322;-0.007604084;0;
-9436.518;-5878.708;2378.431;-9232.271;0.4319547;5.933187;-8938.429;-4650.816;0.1757301;-0.007596443;0;
-23865.93;-14774.28;1134.352;-24298.04;3.512004;-1.105739;-22276.21;-10305.19;0.04561882;0.05737855;0;
-15227.75;-7547.528;-936.9188;-15900.32;-1.715462;6.799114;-13838.49;-5075.052;0.1105403;0.1872556;0;
-22943.1;-14131.47;-3171.182;-23335.55;-4.058263;10.34226;-21326.97;-8588.153;0.3053313;-0.1377693;0;
-9086.528;-5255.808;-3929.972;-9842.374;-2.513944;8.992327;-8136.208;-4013.272;-0.08477958;-0.3325329;0;
21387.99;15311.67;-3320.437;21111.45;-6.262462;10.0549;20423.43;10483.12;-0.4095311;-0.2022641;0;
25685.92;17061.33;-2236.597;26180.03;3.590444;12.52316;23957.28;12914.92;-0.4091196;0.1227759;0;
22687.75;15220.86;-134.5766;23070.95;11.29;16.59641;21170.62;11073.02;-0.3437412;0.3825219;0;
25695.19;17357.92;2189.609;26093.61;5.04936;13.56563;24038.73;13183;-0.08352641;-0.2025686;0;
20306.65;14085.74;2934.065;20697.81;4.910565;11.07363;19040.74;9704.601;-0.01847514;-0.2673324;0;
-9847.515;-6316.433;2317.706;-9634.079;2.962271;16.28705;-9347.331;-4980.43;-0.2133586;-0.07216173;0;
-24715.39;-15558.86;1051.981;-25116.67;2.155988;17.61034;-23130.6;-10897.51;-0.2781115;-0.5918279;0;
-16050.09;-8146.693;-1022.94;-16673.03;-1.597223;19.40119;-14655.31;-5490.071;-0.1478974;-0.3963313;0;
-23527.97;-14646.6;-3256.179;-23887.33;-7.422767;22.19485;-21890.78;-9010.72;-0.2127162;0.2537404;0;
-9526.594;-5613.427;-4030.345;-10261.63;-0.4490835;18.95749;-8544.531;-4304.136;-0.4723718;0.2534854;0;
21135.71;15172.89;-3447.133;20867.6;2.631851;19.00543;20185.12;10371.52;-0.3419625;-0.07160598;0;
25554.93;16917.28;-2371.661;26044.82;2.696555;15.03434;23821.54;12762.51;-0.2766515;-0.1365014;0;
22559.7;15100.23;-264.024;22945.19;5.440512;10.33055;21042.54;10975.61;-0.4063082;-0.07139687;0;
25538.93;17201.76;2051.546;25942.6;6.975286;13.7363;23879.88;13020.71;-0.2759653;-0.2012598;0;
19940.1;13779.17;2785.49;20336.98;12.52798;13.25362;18691.17;9439.262;-0.1457533;-0.2660249;0;
-10296.03;-6648.584;2179.525;-10078.21;7.022062;15.1157;-9760.991;-5210.192;0.1142625;-0.2657576;0;
-24819.76;-15638.88;906.8491;-25226.57;0.3172015;17.91379;-23214.7;-10969.11;0.3740171;-0.07058857;0;
-16144.85;-8210.565;-1193.023;-16770.77;14.58413;15.35044;-14734.31;-5539.965;0.1787392;0.4492211;0;
-23693.44;-14797.53;-3411.302;-24063;20.86611;16.40674;-22060.8;-9156.015;-0.01634239;0.7086391;0;
-9353.637;-5520.365;-4137.742;-10111.51;22.31804;11.90252;-8391.851;-4276.998;-0.4710974;0.2531556;0;
21302;15292.49;-3505.775;21029.41;28.5249;4.455581;20350.29;10489.65;-0.5355914;-0.07193544;0;
25548.24;16918.45;-2409.505;26048.29;23.6071;14.29735;23820.86;12774.09;-0.1452491;-0.2667652;0;
22479.07;15021.84;-318.4927;22877.04;25.19097;19.97641;20965.55;10898.71;-0.1451032;-0.6563011;0;
25502.19;17170.28;1997.257;25909.26;17.93101;12.78941;23844.71;12988.89;-0.01502269;-0.2658377;0;
20016.12;13868.44;2745.342;20407.99;8.73694;13.17846;18783.02;9546.999;-0.1449423;0.2541682;0;
-10417.67;-6724.226;2131.016;-10191.55;19.57915;5.328334;-9846.191;-5180.665;0.1150727;0.2539128;0;
-24806.12;-15674.15;871.0382;-25210.26;21.30079;-1.442052;-23182.61;-10971.69;0.5047612;0.123723;0;
-16128.55;-8354.686;-1196.798;-16754.33;27.04016;1.238592;-14716.3;-5712.206;-0.01548477;-0.2012381;0;
-24159.61;-15297.3;-3407.859;-24526.16;36.05532;-1.307882;-22515.7;-9661.447;-0.01546921;-0.3309705;0;
-9574.261;-5724.449;-4145.125;-10345.96;28.11487;3.583064;-8600.809;-4525.332;0.04951367;-0.2007033;0;
21341.68;15291.96;-3544.135;21058.72;24.67134;7.397369;20394.2;10475.74;-0.4702748;-0.2005016;0;
25378.9;16751.1;-2455.525;25875.94;29.46835;7.657868;23651.78;12625.63;-0.1449656;-0.07036548;0;
22423.05;14973.42;-334.029;22815.35;30.77888;11.33411;20910.44;10855.42;0.1150495;0.2545419;0;
25470.19;17131.89;1979.675;25874.19;28.20236;10.05005;23817.12;12957.43;-0.07996817;0.1893188;0;
19804.43;13672.18;2716.533;20201.72;25.36098;9.972967;18564.42;9372.162;0.3748836;0.05919393;0;
-10427.12;-6736.731;2105.453;-10189.56;26.74202;13.04416;-9871.728;-5180.507;0.6343762;0.2540365;0;
-24662.5;-15532.88;826.3857;-25062.13;28.99232;14.90645;-23040.12;-10852.9;0.3089021;0.1888139;0;
-15971.61;-8149.446;-1256.757;-16588.49;20.05459;14.82449;-14547.65;-5498.37;-0.01624497;-0.1362126;0;
-23674.62;-14804.6;-3467.289;-24019.54;12.53332;14.47468;-22023.81;-9145.665;-0.3410653;-0.2660104;0;
-9206.776;-5391.179;-4214.475;-9955.217;17.07508;16.33566;-8241.18;-4202.159;-0.3407227;-0.1358084;0;
21336.58;15293.27;-3621.177;21070.59;17.39272;16.78813;20379.31;10482.97;-0.01554358;-0.07070461;0;
25454.72;16834.98;-2536.222;25954.86;15.43286;17.84299;23731.08;12721.13;0.04943937;0.1892358;0;
22469.58;15019.35;-436.4467;22859.79;15.14991;20.23632;20959.8;10896.37;-0.1455123;0.1240783;0;
25422.71;17086.7;1857.214;25832.66;13.79454;15.19239;23769.77;12929.08;-0.08039878;-0.5257198;0;
19871.74;13765.6;2586.387;20265.63;13.84802;11.09129;18640.36;9458.982;0.2445187;-0.2003548;0;
-10590.24;-6857.936;1956.728;-10364.35;10.82;14.6971;-10026.08;-5304.903;0.1143383;0.1246832;0;
-24851.58;-15749.24;665.4102;-25258.35;7.325527;16.28992;-23232.42;-11088.43;-0.3405479;-0.3951808;0;
-15671.32;-7935.87;-1425.052;-16299.71;9.595343;13.19246;-14265.4;-5424.94;-0.3402058;-0.004979681;0;
-23997.57;-15112.36;-3660.089;-24326.14;9.585701;10.63385;-22349.91;-9383.372;-0.0150272;0.05999268;0;
-10149.19;-6174.819;-4402.599;-10865.17;7.097823;13.70438;-9159.661;-4702.869;-0.4697835;-0.3298717;0;
21203.12;15269.98;-3771.834;20940.54;5.75152;14.89618;20257.49;10522.97;-0.5342788;0.1252312;0;
25640.37;16999.62;-2667.082;26142.31;3.602287;13.4747;23912.34;12851.78;-0.1439379;0.25504;0;
22536.95;15088.81;-558.4761;22933.23;4.20188;12.65736;21029.41;10996.41;-0.273728;0.1248491;0;
25687.68;17370.15;1739.274;26091.86;-4.175086;13.11352;24036.38;13206.6;0.1813185;0.2546583;0;
19942.87;13783.97;2463.099;20335.53;-11.9414;16.38239;18703.02;9457.035;0.5709403;-0.07043427;0;
-10076.64;-6330.618;1841.779;-9859.701;-5.565413;7.792356;-9521.813;-4898.584;0.1805626;-0.005396158;0;
-23736.47;-14728.35;565.288;-24149.54;-2.210917;1.957133;-22126.98;-10289.07;-0.07948819;0.2544786;0;
-15018.91;-7428.958;-1520.591;-15631.72;-5.692297;6.710833;-13620.36;-4998.937;-0.2743104;0.1242883;0;
-22535.13;-13763.23;-3737.604;-22904.94;-7.495238;7.039004;-20919.48;-8375.933;-0.2740347;-0.2656407;0;
-7895.897;-4461.208;-4469.26;-8675.928;-0.9899964;11.51967;-6991.342;-3631.335;-0.3387267;-0.5252431;0;
21868.71;15543.03;-3866.93;21610.24;3.56535;15.326;20870.88;10643.95;-0.3383864;-0.3947807;0;
25492.93;16928.78;-2795.206;25997.44;4.834565;18.79371;23768.96;12880.89;-0.01320963;-0.5243187;0;
22746.53;15289.78;-699.9177;23126.31;9.385035;22.86066;21234.42;11145.99;-0.2730657;-0.3938572;0;
25900.93;17593.47;1602.035;26310.77;7.097453;25.98577;24247.46;13476.05;-0.2727914;0.256212;0;
20535.95;14256.48;2342.396;20936.1;6.018594;29.71058;19274.59;9877.467;0.3771562;0.1260199;0;
-9327.341;-5826.727;1726.164;-9116.591;9.094006;30.5515;-8820.606;-4632.779;0.3118099;-0.2639108;0;
-23341.92;-14385.44;438.0757;-23772.09;8.214211;33.669;-21749.99;-10018.98;-0.2732095;0.06119109;0;
-15237.64;-7749.082;-1658.233;-15862.64;12.82766;29.08033;-13836.13;-5228.125;-0.2079677;0.1910643;0;
-23924.87;-15127.44;-3888.507;-24262.64;16.0973;24.56338;-22296.03;-9414.483;-0.2077587;0.320807;0;
-9486.845;-5668.614;-4629.444;-10216.67;14.27246;28.15578;-8543.532;-4337.493;-0.402452;0.2555173;0;
21463.29;15368.23;-4018.863;21210.09;17.00381;25.98403;20492.68;10608.12;-0.1421782;0.1253259;0;
25633.82;17039.14;-2924.685;26132.96;8.882402;30.44566;23909.24;12922.53;0.117834;0.2551346;0;
22808.38;15360.97;-799.3602;23196.57;0.5007324;34.63487;21299.4;11262.67;-0.2720884;-0.004991113;0;
26019.05;17713.15;1505.707;26427.47;6.930591;28.57185;24369.85;13579.42;-0.271815;-0.3298228;0;
20341.03;14130.05;2217.46;20736.25;5.316036;27.87331;19092.49;9763.915;0.2481968;-0.264524;0;
-9560.716;-5895.539;1579.333;-9353.722;9.128112;22.75472;-9019.463;-4622.091;0.5078168;0.3204478;0;
-23106.47;-14156.27;279.8359;-23545.98;17.22424;17.50731;-21510.32;-9851.378;0.1175025;0.2551585;0;
-14956.07;-7527.435;-1821.827;-15599.29;1.599545;19.90098;-13559.8;-5065.177;-0.532289;-0.2648366;0;
-23263.12;-14503.59;-4039.958;-23629.57;-6.037873;19.47909;-21625.52;-8906.217;-0.4018195;-0.0696685;0;
-8356.698;-4802.938;-4767.219;-9104.241;-4.960079;19.45951;-7467.913;-3785.056;0.118323;-0.1345658;0;
21979.77;15673.41;-4152.829;21735.88;-10.31275;18.9041;20951.86;10815.19;0.1831715;-0.2643653;0;
25636.63;17067.58;-3066.138;26143.83;-3.738308;22.36822;23918.77;13016.79;0.1829874;-0.06919765;0;
22764.91;15326.41;-967.3133;23156.31;-1.658447;25.76175;21259.5;11208.68;-0.01209847;-0.004160777;0;
25796.58;17486.79;1326.35;26206.58;1.022537;23.86034;24146.13;13380.8;-0.142021;-0.1340913;0;
20162.77;13973.97;2061.647;20557.54;5.84428;23.63542;18922.84;9607.697;0.05302373;-0.2638912;0;
-9649.699;-5951.701;1450.1;-9427.664;1.886293;23.54468;-9097.521;-4679.842;0.2478725;-0.2636261;0;
-23146;-14219.59;163.7581;-23586.2;0.4778782;23.11925;-21539.93;-9934.434;0.05272139;-0.1334265;0;
-14324.4;-6916.5;-1931.884;-15004.09;0.1426053;20.95257;-12933.09;-4712.243;-0.1422336;-0.1982598;0;
-21940.39;-13199.23;-4142.659;-22355.04;0.008740194;18.52013;-20315.04;-7916.114;0.05281133;-0.2630279;0;
-7515.205;-4173.469;-4846.281;-8287.022;-5.28353;17.89879;-6641.219;-3271.506;-0.07717641;-0.002894238;0;
21998.42;15529.64;-4211.791;21763.67;-7.354326;17.81383;20957.8;10665.84;-0.1420662;0.5168474;0;
25456.66;16926.03;-3111.797;25963.95;-12.23706;13.1741;23738.77;12881.99;-0.07695612;0.5812954;0;
22616.47;15182.31;-979.6624;22997.82;-18.3867;9.342961;21112.1;11078.96;-0.2717808;-0.06896209;0;
25638.85;17315.68;1326.71;26051.06;-10.5987;11.61099;23984.42;13196.16;0.1182963;-0.5886315;0;
19786.91;13683.33;2044.328;20176.6;-7.506587;12.00122;18556.72;9348.487;0.6379162;-0.2632034;0;
-10055.41;-6283.611;1432.737;-9862.63;-2.608924;12.65899;-9502.045;-4970.588;0.2474712;0.1268652;0;
-23515.31;-14457.03;154.5324;-23964.97;3.622988;13.98581;-21929.06;-10108.29;-0.4024509;-0.2630664;0;
-15240.11;-7609.063;-1929.794;-15886.7;6.49876;15.3784;-13861.55;-5100.052;-0.2071445;-0.3277694;0;
-22733.21;-13946.76;-4110.398;-23145.76;12.32035;17.64037;-21118.98;-8487.94;0.1179003;-0.002603328;0;
-7610.429;-4239.914;-4831.107;-8414.485;11.43634;17.28773;-6726.458;-3453.594;-0.2070548;0.127334;0;
21857.61;15483.39;-4261.943;21609.91;10.3541;16.19863;20838.03;10603.69;-0.1418795;-0.1976307;0;
25240.64;16707.05;-3177.235;25745.11;15.36656;21.005;23517.84;12683.12;0.2480672;-0.1974321;0;
22477.22;15042.92;-1042.083;22857.02;17.6283;25.00275;20965.93;10937.31;0.1178832;-0.002331697;0;
25457.28;17137.42;1243.41;25864.89;14.73117;21.36067;23801.23;13024.17;-0.2070719;0.1925727;0;
19519.72;13476.79;1954.959;19905.43;13.5773;21.00429;18296.37;9185.447;-0.3367985;0.0624445;0;
-10653.35;-6792.254;1342.707;-10455.44;10.48219;18.83974;-10096.05;-5302.333;-0.2714928;0.1273491;0;
-24009.97;-14944.02;70.09091;-24468.61;8.462906;15.60575;-22440.01;-10505.21;0.1185841;0.1921885;0;
-15157.5;-7520.958;-2001.173;-15825.26;3.229489;18.67116;-13793.49;-5089.455;0.2483996;-0.1328413;0;
-22756.04;-13920.17;-4196.354;-23143.33;-5.212873;19.79111;-21151.92;-8431.002;-0.07668673;0.1271615;0;
-7957.1;-4508.308;-4917.18;-8702.336;3.298831;19.77122;-7085.087;-3571.735;-0.4014464;0.1920011;0;
21807.22;15460.11;-4310.26;21578.24;9.323736;21.158;20782.59;10632.42;-0.3360757;-0.3279306;0;
25320.31;16773.41;-3227.237;25825.62;0.8742743;21.20372;23601.52;12738.16;-0.2707706;-0.002764379;0;
22449.1;15027.09;-1114.851;22842.29;-0.5331238;21.31638;20943.28;10937.29;-0.4654006;-0.002761602;0;
25475.2;17161.29;1168.434;25893.42;-2.676042;23.97416;23820.59;13054.09;-0.5948676;-0.2626282;0;
19509.1;13461.16;1886.367;19911.5;-6.2897;24.75386;18291.33;9157.063;-0.1394985;-0.1324296;0;
-10297.64;-6436.557;1302.233;-10078;-1.193165;27.54227;-9719.696;-5020.766;0.2504457;-0.2622312;0;
-23370.62;-14290.42;21.88027;-23799.77;0.3482757;30.46172;-21776.21;-9957.675;-0.2045773;-0.3269351;0;
-15249.02;-7559.265;-2099.607;-15877.18;2.759799;28.1537;-13862.59;-5121.657;-0.2693391;-0.2616392;0;
-23097.31;-14292.09;-4296.157;-23476.92;5.570065;28.86222;-21475.56;-8778.123;-0.009199112;-0.1314417;0;
-7707.576;-4440.287;-4987.647;-8468.954;5.497119;24.41247;-6843.547;-3569.401;-0.5938959;-0.3262116;0;
21986.42;15555.17;-4367.866;21762.68;7.568677;18.89546;20949.8;10705.9;-0.6582665;-0.6507205;0;
25250.57;16725.29;-3260.501;25763.55;4.077472;23.69912;23534.39;12704.98;-0.267801;-0.130328;0;
22499.86;15077.74;-1111.678;22893.38;1.595128;25.41686;20994.59;10994.91;-0.2025646;0.1946397;0;
25586.66;17274.71;1181.193;26005.81;1.727247;22.64515;23933.47;13172.81;0.05750828;-0.1303926;0;
19406.84;13374.73;1866.162;19818.09;0.9222043;22.2205;18186.33;9108.077;0.1224178;-0.06529422;0;
-10633.29;-6710.541;1244.629;-10387.79;-1.222176;20.85851;-10058;-5133.265;0.1872622;0.2596081;0;
-23188.91;-14317.88;-23.39093;-23613.21;-3.163331;19.83281;-21595.42;-9969.251;0.05713933;0.2593473;0;
-14239.33;-6919.671;-2106.289;-14904.62;-3.160153;20.34874;-12854.29;-4761.753;-0.3327221;-0.2606521;0;
-21977.79;-13227.08;-4296.415;-22375.37;-6.304809;20.66321;-20360.22;-7936.511;-0.2024531;-0.3903249;0;
-7122.55;-3886.707;-5002.881;-7842.347;0.1309115;20.10658;-6306.504;-3082.972;0.05761966;-0.06509596;0;
22115.38;15604.11;-4392.799;21929.46;5.690485;19.28259;21032.91;10750.3;0.1225291;-6.320739E-05;0;
25329.36;16819.75;-3298.651;25838.76;3.541314;20.60287;23616.4;12822.75;-0.007528699;0.1298715;0;
22635.11;15213.46;-1155.897;23018.17;11.64306;19.51044;21131.24;11120.26;-0.07248847;-0.1950957;0;
25713.4;17410.82;1148.467;26131.63;0.4455735;22.17015;24061.68;13343.65;-0.007448297;2.393617E-06;0;
19689.05;13611.56;1843.837;20074.59;-5.650443;24.69311;18461.24;9256.914;0.05752653;0.4547738;0;
-9738.139;-5852.108;1228.824;-9579.563;3.799706;18.57297;-9183.362;-4647.465;0.3823054;0.06451279;0;
-22124.65;-13318.17;-50.83045;-22630.61;-3.50513;15.00434;-20532.69;-9247.231;0.316954;0.1943827;0;
-13809;-6576.41;-2171.026;-14497.66;29.72095;11.97515;-12429.62;-4481.331;0.05676611;0.324122;0;
-21397.85;-12707.17;-4367.786;-21848.91;55.01039;8.346038;-19782.2;-7629.43;-0.138193;-0.1959424;0;
-6184.702;-3209.013;-5050.958;-6996.628;45.71172;4.787678;-5353.109;-2712.638;-0.4628908;-0.06581084;0;
22386.56;15701.16;-4439.484;22172.15;54.84184;2.438465;21310.85;10782.07;0.1222804;0.259092;0;
25268.31;16812.66;-3333.781;25784.37;42.52922;-2.319651;23557.96;12860.31;0.3170595;0.1938643;0;
22744.38;15315.92;-1179.418;23121.43;35.78868;-7.273935;21243.33;11213.38;-0.7877039;0.3236042;0;
25675.13;17380.69;1099.419;26096.32;30.19302;-2.51096;24023.87;13322.88;-0.527043;0.06340969;0;
19623.63;13540.83;1778.566;20007.47;13.8857;-0.2310177;18403.31;9203.868;0.12316;-0.5213601;0;
-9830.762;-6009.143;1146.158;-9661.934;28.34006;1.845685;-9271.904;-4767.3;0.0580689;-0.3909016;0;
-22401.12;-13550.61;-160.1184;-22892.3;32.66487;5.862685;-20816.47;-9431.647;0.3828472;0.06426262;0;
-14042.18;-6724.432;-2276.925;-14739.36;28.54621;5.923777;-12671.53;-4603.795;0.4474299;-0.06573665;0;
-21707.27;-12973.89;-4471.095;-22134.2;34.07723;5.58291;-20109.78;-7824.923;0.1221436;-0.3905073;0;
-6593.437;-3542.041;-5152.633;-7358.904;20.58003;11.87357;-5783.579;-2926.956;-0.07288112;-0.1952129;0;
22310.41;15658.68;-4518.584;22097.38;10.04315;17.42098;21227.91;10779.36;-0.007840554;-0.4548861;0;
25270.95;16805.96;-3413.597;25777.19;17.06566;11.24129;23561.3;12840.8;0.1870693;-0.5193964;0;
22573.67;15161.2;-1264.433;22953.91;14.1691;7.612918;21074.72;11080.42;0.0569467;0.2607336;0;
25812.5;17508.72;1039.774;26224.21;17.97228;8.208116;24160.41;13445.65;-0.3329146;0.0006022561;0;
19648.54;13649.65;1704.551;20045.09;24.71938;6.659382;18439.98;9356.191;-0.2676127;-0.129333;0;
-10318.23;-6362.75;1035.611;-10112.58;10.89679;2.96863;-9733.694;-5018.02;0.05749289;0.260601;0;
-22659.09;-13751.69;-267.6191;-23111.81;9.144525;-0.1154461;-21064.85;-9596.518;-0.007532221;-0.1294649;0;
-14265.06;-6853.11;-2395.437;-14902.31;-3.457943;-1.990852;-12881.81;-4661.132;0.2523447;-0.1943022;0;
-21964.9;-13237.07;-4596.172;-22372.67;-20.19898;-3.730286;-20346.32;-8055.412;0.1871238;0.3905991;0;
-6380.852;-3476.267;-5261.389;-7175.163;-2.964682;-4.396367;-5566.282;-2936.574;-0.332803;0.455174;0;
22360.29;15650.5;-4632.447;22150.64;-0.885598;-4.525916;21275.24;10760.31;-0.1375665;0.1298799;0;
25072.99;16631.78;-3503.67;25594.11;8.559763;-4.923265;23364.93;12682.1;0.1874084;0.06478209;0;
22528.91;15118.01;-1323.962;22917.91;25.63144;-7.329704;21032.86;11053.84;-0.07264926;-0.0002503591;0;
25573.68;17265.88;947.5862;25997.99;6.917818;0.5815248;23924.55;13192.56;-0.1375436;-0.1301848;0;
19108.19;13208.86;1600.118;19511.17;1.284788;6.810231;17915.39;8965.172;0.05749663;-0.4548907;0;
-10763.72;-6684.588;958.3321;-10551.28;1.216148;4.124071;-10160.88;-5164.504;0.1873735;-0.3244989;0;
-22956.9;-13994.91;-360.6871;-23390.82;-8.296894;6.397347;-21358.6;-9718.523;0.1871853;0.0656312;0;
-14764.92;-7306.268;-2510.4;-15364.59;5.108029;2.974789;-13373.66;-4909.951;0.2519645;0.1305326;0;
-22489.3;-13706.24;-4700.525;-22862.25;12.87243;0.2256219;-20858.84;-8288.442;0.1217767;0.1953688;0;
-6665.945;-3647.78;-5342.087;-7443.177;5.424755;1.364105;-5847.325;-3041.981;-0.3331171;0.3251072;0;
22237.03;15598.74;-4686.156;22031.13;6.156238;-1.182617;21151.83;10728.95;-0.072913;-5.624585E-05;0;
25041.84;16583.01;-3556.653;25558.43;0.657696;2.502511;23329.97;12640.21;0.446899;-0.1299909;0;
22461.95;15060.26;-1377.157;22844.87;-6.911426;5.045347;20961.44;10995.7;-0.07328878;0.3898785;0;
25718.84;17416.98;927.0065;26139.15;1.601985;2.561909;24066.46;13354.58;-0.3330845;0.4544541;0;
19487.85;13535.12;1591.241;19886.72;4.881929;3.229164;18280.61;9308.896;0.3169236;-0.1307086;0;
-10959.35;-6976.892;919.3849;-10750.11;0.8585355;1.35052;-10377.7;-5392.213;0.2516378;-0.3904467;0;
-23637.27;-14676.12;-410.4803;-24076.87;1.259815;0.6793333;-22044.59;-10289.96;-0.3982885;-0.130185;0;
-15093.97;-7585.631;-2535.468;-15727.08;-3.832642;1.013565;-13714.95;-5132.579;-0.5278229;0.06484786;0;
-22782.12;-13987.52;-4714.855;-23174.26;-6.373411;-0.2601288;-21169.66;-8520.419;-0.2024559;0.3246521;0;
-7194.709;-4022.344;-5377.61;-7949.586;-7.238639;4.964679;-6350.938;-3268.493;-0.07231776;0.3243259;0;
21948.13;15444.46;-4746.146;21746.71;-6.092289;8.844579;20893.53;10629.53;-0.3321145;-0.0008367489;0;
24892.14;16429.61;-3623.799;25407;-9.636142;9.639487;23181.46;12461.43;-0.2018461;-0.06580325;0;
22219.88;14820.36;-1459.431;22608.8;-14.51658;11.37136;20721.45;10787.31;0.05822611;-0.1307045;0;
25329.95;17026.29;810.4421;25742.06;-0.7706136;13.90516;23678.29;12942.51;-0.07176708;-0.0656058;0;
18718.15;12870.34;1467.672;19112.48;5.861593;15.0299;17526.38;8711.03;0.05823972;0.2592968;0;
-11546.54;-7436.722;832.7657;-11356.42;13.82631;17.22511;-10941.97;-5716.741;0.0581812;0.1291016;0;
-23718.38;-14621.42;-464.7006;-24207.26;23.45796;19.82014;-22124.08;-10205.91;-0.1367793;-0.0009627998;0;
-15702.6;-8005.292;-2587.292;-16363.9;23.09959;15.71439;-14322.84;-5376.873;0.1232275;-0.1958639;0;
-23848.5;-14998.71;-4765.439;-24243.32;26.42529;14.4929;-22232.68;-9280.443;0.1231037;-0.1306997;0;
-7738.901;-4498.709;-5422.99;-8512.883;24.59007;10.45949;-6881.329;-3651.646;-0.07192203;0.06433365;0;
21811.67;15365.64;-4785.312;21593.51;25.36965;6.229174;20774.41;10576.05;0.1230523;-0.0006983426;0;
24762.5;16282.95;-3651.227;25275.56;15.16275;7.026588;23052.13;12310.95;-0.0719734;-0.06566498;0;
22159.92;14775.7;-1469.888;22543.01;2.621583;3.938435;20660.17;10750.64;-0.006933738;-0.0006316604;0;
25590.28;17276.23;832.8232;25996.6;10.52318;9.226007;23938.38;13190.15;0.05804057;-0.06559837;0;
18850.08;13110.45;1484.44;19238.28;12.85713;13.57051;17671.13;8990.625;-0.07195243;0.1293696;0;
-12203.12;-7944.424;804.5391;-12009.78;5.609566;11.5475;-11578.08;-6060.598;-0.006912793;0.1942069;0;
-24523.6;-15375.94;-490.2282;-25001.7;4.264759;14.81794;-22928.69;-10850.52;-0.4616772;-0.0008902433;0;
-15825.47;-8056.298;-2590.711;-16502.09;1.246364;11.11911;-14451.26;-5431.803;-0.5261807;-0.130824;0;
-23551.6;-14673.47;-4756.19;-23976.59;-2.304862;8.09371;-21940.33;-8983.729;-0.33075;0.1291768;0;
-7557.184;-4310.3;-5389.652;-8342.046;3.524603;13.64504;-6706.555;-3483.431;-0.005580903;-0.0008876937;0;
21771.28;15342.95;-4756.505;21557.2;5.262373;14.03323;20728.9;10554.8;0.4491961;-0.6505602;0;
24673.95;16191.02;-3634.085;25187.63;10.81679;19.77954;22964.14;12225.95;0.05894069;-0.3250698;0;
22003.8;14623.22;-1461.336;22388.98;17.63843;25.3861;20504.41;10602.9;-0.1360206;0.5847996;0;
25091.22;16776.36;792.5314;25507.06;15.47725;21.00683;23434.87;12694.46;0.1239855;0.4542773;0;
18286.17;12575.82;1446.312;18677.65;18.74325;19.57908;17124.39;8459.745;-0.07104112;-0.06591789;0;
-12298.47;-8022.823;821.4536;-12096.15;11.82554;19.55941;-11649.09;-6162.082;0.1239323;-0.1957863;0;
-24501.3;-15310.53;-480.1398;-24951.07;0.2257338;18.86992;-22896.56;-10789.59;0.3187098;-0.06565493;0;
-16196.31;-8374.58;-2597.296;-16827.65;15.96662;15.10004;-14803.7;-5658.153;-0.006447167;0.1293131;0;
-24256.3;-15324.26;-4761.644;-24621.83;25.92993;11.93667;-22613.32;-9471.017;0.123494;0.0642158;0;
-8274.702;-4784.06;-5416.653;-9018.686;12.50827;9.647378;-7378.475;-3808.67;0.05840256;-0.06578342;0;
21414.12;15164.36;-4786.149;21205.86;13.09794;5.417881;20402.82;10410.87;-0.0715908;-0.195652;0;
24653.12;16145.17;-3650.518;25167.68;-0.5792544;7.689735;22942.35;12174.35;0.2533178;-0.9100962;0;
22031.2;14655.92;-1471.334;22421.77;-15.38178;9.155633;20537.84;10643.05;0.2530633;-0.974149;0;
25386.66;17081.91;812.4503;25799.86;-2.773043;6.333272;23741.22;13006.5;0.1228743;0.1962419;0;
18836.3;13054.63;1470.99;19249;-6.186509;6.393891;17654.35;8940.599;0.7074569;0.5208815;0;
-12557.01;-8405.499;794.9135;-12303.07;6.47936;5.851604;-11938.81;-6558.084;0.3819094;-0.1293153;0;
-25373.66;-16167.26;-518.5223;-25800.47;16.45318;5.845724;-23774.13;-11509.13;-0.2681478;0.130684;0;
-17244.89;-9394.455;-2616.899;-17872.78;8.465073;7.983181;-15855.82;-6470.808;-0.008008968;0.4553894;0;
-26457.87;-17472.67;-4797.204;-26793.11;12.47603;9.314818;-24811.37;-11317.65;0.05696642;0.1300951;0;
-10327.16;-6433.589;-5448.101;-11049.28;-4.616786;11.5159;-9398.422;-5000.711;-0.3978622;0.1949317;0;
20971.4;14981.69;-4794.343;20753.11;-10.17185;11.10243;19976.45;10364.14;-0.2675278;0.1947358;0;
24592.97;16030.42;-3664.06;25104.58;-29.1843;17.65536;22878.56;11989;-0.07235692;-0.06532922;0;
21855.32;14492.82;-1491.625;22248.46;-52.53092;22.52725;20359.92;10526.6;-0.2671862;0.06467113;0;
25289.79;16979.68;790.1964;25701.73;-34.86296;20.16033;23637.5;12869.95;-0.1369831;0.1945408;0;
18339.44;12644.16;1458.347;18740.57;-34.02365;23.42212;17172.34;8612.621;-0.0718781;-0.000556686;0;
-13167.5;-8885.308;815.8293;-12948.84;-23.54062;13.61932;-12523.2;-6775.958;-0.3966426;-0.3253928;0;
-25667.59;-16455.99;-483.1036;-26096.26;-10.58889;6.17077;-24074.19;-11675.06;-0.5911461;0.06473818;0;
-17662.51;-9696.564;-2584.655;-18279.65;-11.31518;7.638072;-16287.28;-6745.893;-0.3306827;0.3245425;0;
-26242.69;-17292.2;-4743.315;-26627.29;-1.52455;2.941714;-24617.92;-11329.89;0.1893883;-0.325457;0;
-9225.63;-5705.923;-5382.491;-9978.782;-8.020729;8.163305;-8344.385;-4621.773;-0.200606;-0.3900973;0;
21370.19;15188.42;-4749.602;21168.64;-11.83009;11.83904;20349.75;10502.04;-0.3303392;-0.1948034;0;
24358.45;15842.79;-3626.469;24867.58;-6.594263;9.415882;22648.73;11838.95;-0.1351052;-0.1296403;0;
21667.05;14298.05;-1466.378;22058.87;-7.1235;10.74608;20172.52;10321.51;-0.2649041;0.1303594;0;
24894.35;16583.05;783.2151;25311.32;-6.379408;10.33338;23245.45;12477.52;-0.1996706;0.3251304;0;
17835.28;12221.51;1446.032;18228.09;-5.502342;9.452223;16693.82;8228.472;0.1253667;-3.300488E-05;0;
-13609.47;-9240.469;812.1782;-13405.86;-8.979438;13.26063;-12934.92;-7029.506;0.3201428;-0.1299677;0;
-25809.38;-16571.51;-483.0185;-26268.7;-12.45402;16.59633;-24202.73;-11854.4;0.1249191;0.259967;0;
-16985.12;-8992.848;-2574.263;-17609.83;-8.220967;13.83348;-15594.41;-6136.283;-0.3949452;0.1947384;0;
-25055.44;-16066.44;-4725.781;-25398.87;-5.467017;12.88182;-23411.68;-10098.83;-0.134679;-0.1952613;0;
-8666.252;-5190.566;-5369.051;-9378.392;-8.743077;13.33775;-7792.087;-4176.244;0.06035837;0.1297716;0;
21352.03;15095.05;-4751.245;21162.15;-11.21254;11.44883;20313.42;10382.79;-0.1346043;0.5194453;0;
24362.16;15846.81;-3641.417;24870.67;-7.049062;14.98742;22652.55;11863.91;0.06043297;0.3240213;0;
21605.3;14249.26;-1482.576;21999.99;-3.826799;18.32138;20113.63;10272.5;0.1903069;-0.06610832;0;
24809.29;16488.21;759.9438;25228.36;-7.775068;13.74826;23157.76;12386.42;-0.004786311;0.1288601;0;
17608.92;12071.89;1415.507;18008.69;-8.637912;11.99289;16474.06;8090.254;-0.1996835;-0.001204038;0;
-13703.86;-9224.322;792.834;-13488.54;-9.097747;12.31575;-13014.88;-6991.486;-0.2644502;-0.4559742;0;
-25653.23;-16381.79;-508.3558;-26102.5;-9.758191;10.82987;-24034.5;-11626.27;-0.1992172;-0.1306793;0;
-17315.27;-9287.455;-2619.737;-17934.96;-9.480943;12.82836;-15915.18;-6314.219;-0.3289517;-0.2604827;0;
-25196.52;-16232.55;-4758.215;-25579.87;-10.60952;13.61926;-23555.29;-10288.31;-0.06875177;-0.1952536;0;
-8141.32;-4808.598;-5374.888;-8913.542;-7.11623;14.20843;-7287.182;-3957.073;0.06125199;0.3246813;0;
21575.29;15251.73;-4739.538;21372.34;-6.304797;16.00269;20524.37;10515.74;-0.588483;0.1944204;0;
24318.86;15823;-3612.527;24829.16;-3.016908;14.446;22609.76;11856.59;-0.457957;-0.0006770256;0;
21599.84;14240.98;-1441.065;21988.44;1.139309;13.89562;20107.79;10267;0.2571439;0.1292583;0;
24772.2;16450.04;804.1456;25189.91;-2.345436;15.95813;23122.52;12338.46;0.1919182;-0.1307409;0;
17366.04;11893.04;1452.761;17770.07;-1.271353;18.62129;16237.86;7983.452;0.06179069;-0.3255116;0;
-14249.78;-9669.667;822.0239;-14024.69;-6.62871;15.4545;-13556.62;-7237.829;-0.003238735;0.06461958;0;
-25866.24;-16595.76;-464.6088;-26317.32;-11.71226;11.01822;-24255.33;-11798.76;-0.06820282;-0.0004127102;0;
-17164.63;-9130.424;-2551.921;-17784.67;-9.154901;19.71469;-15765.51;-6214.112;0.06180039;-0.5851184;0;
-24943.07;-15992.01;-4685.673;-25318.23;-12.15981;23.98167;-23306.04;-10103.3;0.191673;-0.4545957;0;
-7615.329;-4545.223;-5293.517;-8372.33;-4.712853;24.15852;-6803.142;-3792.284;-0.1333563;-0.1293023;0;
21913.48;15403.96;-4656.765;21735.06;3.999419;30.29655;20833.56;10661.08;-0.1332223;-0.259107;0;
24298.91;15831.54;-3542.878;24823.1;-5.449071;20.55383;22595.95;11883.95;0.4516176;-0.06394465;0;
21620.49;14267.18;-1355.775;22015.9;-9.931574;14.03595;20130.16;10286.96;0.3212291;0.2609563;0;
24887.08;16564.21;908.8873;25310.95;-3.089092;19.51433;23235.34;12473.35;-0.1988324;0.1307594;0;
17557.23;12039.54;1545.154;17964.07;-1.679468;18.28903;16416.68;8075.204;0.06123679;-0.1942087;0;
-13845.06;-9325.5;900.8929;-13625.04;1.202607;22.95933;-13165.18;-7048.64;0.386012;-0.3889156;0;
-25419.59;-16192.13;-390.9102;-25873.72;3.880716;25.88351;-23808.75;-11499.5;-0.1341146;-0.4534921;0;
-16965.58;-8971.229;-2490.353;-17575.71;2.737741;26.32626;-15570.77;-6025.898;-0.4588166;-0.1931671;0;
-24574.56;-15664.77;-4617.264;-24960.81;2.601268;29.31404;-22944.03;-9810.047;-0.1335189;0.1968311;0;
-7113.898;-4158.006;-5209.122;-7893.407;1.929069;25.8016;-6306.532;-3552.44;-0.06841736;-0.1282034;0;
21954.52;15384.4;-4569.051;21779.08;4.204307;24.90489;20870.65;10604.69;-0.06834861;-0.3229766;0;
24238.22;15800.29;-3430.764;24763.69;-3.971592;22.60245;22535.41;11881.01;0.3215241;0.262054;0;
21758.66;14396.23;-1222.878;22144.12;-8.723999;20.23546;20267.74;10402.71;0.2562337;0.1968233;0;
24857.73;16536.2;1019.693;25281.86;-3.691391;18.3396;23207.41;12456.04;-0.1338278;-0.1931785;0;
17417.86;11934.15;1645.166;17821.18;2.139467;13.63249;16288.97;7960.384;-0.068726;0.1318523;0;
-13880.47;-9355.439;1009.269;-13654.18;-1.6801;18.57541;-13195.37;-7106.155;0.4510818;0.0667525;0;
-25550.21;-16226.52;-307.8645;-25978.96;-9.582642;21.03499;-23943.53;-11517.03;0.2557265;-0.06324927;0;
-17238.88;-9149.871;-2433.955;-17854.04;18.15719;18.06673;-15847.75;-6236.713;-0.3292365;-0.1281531;0;
-25193.88;-16206.09;-4572.902;-25589.23;30.66488;18.38349;-23562.55;-10295.87;-0.3289057;-0.1929916;0;
-8012.496;-4742.831;-5171.753;-8779.346;42.22199;15.08298;-7167.615;-3909.31;-0.3285752;-0.06286303;0;
21583.09;15210.24;-4514.588;21397.97;63.07726;12.92437;20540.12;10501.16;-0.4581797;0.002167478;0;
24198.65;15718.5;-3372.608;24717.94;37.42713;12.10758;22499.78;11773.63;-0.5876541;-0.06280204;0;
21500.64;14149.97;-1167.732;21893.33;22.4527;11.49257;20012.93;10185.14;-0.3921615;0.002228404;0;
24749.81;16428.38;1091.338;25165.48;22.76493;9.739591;23103.16;12330.9;-0.001963437;0.1321609;0;
17308.5;11834.6;1706.994;17713.21;17.04863;9.059975;16185.83;7936.856;0.06300588;0.3269301;0;
-14348.93;-9813.354;1052.326;-14116.81;0.9565708;9.385786;-13639.28;-7389.419;-0.06699211;0.2616343;0;
-26110.51;-16761.4;-277.1733;-26546.53;-8.556211;7.366868;-24484.18;-11802.02;-0.1968595;0.1314367;0;
-18385.24;-10257.88;-2444.102;-18991.77;-22.68016;14.79445;-16988.08;-7028.588;0.06320769;-0.3884341;0;
-26871.18;-17881.54;-4595.017;-27245.7;-45.76587;18.12861;-25220.1;-11731.66;0.2580462;-0.5179785;0;
-8848.178;-5453.385;-5162.207;-9605.126;-16.18102;21.86131;-7979.878;-4433.908;-0.002082451;-0.127654;0;
21490.87;15198.14;-4493.275;21308.3;-1.227935;28.6045;20441.22;10522.59;-0.132015;0.0673763;0;
24034.13;15544.95;-3337.401;24553.69;-1.829914;21.07379;22329.64;11570.79;-0.06691505;-0.0626261;0;
21399.98;14051.4;-1116.163;21791.13;12.84033;19.17722;19915.23;10116.12;0.06308687;-0.06256317;0;
24635.25;16300.07;1118.898;25052.75;-0.5681792;15.20608;22985.48;12163.69;-0.06691121;-0.192435;0;
16663.16;11367.61;1699.482;17080.32;-5.390379;9.430388;15567.57;7611.808;-0.1967787;-0.3871436;0;
-15479.58;-10773.78;1018.553;-15224.19;-3.643651;11.76519;-14745.53;-8063.715;0.1932231;-0.1918526;0;
-27328.82;-17831.74;-338.9917;-27749.94;-7.457407;9.944955;-25712.24;-12617.51;0.2579963;-0.1266925;0;
-19387.32;-11065.23;-2510.762;-19997.44;-6.847677;11.07355;-17999.56;-7534.877;-0.002132293;-0.4514019;0;
-27627.85;-18562.61;-4648.679;-27987.11;-7.778802;9.655904;-25974.62;-12198.93;0.06283719;-0.191079;0;
-9682.376;-5997.074;-5205.304;-10408.15;-9.110156;15.27265;-8779.194;-4789.31;-0.2620627;-0.0609523;0;
20928.52;14860.83;-4516.589;20748.65;-8.565139;23.62992;19910.55;10270.42;-0.5216687;0.06904364;0;
23819.84;15284.6;-3362.504;24333.93;-9.56091;11.88441;22111.38;11271.45;0.06356155;0.198909;0;
21045.3;13708.49;-1157.373;21441.65;-13.16863;5.777143;19558.08;9794.315;-0.066437;-0.191095;0;
24361.57;16022.74;1088.225;24776.22;-0.09360035;8.852553;22710.8;11858.68;-0.3262396;-0.5157397;0;
16162.15;10980.68;1665.497;16574.56;9.484687;5.963392;15087.68;7351.853;0.3237616;-0.3203194;0;
-16528.71;-11693.65;982.1346;-16278.09;8.336081;9.306546;-15766.96;-8679.558;0.1935016;-0.2550302;0;
-27942.34;-18444.73;-340.7034;-28371.05;14.08848;11.77544;-26330.09;-13102.72;-0.06656218;-0.449676;0;
-19561.7;-11231.49;-2498.417;-20157.21;9.518997;8.347602;-18174.11;-7678.335;0.3233087;0.005547228;0;
-28502.13;-19400.06;-4651.214;-28843.7;5.222525;8.875078;-26842.12;-12914.31;0.1280819;0.3953457;0;
-10669.31;-6779.809;-5212.725;-11406.83;12.5183;5.316065;-9760.299;-5398.763;-0.3268182;0.2650138;0;
20748.88;14839.58;-4511.29;20558.32;15.58718;2.028682;19740.12;10295.63;-0.2615225;0.1348128;0;
23877.09;15310;-3338.531;24395.07;14.23234;6.045497;22170.93;11274.67;-0.2612597;0.004742661;0;
21033.13;13699.14;-1138.25;21432.25;15.892;8.316842;19549.12;9796.982;-0.3259645;-0.3200988;0;
24397.36;16063.91;1096.646;24814.41;12.66086;7.03581;22749.73;11897.06;-0.0008003093;-0.1248752;0;
16171.32;10977.93;1697.054;16586.15;8.026434;5.287184;15099.5;7336.472;0.06416783;0.4599564;0;
-16560.42;-11706.11;1034.213;-16308.74;15.65418;12.38194;-15787.43;-8734.294;0.1290707;0.1996249;0;
-28242.95;-18730.8;-293.1755;-28652.67;18.25139;18.86672;-26608.88;-13304.17;0.5187451;-0.1903798;0;
-20090.87;-11744.71;-2443.706;-20655.75;18.23306;13.89115;-18677.55;-7987.951;0.3233218;0.004713552;0;
-28489.56;-19414.18;-4577.427;-28819;20.49191;11.8677;-26817.1;-12914.58;0.1930622;-0.06025853;0;
-10225;-6454.781;-5132.577;-10948.93;15.24641;14.5351;-9320.422;-5129.093;0.1279009;-0.06019798;0;
20824.15;14817.25;-4443.748;20646.85;13.08763;14.25256;19806.46;10274.95;-0.4569337;-0.1251048;0;
23741.64;15190.28;-3268.903;24258.59;8.854924;14.57315;22034.38;11157.02;-0.5864092;-0.2549138;0;
20882.66;13548.21;-1043.797;21280.67;6.032988;15.16123;19396.76;9651.915;-0.2609833;-0.124723;0;
24260.85;15911.8;1196.813;24669.68;1.606296;12.53379;22608.73;11721.78;-0.06581904;0.07030437;0;
15752.28;10678.14;1782.378;16170.73;-3.151716;12.78912;14702.18;7163.585;0.3240511;0.2651358;0;
-17572.16;-12608.31;1105.208;-17295.86;-1.67468;8.020608;-16773.94;-9396.448;-0.00111117;0.1349347;0;
-29110.53;-19580.57;-228.9979;-29499.62;-6.160976;3.055934;-27472.82;-13934.77;-0.3909141;-0.1250703;0;
-21378.62;-13074.48;-2395.788;-21927.77;4.629833;7.808529;-19976.74;-9116.868;-0.0656846;-0.4497813;0;
-30859.31;-21766.7;-4541.941;-31181.42;12.59578;7.733701;-29196.6;-15076;-0.2605206;-0.579264;0;
-11889.14;-7803.215;-5074.311;-12638;10.2386;12.01272;-10945.59;-6202.247;-0.5850956;0.006024044;0;
20470.03;14694.09;-4374.015;20258.53;18.53371;16.62234;19490;10257.36;-0.3246383;0.2658874;0;
23580.38;14988.93;-3206.142;24091.42;3.645608;14.39533;21866.87;10902.31;-0.06444272;-0.05921651;0;
20774.96;13442.03;-977.3516;21170.87;-7.543839;16.79213;19289.5;9570.757;0.06555671;-0.05915701;0;
24221.84;15876.53;1249.933;24629.38;-0.1688677;12.89037;22572.97;11666.91;0.000523497;0.3956738;0;
15465.95;10461.9;1821.077;15873.38;-6.665432;11.00189;14422.37;6976.336;0.06549031;0.3303089;0;
-18039.52;-12970.28;1146.804;-17807.79;7.139017;9.718284;-17231.09;-9673.668;0.06542451;-0.3196964;0;
-29640.99;-20122.66;-177.9486;-30052.04;19.65777;3.144313;-28004.6;-14354.51;-0.1295433;-0.3193752;0;
