Fp1;Fp2;O1;O2;POLY3;POLY4;A1;A2;Video;Audio;event;
-198.6407;0;-195.0438;0;20.86846;3.913946;-204.454;-205.7245;0.2376505;0.5194789;0;12:46:11 Глаза открыты;
-31.71236;0;-39.98819;0;49.24727;-1.381517;-40.51834;-42.47471;-0.2173596;0.1291528;0;
553.9626;0;502.8416;0;64.20197;-0.7102992;535.6078;534.2156;-0.4120433;0.2589577;0;
656.2918;0;609.0952;0;32.12035;-10.2879;638.8925;634.1908;-0.0218252;0.1287629;0;
249.4615;0;242.1673;0;29.60983;-14.56435;236.3275;232.0054;-0.34664;-0.2611706;0;
174.4984;0;166.1496;0;29.04421;-4.837434;158.8164;158.9339;-0.5411937;0.2588306;0;
48.01155;0;47.1049;0;22.58467;-5.033522;35.59365;36.64809;-0.2158132;0.5184399;0;
-505.0712;0;-466.9966;0;22.15983;-4.157686;-507.8565;-506.1784;-0.08566166;0.1281149;0;
-637.4344;0;-612.7663;0;16.91265;-2.880832;-640.0919;-636.2916;-0.1505429;0.1929535;0;
-270.9153;0;-280.13;0;13.9489;-7.700587;-278.3803;-275.8956;-0.08542432;-0.2620118;0;
-192.9946;0;-192.8922;0;9.514251;-8.496645;-197.8909;-200.8435;0.0445962;-0.5216178;0;
-33.56826;0;-44.4604;0;9.906833;-7.885261;-40.95831;-46.03188;-0.0853833;0.1285797;0;
550.8592;0;496.0626;0;7.418632;-8.145269;534.0438;529.5376;-0.1502648;0.7131566;0;
645.258;0;597.2631;0;8.549277;-9.878641;629.2091;623.3331;0.1097555;0.517538;0;
245.1854;0;236.6564;0;10.68414;-9.935698;232.9008;229.1546;0.2395799;-0.06768815;0;
176.5359;0;165.8915;0;-4.129701;-10.3946;160.7029;161.6456;0.1094045;-0.1325875;0;
44.23745;0;39.91307;0;-5.06258;-10.25019;30.85665;32.42309;0.04432723;-0.3273563;0;
-497.4722;0;-462.2496;0;-6.263918;-6.221031;-500.6572;-498.5926;-0.02068466;-0.456962;0;
-624.2834;0;-602.7768;0;-9.204385;-4.60719;-626.0284;-622.5291;0.1092708;-0.06669883;0;
-274.9564;0;-288.3914;0;13.04271;-3.329885;-281.3223;-280.3252;0.2390957;-0.001664464;0;
-199.5304;0;-202.4571;0;17.91875;-2.924641;-204.8904;-207.58;0.1089208;0.1932392;0;
-31.85156;0;-47.89378;0;22.79086;1.833963;-40.5795;-43.70367;0.238746;0.1280777;0;
552.1369;0;490.4463;0;29.66684;3.171779;534.1724;530.9889;0.2385061;-0.001985653;0;
653.0311;0;599.3984;0;17.71431;-3.529579;636.334;631.4046;-0.2814723;0.127951;0;
249.7648;0;235.7287;0;18.76824;-5.468537;237.4573;234.0946;-0.2811894;-0.1970142;0;
169.6165;0;155.7819;0;8.567974;-7.472409;153.8856;155.2114;-0.02103754;-0.2617836;0;
47.31999;0;40.933;0;1.794211;-9.675337;33.10411;35.61546;-0.2159184;-0.1315859;0;
-498.3908;0;-467.2277;0;19.14111;-12.81369;-504.0342;-501.6503;-0.08576678;-0.001519003;0;
-642.8171;0;-622.9922;0;19.38932;-14.20746;-647.0181;-642.2628;0.3041234;0.2583519;0;
-281.3526;0;-294.9058;0;18.96867;-16.00172;-287.8607;-284.7343;0.1738832;-0.1317118;0;
-200.298;0;-204.2175;0;22.90075;-16.85642;-204.8005;-206.4249;0.04377377;-0.001644725;0;
-47.17361;0;-60.52187;0;4.86043;-10.47623;-54.91998;-57.35486;-0.08620489;0.4531283;0;
543.4519;0;484.5775;0;0.3002189;-7.920348;526.0932;523.5358;-0.5408897;0.3227383;0;
653.975;0;600.9069;0;12.35733;-6.773802;636.7587;631.3303;-0.6702809;0.1924794;0;
250.8952;0;239.1096;0;11.00477;-4.489576;237.5692;234.2702;-0.2798033;0.1273186;0;
171.9327;0;162.4078;0;18.56217;0.2036183;155.1218;158.3229;0.04531455;0.2571254;0;
37.01514;0;36.74518;0;22.36192;3.351612;22.15769;26.54245;0.3051384;0.1918997;0;
-506.0616;0;-466.7262;0;12.15804;-0.3358175;-511.7212;-508.9651;0.1099298;-0.2630646;0;
-630.6777;0;-597.941;0;13.88714;-0.8713435;-634.9573;-631.5168;-0.3449521;-0.3927349;0;
-279.2828;0;-279.1876;0;4.294989;3.684249;-286.1818;-283.8692;-0.4095728;-0.002536234;0;
-203.6026;0;-200.0093;0;0.07111441;3.948479;-207.9959;-210.4332;-0.3441939;0.1923684;0;
-34.60785;0;-43.94914;0;16.95025;-1.012103;-42.30762;-46.61649;-0.4088154;0.2571424;0;
547.6343;0;494.387;0;17.53643;-3.154418;531.1342;526.8921;-0.473372;0.3868187;0;
651.7814;0;604.772;0;27.83394;-2.347453;636.4847;630.3104;-0.2779943;0.2564954;0;
257.137;0;249.8424;0;34.83857;-3.215873;246.1036;241.1849;0.2420237;0.1263029;0;
176.2317;0;170.756;0;11.96348;-6.159891;164.3973;163.3565;0.4366826;-0.1986607;0;
47.24435;0;50.64467;0;7.730928;-5.751803;39.35736;38.56752;0.2413418;-0.5232978;0;
-501.215;0;-459.0251;0;19.98067;-11.57342;-501.223;-502.137;0.3060666;-0.522772;0;
-644.9514;0;-613.7358;0;21.23339;-13.50417;-646.1462;-644.623;0.1758244;-0.19741;0;
-280.7985;0;-286.4708;0;12.23708;-3.97927;-286.365;-286.1552;0.2406151;-0.1322443;0;
-196.4961;0;-196.1657;0;10.81826;-3.439408;-199.5583;-204.2212;0.5002427;-0.2620461;0;
-43.87527;0;-52.29084;0;15.16067;6.27633;-48.80842;-54.84097;-0.01999873;-0.1968154;0;
544.4356;0;492.4879;0;13.47147;11.56155;530.9492;524.9852;-0.3448153;-0.261585;0;
660.2051;0;614.369;0;29.60021;-0.4397655;647.7318;639.6498;0.04533518;-0.1963548;0;
260.9921;0;254.9321;0;36.13456;-0.1044089;252.4043;246.267;0.2401917;-0.1311902;0;
176.0849;0;170.9055;0;18.07996;-5.127902;164.6322;163.6235;-0.01991906;-0.4558951;0;
39.72638;0;43.29784;0;16.65527;-9.208587;31.40864;31.02561;-0.2797684;-0.5204043;0;
-502.8533;0;-465.365;0;18.98306;1.986572;-502.2297;-501.9877;-0.409422;-0.2600121;0;
-631.2208;0;-608.2628;0;16.41839;2.587423;-631.16;-627.2325;-0.4090106;-0.1947835;0;
-277.6389;0;-286.1258;0;22.02895;-0.1614775;-281.8261;-279.9641;-0.2136976;0.130249;0;
-202.4601;0;-203.817;0;22.60905;0.4415311;-204.1443;-207.9063;-0.08354818;0.2600528;0;
-40.02572;0;-52.6256;0;16.62546;-3.778715;-44.33191;-48.52741;-0.1484316;-0.1949799;0;
546.782;0;491.0915;0;15.00117;-4.578713;532.7975;529.4808;-0.2132498;-0.389686;0;
655.7401;0;605.6652;0;16.12419;-6.382652;642.1445;636.8945;-0.2130355;0.06547692;0;
255.532;0;245.4874;0;14.5004;-8.318622;245.4483;241.7654;0.04704793;0.1303785;0;
174.0661;0;164.1565;0;17.2325;-4.492358;160.3693;161.5002;0.111968;-0.06465457;0;
46.39279;0;44.36416;0;18.48798;-4.152929;35.83321;37.71255;-0.08304653;0.1303124;0;
-501.0662;0;-468.4227;0;3.867368;-8.033645;-502.2448;-500.8047;0.3718083;-0.06472053;0;
-642.3664;0;-624.6857;0;-2.164737;-9.56618;-643.6688;-639.9813;0.3064674;-0.3894922;0;
-278.9658;0;-291.975;0;11.56882;-5.336765;-283.9526;-282.0178;-0.2785467;-0.2591662;0;
-194.6028;0;-197.2915;0;12.09306;-4.527607;-196.0863;-199.2134;0.04656994;-0.3238731;0;
-46.16924;0;-57.97572;0;7.057063;-9.613639;-49.83767;-54.2735;0.1114905;-0.3235477;0;
543.2059;0;487.4334;0;10.33153;-9.804928;529.2339;525.4272;-0.01855622;0.001614142;0;
664.224;0;613.6924;0;-8.299378;-12.27332;650.7657;645.4011;0.1113971;0.3914166;0;
255.7616;0;245.9478;0;-13.38125;-13.33272;247.4392;243.3294;0.2412199;0.3260559;0;
175.6072;0;165.1787;0;6.659234;-10.50616;164.9195;164.9367;0.3709122;-0.06407574;0;
54.86639;0;52.00699;0;7.992689;-11.16543;46.62564;47.57989;0.5004742;-0.1289787;0;
-495.9744;0;-464.1608;0;16.89327;-1.91069;-495.7736;-494.8828;0.1751346;0.06605292;0;
-635.5931;0;-614.7435;0;21.56437;2.511981;-634.9552;-632.566;-0.08491077;0.06598655;0;
-281.632;0;-286.9153;0;15.31341;-7.872653;-284.743;-283.9179;-0.1497928;0.0009529088;0;
-204.7626;0;-201.9196;0;16.50347;-7.998708;-206.9333;-210.6068;-0.08467494;-0.1939501;0;
-40.88908;0;-49.79306;0;8.784702;-4.70863;-46.05613;-51.28766;0.2402468;-0.1937552;0;
544.2954;0;494.7333;0;6.698794;-4.837864;531.5748;526.0987;0.3049728;0.001341519;0;
656.8791;0;612.6142;0;2.205061;0.3915436;644.6711;636.7017;0.239699;-0.06362717;0;
262.6044;0;255.8027;0;-0.5438209;2.266672;254.0318;247.3198;0.1744908;0.1313388;0;
177.5707;0;173.337;0;4.413218;0.7237872;166.1331;164.8002;0.1093481;0.7808803;0;
48.76939;0;53.66035;0;5.54786;1.593838;39.6547;39.07269;0.3041403;0.7151283;0;
-494.8189;0;-450.8275;0;10.83357;0.9893903;-495.1164;-496.3849;0.1089327;0.2596383;0;
-637.5622;0;-599.4246;0;14.44001;-0.08333083;-638.609;-637.5025;-0.08607882;0.06447539;0;
-277.04;0;-274.5478;0;17.50598;3.466848;-282.7708;-283.1647;0.1089097;-0.0005567329;0;
-192.4915;0;-189.6894;0;18.49375;3.12845;-196.0927;-201.2337;-0.02113441;-0.06552351;0;
-46.99608;0;-54.44172;0;31.13482;-1.094618;-53.34227;-59.47767;-0.4109172;-0.325327;0;
535.6333;0;484.9669;0;35.59053;-2.901935;520.298;514.5436;-0.2805696;-0.2600328;0;
659.9698;0;612.1654;0;21.6233;-6.516098;645.2747;638.1517;0.434353;0.1300325;0;
257.2588;0;248.4828;0;20.66356;-8.451934;246.8262;241.2721;0.6288186;-3.282014E-05;0;
171.7931;0;165.7121;0;11.13098;-13.53402;159.0597;158.1339;0.1734154;-0.3248695;0;
54.67928;0;56.60034;0;7.302381;-16.19974;44.4574;45.28162;0.04330645;-0.3895104;0;
-493.9124;0;-456.8235;0;6.75918;-14.37492;-494.9412;-493.618;0.3680996;-0.1292497;0;
-645.4023;0;-624.4675;0;2.933995;-15.70014;-645.5554;-642.2971;0.4976645;0.06578223;0;
-284.9346;0;-300.4401;0;16.99722;-9.990935;-288.6483;-287.2048;0.1723277;0.1956508;0;
-201.8774;0;-205.8106;0;18.7888;-7.56951;-204.0257;-207.2688;0.2371219;0.1304869;0;
-54.9983;0;-64.9245;0;25.33401;-11.78171;-60.70509;-64.94445;0.3018509;-0.2594483;0;
531.5122;0;477.2433;0;30.80091;-10.69826;516.6282;512.7055;-0.2181911;-0.1942202;0;
658.9138;0;608.8848;0;19.45045;-9.682771;644.6071;638.6268;-0.02306981;0.000876941;0;
267.8854;0;257.3869;0;20.23421;-8.333383;258.2157;253.1785;0.4966921;-0.194026;0;
188.4686;0;177.8556;0;13.11394;-7.052333;176.1224;175.6504;0.106389;-0.06389632;0;
60.15608;0;59.049;0;9.14962;-5.303813;49.8838;50.28687;-0.2185546;0.001135221;0;
-494.4381;0;-458.5627;0;16.17303;-4.695637;-495.6422;-496.1765;-0.1533677;0.1310688;0;
-644.9279;0;-627.7042;0;13.94597;-4.757902;-645.8809;-644.1658;0.04168844;0.6506758;0;
-289.7081;0;-305.735;0;18.55366;3.485657;-294.7206;-293.7569;0.1715812;0.3251853;0;
-208.0829;0;-208.2266;0;17.39692;4.55376;-210.7165;-214.7513;0.2363762;-0.3248149;0;
-58.32399;0;-66.77589;0;18.98703;6.156775;-63.76602;-69.17104;0.301106;-0.3244885;0;
526.0659;0;472.4577;0;20.91033;8.026111;511.6963;506.7965;0.1059014;-0.06429309;0;
655.347;0;606.3529;0;-0.7453135;-5.244331;641.4917;634.9726;-0.3489764;0.0657062;0;
263.5727;0;253.6706;0;-6.505341;-8.521103;253.3544;248.2161;-0.2836584;-0.2591965;0;
179.475;0;172.8313;0;-4.690143;-10.78996;166.8307;166.3827;-0.02350399;-0.3888708;0;
62.66574;0;62.77532;0;-8.101682;-14.32909;52.28303;53.14739;0.3013563;-0.1286107;0;
-483.5602;0;-448.2809;0;-6.151158;-12.43917;-485.3743;-484.2609;0.2360862;-0.2584161;0;
-640.6826;0;-613.8096;0;-7.417775;-14.16823;-642.245;-638.8839;-0.08898775;-0.3231238;0;
-283.7804;0;-290.3551;0;1.766706;-8.460566;-288.5271;-287.1059;0.2359384;0.002037579;0;
-203.4105;0;-204.1065;0;4.779041;-6.97844;-205.2789;-208.2319;0.3006687;-0.2578338;0;
-66.08755;0;-75.52846;0;2.630785;-7.507292;-70.64021;-74.33988;0.1704319;-0.7123461;0;
523.4951;0;470.1482;0;4.168383;-5.423399;510.6386;505.8807;0.6250319;-0.3867937;0;
664.0231;0;614.1656;0;2.757675;-10.50853;651.9917;644.7398;0.1046652;-0.06156832;0;
269.1166;0;259.7264;0;3.759282;-10.69892;260.4081;256.4743;-0.09034197;0.1983629;0;
186.7;0;178.5686;0;-9.171592;-11.49184;174.0022;175.5072;0.2345855;0.5230003;0;
67.44721;0;65.57085;0;-15.39167;-12.75297;55.82421;58.07729;-0.2204216;0.1976381;0;
-488.3412;0;-450.3607;0;2.239944;-9.257168;-490.4573;-487.9566;-0.09026542;0.002537473;0;
-642.3978;0;-610.39;0;5.921389;-9.917695;-643.075;-638.8278;-0.02520738;-0.06243242;0;
-285.6813;0;-285.9395;0;-7.81594;-6.022842;-289.7312;-287.0499;-0.1551167;0.06756499;0;
-204.7473;0;-199.8203;0;-7.204874;-4.945063;-206.2319;-207.4263;-0.02502619;0.2623991;0;
-55.61646;0;-62.12615;0;-9.006296;-9.561794;-60.41033;-63.04035;0.169901;-0.1926359;0;
528.0836;0;477.8524;0;-12.68094;-9.820119;514.0491;511.1719;0.03979558;-0.517279;0;
659.8615;0;614.3034;0;10.30658;-16.70925;646.5908;641.9048;-0.4150158;-0.2568899;0;
273.7047;0;266.5481;0;15.25272;-20.24256;262.946;259.889;-0.02479474;-0.1916645;0;
188.3474;0;182.9472;0;6.396132;-16.27034;174.2263;176.7945;0.1051649;-0.2564392;0;
68.71819;0;71.56926;0;8.131018;-17.52655;58.23447;62.04945;-0.2847449;-0.1912142;0;
-482.199;0;-436.2474;0;0.6207588;-17.30799;-483.1145;-479.4907;-0.02458938;-0.0610874;0;
-648.8804;0;-604.2244;0;0.8212059;-16.55379;-649.67;-643.6761;0.04040267;0.06890867;0;
-286.2854;0;-279.5302;0;-14.11645;-21.62773;-291.2596;-287.5831;-0.2844746;0.003872087;0;
-197.8545;0;-193.7298;0;-22.07287;-22.8117;-200.325;-201.4622;-0.4141235;-0.1260665;0;
-67.28373;0;-72.72089;0;4.272995;-16.55948;-71.87569;-74.32361;-0.543642;0.003994868;0;
524.0492;0;474.5146;0;7.416534;-14.53348;509.8417;506.0219;-0.4781285;0.1339256;0;
669.949;0;623.6501;0;9.552535;-16.26043;656.5054;650.0658;-0.08784398;0.2637257;0;
272.4753;0;267.1399;0;17.37982;-14.43555;264.2301;259.5461;0.04217897;0.328428;0;
188.1812;0;182.6638;0;-4.406976;-15.69372;176.7584;176.327;-0.02283075;0.003261286;0;
66.67813;0;69.09975;0;-8.755829;-16.01287;57.51566;57.89673;0.04215953;-0.2566113;0;
-489.4843;0;-448.7094;0;16.17013;-7.289121;-489.7046;-489.5738;0.1720518;-0.1913862;0;
-644.7267;0;-611.8638;0;22.85169;-5.071482;-645.5714;-642.942;0.04194429;-0.06125918;0;
-287.0084;0;-285.6002;0;9.566839;-6.673854;-292.4124;-290.9101;-0.0230652;0.003769713;0;
-200.8257;0;-198.1071;0;11.8344;-5.796493;-204.4127;-208.5341;0.3017947;-0.3210708;0;
-52.7607;0;-61.72648;0;12.02358;-7.197187;-58.59303;-64.3344;-0.08831261;-0.3857155;0;
529.1249;0;480.2506;0;7.657244;-6.855041;515.5523;509.3169;-0.6729299;-0.4502953;0;
661.5264;0;616.9492;0;37.79163;-12.0727;648.5297;640.364;-0.3474171;-0.5797775;0;
274.8682;0;268.1292;0;42.97759;-13.80212;265.5077;259.0369;0.1077034;-0.05945621;0;
192.8206;0;187.4627;0;24.7824;-10.5732;180.2836;178.1297;0.04262784;0.2654403;0;
74.12391;0;76.58002;0;21.14115;-11.09832;63.53607;62.44627;-0.152317;-0.3195325;0;
-478.4229;0;-437.8009;0;9.934122;-5.996583;-479.8797;-480.7185;-0.152164;-0.3841788;0;
-646.5449;0;-612.7104;0;4.163364;-3.579294;-647.5005;-646.0271;-0.2169784;-0.3188255;0;
-287.3255;0;-290.319;0;-18.41346;-7.32662;-292.528;-292.6803;-0.2817277;-0.2535378;0;
-195.3953;0;-197.4488;0;-28.50901;-7.453224;-197.9689;-202.9312;0.04339205;0.3963904;0;
-59.89202;0;-69.87691;0;-29.01623;-1.417393;-64.83681;-69.7316;-0.08658623;0.4609595;0;
527.373;0;472.6706;0;-36.69024;0.9952947;513.5626;509.0476;-0.2164339;0.07069223;0;
673.3944;0;619.1218;0;-14.61659;-7.110396;660.6599;652.8386;-0.08628175;0.2005559;0;
275.1676;0;260.1174;0;-10.58244;-9.11274;266.0066;260.1921;-0.08619506;0.00545234;0;
185.7484;0;171.6503;0;-7.625047;-3.812053;173.2858;173.2867;-0.1510758;0.0704142;0;
74.86745;0;67.65506;0;-0.3837169;-4.478053;65.10347;65.85401;-0.2158913;0.1353108;0;
-476.6181;0;-440.0328;0;-13.77894;-4.138638;-477.1269;-476.1897;-0.02077238;-0.2546292;0;
-642.743;0;-611.0045;0;-12.96179;-4.067497;-641.752;-637.9422;-0.08571885;-0.05947134;0;
-289.1495;0;-293.6747;0;-17.16832;-7.948298;-290.9707;-288.4141;-0.2155674;0.1354905;0;
-204.1516;0;-203.2999;0;-19.96411;-8.476174;-204.1593;-205.7906;0.1094859;0.265289;0;
-57.52005;0;-65.22743;0;-12.9788;-12.68746;-60.58872;-63.34287;-0.02055878;0.2650224;0;
528.7431;0;476.3784;0;-13.568;-14.75118;515.8074;513.1185;-0.08550547;-0.06008058;0;
665.2054;0;615.3921;0;-5.181621;-8.708019;652.7201;647.4102;0.4343192;-0.1249876;0;
277.2942;0;266.9486;0;-1.224299;-7.158662;269.8189;265.5763;0.1090461;0.005072715;0;
195.1817;0;187.7825;0;-6.447982;-9.160956;185.465;186.4741;0.04396915;0.3299043;0;
71.67257;0;73.77606;0;-4.901262;-8.147008;64.77674;67.15907;0.628631;0.3295729;0;
-483.433;0;-445.9744;0;-6.034437;-6.263299;-480.8266;-478.5716;0.2381953;-0.1904971;0;
-643.7414;0;-621.9376;0;-7.434893;-6.056057;-640.8253;-636.3862;-0.0868807;-0.06037096;0;
-286.8361;0;-295.4764;0;-0.8633388;1.049975;-288.1084;-285.3604;0.2380433;0.3294938;0;
-200.5286;0;-194.2303;0;-0.192886;3.929186;-199.2384;-201.6156;0.1728368;0.39413;0;
-67.83125;0;-68.78556;0;-3.407873;-2.23707;-68.60379;-72.16547;0.4325325;0.3287667;0;
518.2548;0;472.1992;0;-2.667514;-1.431027;508.9249;505.0544;0.3021632;0.458371;0;
670.6572;0;627.5839;0;-12.04196;-6.386204;661.524;655.3461;-0.4777485;0.3929431;0;
272.1208;0;268.6334;0;-15.57983;-8.925138;266.9323;263.0095;-0.1524318;0.002744194;0;
180.1435;0;179.783;0;-8.129436;-0.4765652;172.5864;173.4152;0.3674601;-0.1271932;0;
72.76638;0;78.09084;0;-8.858202;0.12676;67.4033;68.54354;-0.02271316;-0.1920328;0;
-482.3402;0;-447.411;0;-7.442781;3.140865;-478.64;-477.5634;0.04227701;-0.2568072;0;
-652.8322;0;-627.3083;0;-7.10051;6.41975;-648.6359;-645.3739;0.1072019;-0.3864838;0;
-288.7339;0;-287.2236;0;-8.633617;-3.566913;-288.4149;-286.9678;-0.2827099;-0.1911934;0;
-197.3645;0;-186.548;0;-8.022706;-6.175541;-194.672;-197.9115;-0.3473932;0.06886803;0;
-58.79826;0;-58.05002;0;-13.84179;3.275013;-58.48227;-63.09285;-0.2171094;-0.06113585;0;
525.5921;0;482.799;0;-14.56482;2.936808;516.6;511.7441;-0.08695659;-0.06107442;0;
664.1191;0;625.7418;0;-17.69802;3.46972;655.9481;649.1606;0.1080328;-0.1259804;0;
271.7737;0;272.6027;0;-20.22583;5.00672;268.4834;263.0146;0.04295691;0.06904822;0;
184.4818;0;185.1851;0;-12.10021;-8.1266;178.1339;176.9809;-0.02205359;0.3288482;0;
65.85598;0;72.80542;0;-12.02167;-11.93634;61.26357;61.611;0.04293591;0.06864841;0;
-478.8114;0;-436.949;0;-6.650959;-9.044202;-475.7156;-475.2436;-0.02207457;0.1335468;0;
-641.6232;0;-608.1737;0;-3.228025;-11.64733;-638.9053;-636.1224;-0.08701973;0.1983799;0;
-290.2173;0;-289.7849;0;-13.60726;-6.076162;-290.3757;-288.2828;-0.3468017;-0.06168877;0;
-196.6601;0;-192.6049;0;-14.19582;-3.993708;-193.8823;-196.4766;-0.3464532;-0.1265941;0;
-60.21851;0;-63.28874;0;-15.78915;-10.75485;-59.38001;-63.34603;-0.02126837;0.1983698;0;
521.4871;0;475.8789;0;-17.5146;-10.34214;512.7047;509.2423;-0.08621434;0.2631378;0;
668.8888;0;625.6377;0;-14.28182;-8.925112;660.365;654.1575;0.1087743;-0.3868;0;
264.1698;0;260.3174;0;-14.87068;-9.184075;260.2772;254.3259;0.3035671;-0.5813134;0;
176.8856;0;173.9741;0;-11.64056;-1.070034;168.6241;167.5513;-0.08654203;-0.2558926;0;
79.19437;0;78.5971;0;-11.96365;1.275322;72.81525;73.43021;0.04347961;-0.06073343;0;
-473.4825;0;-438.2221;0;-5.186476;-0.9362745;-469.4229;-468.7461;0.43324;-0.2555744;0;
-646.9193;0;-609.5704;0;-0.9617059;-0.5335581;-641.9268;-638.7519;0.1729353;-0.3852523;0;
-287.637;0;-280.8104;0;-16.23236;-0.3990561;-287.1472;-284.6003;-0.08710785;0.06990619;0;
-198.6426;0;-192.7599;0;-17.48885;-0.0637405;-196.2168;-198.5449;0.1078817;0.3297053;0;
-71.63173;0;-74.06323;0;-18.14086;-4.216496;-71.33231;-75.09486;0.1077733;0.2644067;0;
510.0854;0;462.8663;0;-21.00302;-4.279243;501.2016;497.8801;-0.08723702;0.1991737;0;
665.8693;0;617.7606;0;-6.379881;-8.226813;656.9319;651.1776;0.17272;-0.06089583;0;
278.5821;0;269.9395;0;-2.488704;-9.692172;273.7766;269.5897;0.1075791;-0.06083465;0;
190.6587;0;183.4615;0;-4.629657;0.02984812;182.4848;183.362;-0.282333;0.06916116;0;
75.46242;0;75.08158;0;-1.878339;2.910084;68.67107;70.29703;-0.08714732;0.1990264;0;
-476.5235;0;-436.4243;0;-0.2024886;4.983509;-474.8748;-472.9381;0.3027443;0.4586957;0;
-650.0197;0;-616.3326;0;1.87382;7.858768;-647.4981;-643.1896;0.4973421;0.003463447;0;
-303.1031;0;-306.8686;0;-0.4716117;12.13766;-303.645;-301.3398;0.1720057;-0.6462134;0;
-210.0952;0;-211.9203;0;-1.007001;14.73767;-207.5131;-210.1452;-0.1530039;-0.1258254;0;
-68.82997;0;-75.65074;0;0.534252;12.98143;-69.12401;-72.62804;0.04205191;0.1991377;0;
515.3831;0;468.7766;0;-0.6717336;13.10235;505.2818;501.9062;-0.08792502;-0.06093172;0;
665.3521;0;620.9789;0;3.615849;10.2759;655.8231;650.0146;-0.2177714;0.3289336;0;
269.3198;0;265.4083;0;5.889391;7.988281;264.4231;260.3071;-0.1525852;0.5884724;0;
179.0319;0;178.2478;0;-6.374037;7.779305;171.0167;172.9018;-0.2823666;0.1980771;0;
76.7783;0;82.24189;0;-9.381742;6.096916;70.02052;73.90277;-0.08718082;-0.06199134;0;
-472.148;0;-427.5221;0;-2.67451;1.134174;-469.4037;-465.8377;0.2377435;0.003038292;0;
-651.0209;0;-615.6852;0;-4.345786;-1.144263;-646.4678;-641.2188;0.1075699;0.003035239;0;
-295.2328;0;-295.2273;0;2.62383;-2.549755;-293.8077;-290.6254;-0.3473096;0.1329669;0;
-201.0458;0;-191.795;0;5.166789;-4.690647;-196.8111;-198.442;-0.2819932;0.45767;0;
-71.78366;0;-68.35174;0;-6.627399;0.2036987;-69.67713;-72.3684;0.04312681;0.3922428;0;
512.8071;0;471.0084;0;-9.165359;1.208238;505.104;501.9157;0.1730182;0.1319793;0;
669.6503;0;629.1429;0;-6.209389;-2.142001;662.0798;656.3335;0.6276156;0.06687932;0;
275.925;0;276.6876;0;-7.408598;-2.139848;272.8599;269.4931;0.6919524;0.06681211;0;
186.7549;0;189.5782;0;-10.75006;-2.539596;181.3191;182.7033;0.2364857;-0.128157;0;
79.80843;0;87.93868;0;-12.34685;-3.206873;77.56393;79.1342;0.4311501;-0.3229303;0;
-469.808;0;-421.2688;0;-12.80393;-0.1895411;-463.1797;-460.9864;0.1708476;-0.06273644;0;
-646.4969;0;-604.5032;0;-14.13023;1.284274;-640.0627;-635.0604;-0.2191282;-0.06267341;0;
-298.9592;0;-291.9276;0;-10.49871;-4.477427;-296.9042;-292.9689;0.2358634;-0.1275778;0;
-209.2038;0;-196.4321;0;-8.613132;-5.075774;-205.0269;-205.8432;0.3005938;0.2623545;0;
-72.18731;0;-70.17307;0;-12.75766;-3.329118;-69.45145;-72.57827;-0.02454498;0.002221483;0;
515.2775;0;470.6881;0;-11.0699;-4.464482;508.7652;505.0793;-0.2843897;-0.1926828;0;
668.1826;0;627.5735;0;-11.86306;2.707055;660.7399;654.8088;-0.3490713;0.0673802;0;
275.5208;0;274.1203;0;-11.11421;4.579735;272.8331;268.1574;0.04108353;-0.2575242;0;
182.2281;0;182.0785;0;-3.802025;2.766716;177.0445;177.6208;0.1060096;-0.1273308;0;
72.16278;0;76.69843;0;-2.458058;5.443131;68.54603;70.68349;0.2358377;0.2626012;0;
-474.1352;0;-440.2438;0;9.132338;-3.135909;-468.4405;-466.3676;0.3655355;-0.2574014;0;
-658.8782;0;-632.0798;0;14.21338;-4.338451;-651.9398;-648.1199;0.4301355;-0.3870774;0;
-306.7053;0;-306.8578;0;6.898077;1.560284;-304.3341;-301.3302;0.559638;0.06808291;0;
-201.9496;0;-196.1675;0;8.365014;1.223802;-197.8317;-199.391;0.1692716;0.2629165;0;
-75.93494;0;-75.53094;0;1.256662;9.796144;-73.57029;-77.31439;0.1041342;0.1327177;0;
504.0374;0;461.2127;0;-1.423918;11.99674;496.9044;493.3515;0.3638989;-0.2572197;0;
665.6369;0;623.2301;0;1.591623;13.79322;658.0739;652.8378;0.03869657;-0.06205926;0;
265.4814;0;263.222;0;-0.2859868;17.12839;262.9859;258.7546;-0.091277;0.00297044;0;
173.4483;0;172.5655;0;5.74252;5.925271;167.8943;168.7273;-0.1561526;-0.1269672;0;
81.32021;0;85.06097;0;7.612761;4.1109;76.70885;78.35307;-0.3508978;-0.191807;0;
-462.863;0;-426.4549;0;3.652996;5.580272;-458.6617;-457.5189;0.03925889;-0.4514836;0;
-643.7443;0;-612.5577;0;3.917745;3.900213;-639.1723;-635.5944;0.4290235;-0.256128;0;
-291.9614;0;-288.7921;0;3.84646;7.446268;-291.6419;-289.5669;0.168723;0.003998772;0;
-198.34;0;-193.2373;0;2.101283;7.639735;-195.5221;-197.6969;-0.2212505;-0.1909073;0;
-65.2075;0;-69.35532;0;9.400188;10.1103;-64.01661;-67.00137;-0.09109355;0.004186579;0;
515.816;0;468.0068;0;11.86899;11.37282;507.9478;504.029;0.2338347;0.1341171;0;
663.3483;0;615.837;0;-3.079764;13.7058;655.4255;648.9494;-0.02626963;0.00404761;0;
265.6313;0;260.2716;0;-6.827713;16.70613;262.9014;258.1185;-0.3510799;0.06901088;0;
172.2237;0;170.3052;0;-1.596916;8.919573;167.4351;167.0922;-0.09085781;-0.1259605;0;
65.10445;0;69.49715;0;-3.001831;7.7719;61.88229;62.66423;0.1691028;-0.1258339;0;
-475.1894;0;-432.5079;0;-1.457598;11.64898;-469.9751;-469.069;0.2339003;0.06919455;0;
-648.1248;0;-615.2312;0;-0.2506842;10.16365;-643.1031;-639.4493;-0.3510408;-0.125777;0;
-296.8997;0;-299.0217;0;-5.073204;19.19601;-297.1305;-293.6678;-0.6105574;-0.190618;0;
-201.0245;0;-196.3352;0;-6.006111;22.05687;-198.6313;-200.5443;0.03972944;0.1344103;0;
-74.19864;0;-77.7599;0;1.502012;13.5951;-73.43202;-77.34215;-0.02527782;0.2642099;0;
510.2697;0;463.3588;0;3.777679;13.7154;501.3529;498.5711;-0.2851218;0.1340097;0;
672.0504;0;627.9977;0;2.434712;11.75912;663.6423;658.6769;-0.1549006;0.06890775;0;
267.2657;0;262.7999;0;4.776791;11.61334;263.9261;259.4654;-0.2846797;0.1338059;0;
173.8565;0;170.3322;0;1.690532;10.79787;166.6471;168.0005;0.1054104;0.06870406;0;
80.47865;0;81.83047;0;1.756182;9.447363;74.96317;77.62708;0.5600759;-0.06129966;0;
-470.4503;0;-428.2454;0;8.318501;22.56628;-465.4031;-463.6789;0.2996438;-0.1911727;0;
-655.197;0;-616.2204;0;9.984106;27.16531;-648.4057;-644.4968;-0.025494;0.1338561;0;
-298.78;0;-292.5136;0;9.907701;22.51631;-295.8061;-293.2755;0.1044663;0.2636563;0;
-196.656;0;-186.5853;0;9.428255;24.77098;-191.6861;-194.6552;0.234296;0.06848929;0;
-63.52519;0;-64.45911;0;16.18394;25.61687;-61.43383;-65.1496;0.1041259;0.1333878;0;
512.874;0;467.5258;0;17.97634;25.92605;505.7179;502.8804;-0.2857828;-0.1915829;0;
664.782;0;621.4784;0;7.509423;28.44535;657.6331;652.1747;-0.4154303;0.003511602;0;
272.186;0;268.0313;0;5.023631;28.01487;269.1048;264.9638;-0.02520882;0.3283448;0;
177.3351;0;177.9321;0;2.60671;28.25465;172.008;172.9936;0.1047512;-0.06178919;0;
67.71189;0;76.30432;0;-0.4100195;27.08755;64.82648;66.56071;-0.02528874;-0.0617271;0;
-471.2103;0;-424.5831;0;-2.218269;25.51972;-465.5971;-463.5522;0.1046714;0.3931063;0;
-647.7728;0;-610.6252;0;-4.894381;25.4271;-642.665;-638.4358;-0.2852379;0.1978093;0;
-305.3562;0;-309.6627;0;-2.211122;13.81387;-304.6888;-302.3379;-0.4148859;0.2625779;0;
-200.352;0;-199.1569;0;-2.878485;9.71403;-196.5618;-199.2733;-0.02466502;0.4572161;0;
-66.46792;0;-66.77325;0;0.9428;14.25899;-64.68053;-68.51369;-0.2845096;0.13192;0;
506.7483;0;461.7782;0;4.223406;11.90038;499.0386;495.5217;-0.5440931;0.1317874;0;
671.7809;0;626.4812;0;-4.755818;17.98375;663.8291;657.9419;-0.283677;0.1966223;0;
270.0575;0;264.8456;0;-4.348898;19.10426;266.1117;261.7296;-0.3483593;0.001522712;0;
162.6525;0;159.9446;0;-2.938009;16.94174;155.8996;156.4569;-0.283042;0.1964232;0;
70.41031;0;73.26491;0;-4.141481;18.66627;65.78812;67.84415;-0.2177902;0.5210626;0;
-469.3267;0;-432.8044;0;9.191917;10.27477;-465.511;-462.5824;-0.2175714;0.3906043;0;
-658.3223;0;-631.3945;0;12.13042;8.991768;-654.1357;-649.2111;-0.08741806;-0.1944943;0;
-302.7143;0;-308.0472;0;11.31395;8.112077;-302.5298;-299.1719;-0.1522976;-0.4541682;0;
-196.9007;0;-196.0438;0;13.44603;5.156677;-194.9048;-195.7356;-0.0871772;-0.1288751;0;
-72.5777;0;-78.5933;0;6.131504;16.00249;-73.51983;-75.47428;-0.02212226;-0.2586803;0;
505.5797;0;455.2798;0;4.384031;17.52702;494.8934;491.8164;-0.08706737;-0.2584204;0;
665.9283;0;616.4911;0;0.4275106;13.49055;655.8149;649.6177;-0.08697989;0.1966107;0;
270.5826;0;262.1745;0;-2.854473;12.80717;265.1021;261.0974;-0.2817945;0.3263478;0;
176.233;0;169.3326;0;-2.785232;11.38765;167.5721;169.0062;-0.216544;0.2610525;0;
72.04565;0;70.89931;0;-5.260679;9.969571;64.76778;67.51234;0.238445;-0.1939812;0;
-467.693;0;-434.293;0;-1.972864;3.66328;-466.5303;-463.6635;0.1082707;-0.5186229;0;
-649.1941;0;-629.1335;0;-1.301296;1.784199;-646.8456;-643.2322;-0.2816422;-0.1282978;0;
-308.9624;0;-318.907;0;-5.051033;-5.987492;-311.1141;-309.7531;-0.0214898;0.1966678;0;
-207.7027;0;-207.3299;0;-5.581821;-9.665415;-208.8527;-211.6785;0.2384012;0.1315029;0;
-72.24952;0;-81.49726;0;-2.159961;-4.029259;-75.27242;-79.0324;0.1082269;0.1963381;0;
507.0319;0;454.3153;0;-1.219785;-4.561074;494.8292;490.8231;0.04315084;0.5209775;0;
671.3146;0;620.5251;0;-3.362014;2.007715;657.9997;651.9362;0.04310748;0.4554867;0;
272.5902;0;261.3943;0;-3.023843;4.550927;262.9743;258.8534;0.04306417;0.06522495;0;
172.6789;0;165.0549;0;-2.217497;5.685063;159.5744;161.1423;-0.2818158;0.3250288;0;
86.11127;0;84.2421;0;-0.9424713;8.358668;74.64415;77.45984;-0.541402;0.5845715;0;
-455.0158;0;-414.6543;0;-4.55787;5.068106;-457.2885;-455.2878;-0.2160213;-0.06568924;0;
-651.7095;0;-611.576;0;-5.95981;6.737587;-653.6051;-649.7323;-0.02090221;-0.4554273;0;
-299.7312;0;-297.6814;0;2.485296;-1.373996;-306.1852;-303.2533;-0.08584855;-0.325035;0;
-195.7947;0;-194.8714;0;3.018662;-4.520691;-199.7434;-201.562;0.04417239;-0.1298064;0;
-77.59474;0;-82.79428;0;4.154705;6.468808;-82.72638;-85.85506;0.1090953;-0.0647086;0;
498.881;0;451.0206;0;4.619044;7.400069;485.6336;482.5081;-0.02094896;0.000323764;0;
667.8571;0;622.1687;0;0.729637;10.40674;656.1846;650.9384;-0.2158299;0.0003234387;0;
273.0716;0;267.409;0;0.9299746;13.67845;266.9082;262.4792;-0.3455477;0.1302578;0;
177.6575;0;170.1266;0;-12.19913;6.229723;166.0655;165.639;0.04460351;0.1301269;0;
84.27584;0;77.62707;0;-16.80857;5.352685;69.82195;70.20795;0.3693954;0.06502882;0;
-455.1627;0;-424.0738;0;-12.37105;9.701076;-463.4802;-463.7192;0.1741222;0.06496347;0;
-643.9852;0;-615.926;0;-14.90421;8.954515;-652.2319;-650.7841;0.1089799;-6.913898E-05;0;
-299.1362;0;-306.3999;0;-6.851287;10.82104;-311.6848;-311.3004;0.1738377;-0.2599384;0;
-195.9498;0;-200.7075;0;-4.90202;10.94413;-204.9876;-209.4137;-0.08620629;-0.4545793;0;
-70.12857;0;-79.6291;0;-5.098166;4.435914;-78.90742;-84.64089;0.238717;-0.3241878;0;
504.5905;0;451.6214;0;-1.810513;1.350363;485.6381;480.7225;0.4983465;0.1309093;0;
671.0621;0;615.7724;0;-11.38786;3.157546;649.0053;641.5959;0.1730091;0.2607125;0;
273.3374;0;257.6458;0;-13.58625;1.814714;255.4257;247.7738;0.1728352;0.0005811232;0;
169.8021;0;158.3118;0;-4.061751;-4.684331;149.0349;146.0759;0.1076942;0.1305152;0;
78.73972;0;71.25888;0;-2.249009;-7.023905;58.49306;57.97329;-0.02234866;0.1953514;0;
-458.8192;0;-431.4351;0;-7.538035;-8.758404;-469.238;-470.0696;-0.0223262;0.06522045;0;
-648.7;0;-629.4019;0;-7.664183;-10.82607;-657.1718;-656.0035;0.04266357;0.1301223;0;
-293.6014;0;-308.9926;0;-6.183589;-7.2651;-306.6873;-305.5202;0.107588;0.1949589;0;
-191.67;0;-200.549;0;-7.249103;-6.588093;-202.8687;-205.8257;-0.02245474;-0.0001390699;0;
-72.53716;0;-87.7791;0;0.4613405;-6.179576;-85.97348;-90.05197;-0.02243218;-0.389943;0;
507.994;0;448.9144;0;3.140194;-4.297845;485.0135;482.5008;-0.2173117;-0.3245838;0;
675.649;0;618.9401;0;-7.31181;-7.039704;653.3787;649.6816;0.1077434;0.1305137;0;
274.9836;0;257.687;0;-9.78271;-6.898665;257.8582;254.6021;0.4324718;0.4552193;0;
173.4458;0;157.8531;0;-5.754393;-0.9304962;152.402;153.1472;-0.02273409;0.3248272;0;
81.31769;0;67.80217;0;-6.752988;1.079927;60.41999;62.41381;-0.08767859;0.06463144;0;
-454.8695;0;-441.5724;0;-9.291799;-0.1268512;-467.0006;-465.2587;0.1073115;0.1295339;0;
-642.8178;0;-635.8434;0;-10.22047;0.8110373;-653.0626;-649.5733;0.1072037;0.1294037;0;
-300.4686;0;-316.4272;0;-11.68309;0.7432395;-312.9521;-310.903;0.107096;-0.0006610291;0;
-199.0925;0;-207.5388;0;-11.60498;-0.1282855;-208.0652;-210.2661;0.4318251;0.06430697;0;
-67.89583;0;-82.0183;0;-14.54008;4.493544;-77.54661;-80.43244;0.3664238;0.06424236;0;
509.6946;0;453.7324;0;-15.39612;5.560756;491.3079;488.9872;-0.4135524;-0.0007895319;0;
676.7857;0;619.0056;0;-10.69258;0.06268962;657.3555;653.7253;-0.6080389;-0.0007887385;0;
277.8059;0;258.1897;0;-10.74821;-0.339271;263.1429;260.2659;-0.2176239;-0.19569;0;
168.644;0;153.2329;0;-5.446124;-3.420023;152.309;153.308;-0.08747056;-0.325428;0;
79.39429;0;70.93273;0;-3.966784;-4.756245;64.26265;67.75938;0.04255201;-0.130199;0;
-452.4182;0;-419.8294;0;-6.575742;-4.14862;-458.5392;-454.0464;0.4323133;-0.1950355;0;
-650.114;0;-614.8093;0;-5.697503;-6.287905;-653.2928;-647.2429;0.4318789;-0.1948396;0;
-306.3207;0;-304.4723;0;-17.07863;5.306216;-312.4948;-308.0127;0.2365429;0.130193;0;
-198.6919;0;-200.406;0;-21.68317;9.185773;-203.2981;-203.6305;0.3662399;0.2599968;0;
-74.80444;0;-86.32434;0;-16.30373;1.272801;-82.15459;-84.04844;0.04103523;0.3896703;0;
503.2927;0;446.7445;0;-18.09503;3.548942;486.3297;484.5627;-0.34881;0.3243114;0;
678.4487;0;621.645;0;-18.88113;-4.090557;661.2529;657.9884;-0.02362286;0.1940508;0;
279.717;0;264.5745;0;-18.86216;-6.899608;267.9109;265.7741;-0.02359912;0.1288885;0;
168.6792;0;158.6118;0;-21.18773;7.307341;155.6355;158.0611;-0.2184774;-0.3909798;0;
78.24255;0;76.05633;0;-20.63058;9.309364;68.02305;71.75803;0.1065788;-0.5205216;0;
-458.7537;0;-421.8324;0;-20.94464;10.97458;-459.1554;-455.1118;0.04150437;-0.1301945;0;
-651.6331;0;-621.8078;0;-20.38773;13.70986;-651.0348;-644.1842;-0.283374;-0.2599984;0;
-300.4045;0;-303.78;0;-16.21406;10.68185;-303.4925;-298.3979;-0.1531546;-0.1298025;0;
-203.5262;0;-199.5895;0;-14.92497;11.60888;-203.5501;-203.0209;0.1068686;0.260132;0;
-82.75729;0;-85.88351;0;-10.42297;8.649963;-84.28046;-84.3764;0.2366959;0.5847074;0;
497.9715;0;450.6207;0;-8.536488;8.10553;489.3909;488.6704;-0.1533459;0.2592831;0;
664.887;0;620.0825;0;-8.193118;7.293591;658.314;655.5952;-0.08822452;0.06412057;0;
271.104;0;266.8242;0;-6.376224;6.013586;269.3477;268.3808;0.4965702;0.3239255;0;
168.9453;0;168.4803;0;-10.92515;11.50002;165.1293;169.1608;0.3011692;-0.001236682;0;
72.69884;0;79.60564;0;-10.51203;12.1583;71.19803;77.16201;-0.2838395;-0.3260722;0;
-461.9805;0;-425.0957;0;-14.31888;13.75355;-454.3594;-448.7762;-0.1536196;-0.0009078008;0;
-653.7322;0;-624.5056;0;-15.84571;14.81145;-643.4326;-636.6681;-0.02353054;0.1939951;0;
-311.5594;0;-303.2892;0;-7.791836;12.45229;-303.3317;-297.0737;-0.3483436;0.06386553;0;
-208.4231;0;-193.1022;0;-6.310138;12.03788;-196.6429;-193.9519;0.04181046;-0.3260027;0;
-86.83717;0;-80.27732;0;-3.088617;9.279486;-75.38112;-74.44202;0.4315725;-0.1307731;0;
490.7723;0;455.7215;0;-1.746343;7.662694;493.4088;493.5973;-0.08859988;0.194195;0;
671.1882;0;635.4855;0;3.747768;5.645506;673.6346;671.2618;-0.4133476;-0.1308368;0;
270.7148;0;276.2772;0;7.227603;3.898277;278.0313;277.9721;-0.08809552;-0.0007706804;0;
156.5;0;164.1808;0;-4.903448;3.090687;160.9356;167.0609;0.1718624;0.4540015;0;
77.44494;0;87.99151;0;-7.510489;1.747923;83.31286;90.80632;0.04175499;0.1287086;0;
-456.6769;0;-405.4114;0;-6.297494;2.415996;-440.7575;-433.459;-0.2181563;0.1285793;0;
-665.3629;0;-619.7087;0;-9.104205;1.475807;-646.5234;-637.6081;-0.1529698;0.3883195;0;
-313.4334;0;-302.745;0;-7.889609;4.220502;-297.7363;-290.0793;0.1720206;0.06309254;0;
-200.3627;0;-182.5635;0;-9.421923;5.421955;-182.8697;-179.5307;0.3017825;-0.1968402;0;
-83.0952;0;-72.74771;0;-6.599416;-0.4778694;-68.18104;-66.21968;0.1715446;-0.001740408;0;
491.8243;0;457.6213;0;-4.048166;-1.147219;498.3527;500.4995;0.4312415;0.128196;0;
668.2412;0;634.3224;0;-18.10929;-1.213049;675.4502;675.7833;0.3008735;0.06309987;0;
275.267;0;280.8;0;-22.11056;-1.814554;286.2793;288.1113;-0.08923282;-0.06689821;0;
167.4195;0;177.8819;0;-7.888451;-0.2052627;175.5472;182.6246;0.1057589;-0.3916677;0;
75.35992;0;90.93429;0;-6.94252;-0.004107612;84.85377;92.92363;-0.08924942;-0.3263068;0;
-456.3236;0;-401.9094;0;-6.399681;2.474265;-438.3435;-431.5936;0.1057423;-0.00114223;0;
-650.0175;0;-600.0933;0;-4.182447;3.409418;-629.9316;-622.2514;0.6253747;0.1287936;0;
-310.1599;0;-299.8284;0;-9.470507;3.941856;-293.8422;-286.732;0.1050076;0.06369685;0;
-210.6481;0;-197.0786;0;-8.188192;4.607724;-192.2854;-188.743;-0.2199346;-0.001334498;0;
-86.56116;0;-74.37966;0;-16.82015;3.397401;-69.02903;-66.98946;-0.3496483;0.3884709;0;
488.9866;0;458.2399;0;-20.42057;3.059195;497.3806;499.6056;-0.3492969;0.5180153;0;
661.2834;0;628.8185;0;-8.812131;1.180599;669.4192;669.8303;0.1707928;0.192658;0;
264.0058;0;272.1781;0;-9.071696;-0.4281776;277.943;279.2907;-0.02428087;-0.06740493;0;
153.7333;0;168.5191;0;-4.842046;-0.8296449;165.6575;172.3761;-0.3490932;-0.2622392;0;
72.55704;0;94.38692;0;-3.699081;-2.369297;86.09344;94.86681;0.2359637;-0.1970084;0;
-461.2476;0;-404.3323;0;-5.771469;-2.433899;-437.355;-429.5899;0.3006939;-0.1318431;0;
-665.3688;0;-616.6316;0;-3.689565;-2.699385;-640.001;-630.4321;-0.02444493;0.06319142;0;
-305.5682;0;-291.2378;0;-21.1673;-5.777888;-285.0984;-276.8511;0.04054697;0.3229973;0;
-196.5658;0;-176.8775;0;-25.70136;-5.906048;-173.1806;-170.6261;-0.02446111;-0.002163967;0;
-97.98028;0;-82.55955;0;-21.52235;-9.450087;-74.93088;-73.56589;-0.3492732;-0.06712914;0;
477.5164;0;449.8184;0;-24.78326;-11.85198;491.7346;493.2232;-0.478857;0.5826117;0;
665.5669;0;638.5837;0;-12.96936;-1.123043;680.0831;678.8215;-0.2185065;0.711961;0;
269.9716;0;283.8076;0;-9.942217;0.9545565;289.5957;289.9596;-0.2832542;0.2564743;0;
160.0055;0;177.8256;0;-12.34312;0.08281922;177.361;181.7225;-0.4778717;0.0613145;0;
69.82746;0;92.06491;0;-10.25462;3.699692;88.78968;94.83347;-0.1525548;0.2561549;0;
-461.2883;0;-410.2127;0;-9.306308;-8.159638;-432.9124;-425.8127;-0.0224668;0.2558976;0;
-659.9122;0;-614.7599;0;-6.61764;-10.49584;-630.128;-621.3488;-0.1523789;0.1906731;0;
-319.1076;0;-297.9262;0;-15.72067;-1.57681;-293.7886;-287.0172;0.1726109;0.3204162;0;
-213.6523;0;-186.0579;0;-18.25047;-2.244933;-186.1723;-184.2803;0.1074701;0.3850616;0;
-94.55986;0;-72.99021;0;-8.855007;6.129946;-69.35639;-67.77861;0.1073621;0.25474;0;
484.5566;0;462.2516;0;-8.109176;9.405828;500.0521;502.1281;0.3671236;-0.2002874;0;
670.0388;0;646.257;0;-7.431442;2.832294;685.7686;685.0313;-0.02304931;-0.005184133;0;
276.8128;0;295.0963;0;-6.352248;3.83407;297.5243;297.8498;0.0419412;0.5795271;0;
162.0922;0;183.1684;0;-5.40786;-3.068781;179.9718;185.3569;0.3667358;0.3190755;0;
79.7831;0;105.1484;0;-3.928558;-6.414844;98.20695;105.3358;0.1064979;0.1238529;0;
-457.4021;0;-398.6415;0;-7.876726;0.7586535;-430.6259;-423.8167;0.04142354;0.2536631;0;
-673.1463;0;-626.6262;0;-7.935184;-0.112887;-645.0228;-637.2208;0.1063493;0.2534082;0;
-311.214;0;-294.788;0;-9.200008;1.226885;-287.2417;-279.9473;0.1062424;0.1881862;0;
-196.0215;0;-167.868;0;-10.59728;2.833243;-169.0748;-166.0356;-0.02379903;-0.07187223;0;
-97.93629;0;-74.93343;0;-5.29535;-5.609332;-72.45339;-70.66663;-0.2836445;0.05813467;0;
479.8093;0;457.1245;0;-4.955236;-7.010215;495.7713;497.5563;-0.1534248;-0.006891086;0;
670.7934;0;646.6946;0;-1.266562;-5.194754;686.6145;685.8989;0.1715661;-0.1368188;0;
272.2569;0;288.8494;0;1.81617;-6.596176;292.5598;293.4691;0.3013284;0.31809;0;
158.7277;0;179.364;0;-7.897571;0.7114698;175.6994;181.3555;0.04115622;0.2528031;0;
71.17467;0;95.72573;0;-9.229782;3.590899;89.31622;95.9036;-0.3486892;0.1875817;0;
-468.5631;0;-411.1157;0;-4.9336;-2.976793;-439.6952;-433.4267;-0.08846945;0.1224259;0;
-670.6155;0;-615.2249;0;-5.732926;-2.370955;-640.0899;-631.454;0.6262602;-0.1375665;0;
-316.8691;0;-287.3336;0;0.7705451;-0.7611043;-291.809;-283.4941;0.6905982;0.1874084;0;
-209.4171;0;-178.412;0;3.783881;-0.6933566;-181.4461;-177.8247;0.3001003;0.05728544;0;
-95.95107;0;-73.22307;0;-4.124151;5.804563;-68.32054;-66.4519;0.1698641;-0.3975435;0;
478.4817;0;458.8331;0;-5.191734;8.611891;497.3388;499.5804;-0.4150127;-0.07230735;0;
661.9084;0;640.6555;0;-1.836639;6.124991;680.3094;680.2374;-0.3496283;-0.007267353;0;
275.6247;0;294.8727;0;-3.978247;7.391513;298.4424;299.1825;0.04052704;-0.3320968;0;
163.5914;0;187.3803;0;2.656206;9.12552;184.762;190.1241;-0.1544157;-0.3967304;0;
71.84806;0;101.9848;0;3.658891;9.987128;95.62106;102.3521;-0.2192279;-0.2663971;0;
-464.1422;0;-393.4312;0;-7.731639;11.5177;-430.648;-423.7989;-0.02410559;-0.2661294;0;
-675.0071;0;-606.9283;0;-10.33681;12.10897;-640.3597;-631.3934;0.1708207;-0.2008947;0;
-319.4448;0;-289.1654;0;-15.61771;13.3025;-289.4548;-281.9344;0.04071433;0.1891113;0;
-203.2446;0;-173.6203;0;-19.15199;13.89186;-171.2233;-168.333;-0.08926126;-0.1359155;0;
-106.6513;0;-81.8044;0;-20.20448;11.73457;-75.34931;-74.33606;-0.3490409;-0.525583;0;
469.8536;0;450.6977;0;-22.92987;10.71803;491.8163;493.016;-0.1537882;-0.1352508;0;
671.7798;0;648.895;0;-15.13729;10.77425;692.9708;692.6075;0.4310724;0.1247545;0;
273.0549;0;291.9221;0;-12.04063;9.155829;299.5344;299.9211;-0.08909947;0.2545638;0;
162.8982;0;186.2442;0;-17.18609;10.55327;185.6031;191.2367;-0.478814;0.05940598;0;
92.26998;0;119.528;0;-15.49486;10.54267;115.6391;123.1412;-0.02356148;-0.005621051;0;
-459.2955;0;-392.085;0;-12.46518;3.498988;-425.2677;-418.3354;0.3012989;0.254254;0;
-690.3427;0;-631.8203;0;-12.11786;1.620072;-653.9128;-645.1758;0.1710615;0.3189659;0;
-336.0767;0;-316.781;0;-1.991629;1.350513;-303.494;-296.0152;-0.2838818;0.1887107;0;
-217.486;0;-189.2142;0;1.091831;-0.1244688;-183.3118;-180.3383;-0.1536619;-0.2662504;0;
-110.9459;0;-84.13926;0;-5.138556;3.224803;-78.99247;-76.89648;0.04139455;-0.3959175;0;
460.8158;0;444.2422;0;-5.73563;4.092219;483.7416;486.2103;-0.3484511;-0.3305523;0;
655.1298;0;636.1992;0;-8.275462;3.351295;677.0956;677.2504;0.04170308;-0.4601549;0;
268.5405;0;289.2964;0;-10.14316;4.218705;295.6067;295.8238;0.3015305;-0.3297578;0;
151.0171;0;178.1865;0;-12.67758;6.089988;177.3064;182.8332;-0.2185112;-0.3294265;0;
64.47132;0;97.6728;0;-13.13434;7.222579;91.67123;99.56628;-0.08835692;-0.3290955;0;
-465.0148;0;-396.8643;0;-21.89505;7.081356;-429.4715;-422.5839;0.3015359;-0.4586995;0;
-676.4411;0;-618.2291;0;-26.15996;7.275189;-639.6216;-630.5545;0.2362656;-0.1983692;0;
-330.1226;0;-304.6402;0;-10.86205;9.277246;-297.7129;-288.9673;-0.02384119;0.6464055;0;
-216.2855;0;-181.3334;0;-9.444616;10.1387;-180.7224;-177.6702;-0.2187193;0.255952;0;
-112.87;0;-82.26341;0;-6.889531;7.650268;-78.34222;-77.04219;-0.1535321;-0.3939786;0;
462.8915;0;450.4265;0;-3.802126;7.709563;487.8269;489.9378;-0.2833126;-0.2636481;0;
664.9496;0;650.3107;0;-13.2418;5.089482;690.3597;689.5324;-0.08812585;-0.1984158;0;
272.2285;0;297.3344;0;-14.36757;3.075002;302.9854;302.8461;-0.08803731;-0.1332491;0;
154.3891;0;184.967;0;-16.29552;10.70772;183.366;188.6615;-0.5427203;-0.1980826;0;
74.27416;0;108.0697;0;-17.28352;12.10361;105.0335;112.0729;-0.02243618;-0.1329162;0;
-461.5312;0;-385.6658;0;-20.88348;6.598965;-422.432;-415.2747;0.3024231;0.2570214;0;
-678.3333;0;-597.6091;0;-21.93422;5.587591;-637.2119;-628.2502;-0.2176195;0.2567632;0;
-330.3887;0;-286.2273;0;-16.68824;7.524481;-292.3696;-284.4789;-0.4123029;-0.1332989;0;
-216.3639;0;-175.8075;0;-15.79984;7.650887;-176.8212;-173.0614;-0.476856;-0.5229689;0;
-109.1377;0;-75.43125;0;-6.139402;2.686584;-71.1341;-69.18967;-0.6712788;-0.2625741;0;
461.8725;0;451.4423;0;-2.247491;1.277243;491.0923;492.7849;-0.3457676;-0.1323756;0;
656.0605;0;644.204;0;-0.4375473;3.821189;684.6888;684.0684;-0.02058348;-0.3271446;0;
271.3444;0;301.1039;0;2.644351;4.554162;305.1288;305.5709;0.04440454;-0.001979212;0;
154.068;0;189.2324;0;-3.051733;2.339271;186.2568;191.696;0.1093273;0.3228595;0;
63.45868;0;102.8356;0;-4.387837;2.202954;97.36419;104.2347;0.3041194;-0.002301634;0;
-471.5237;0;-391.9566;0;-5.255061;9.166721;-428.9066;-422.168;0.5636832;-0.3921034;0;
-685.1298;0;-607.2043;0;-7.526956;11.90381;-641.4936;-632.6378;0.4331822;0.1280294;0;
-336.9286;0;-297.3122;0;-10.73457;10.21728;-297.1468;-289.2369;0.2378449;0.5177048;0;
-214.5264;0;-171.7015;0;-13.33576;11.21175;-172.2234;-169.1315;0.04270385;-0.3273909;0;
-103.4915;0;-63.45825;0;-15.8006;15.01839;-61.98065;-60.51606;-0.2821758;-0.9767353;0;
461.4536;0;456.7816;0;-18.79884;16.87883;494.1146;495.8901;-0.4118269;-0.3260805;0;
658.3906;0;650.7873;0;-11.47893;13.78065;690.2068;689.2319;-0.2814784;0.4538553;0;
269.9865;0;302.4332;0;-8.319563;13.96775;306.7682;307.0436;0.04364111;-0.06633951;0;
145.3402;0;182.0022;0;-13.80356;11.47547;180.4608;186.2332;0.04359725;-0.7159463;0;
71.29384;0;109.2933;0;-8.833198;8.717641;108.1907;115.2066;0.04355345;-0.1954882;0;
-456.9498;0;-378.9462;0;-13.24495;15.13912;-411.4069;-404.2731;0.4982811;0.129545;0;
-682.3146;0;-599.9542;0;-9.88274;13.78425;-635.818;-626.2551;0.237911;0.06444748;0;
-329.3062;0;-283.9474;0;0.7771106;13.3685;-286.2295;-277.8006;-0.1521321;-0.06555196;0;
-208.7232;0;-166.0961;0;0.8436787;13.55602;-162.5664;-159.3934;0.1078902;-0.5202575;0;
-113.9985;0;-75.41225;0;44.64894;0.481091;-69.01253;-67.46684;0.04281441;-0.5847021;0;
455.3299;0;450.5867;0;61.01379;-2.734451;490.5256;492.9443;0.1727061;0.000591515;0;
658.7699;0;651.033;0;31.21353;-8.425131;692.8682;692.5984;0.3024672;0.3254277;0;
269.3659;0;302.0539;0;32.25389;-13.57423;308.6149;308.3452;0.1072613;0.0002639294;0;
148.7807;0;186.3084;0;24.98684;-3.781325;186.491;191.5939;0.4319902;0.1951657;0;
64.98576;0;108.7851;0;18.13021;-3.64356;104.7196;111.754;0.3665888;0.3249043;0;
-465.1881;0;-384.4514;0;25.88152;-2.434206;-416.811;-409.7213;-0.1535183;-0.06522625;0;
-676.1769;0;-604.8916;0;24.78379;-0.3554114;-626.3492;-617.33;-0.02342934;0.1297413;0;
-329.4214;0;-294.502;0;10.69271;-3.838045;-283.5793;-275.2563;0.1065289;0.4544477;0;
-221.6444;0;-177.3898;0;4.988541;-3.231342;-173.7244;-169.7202;0.2363565;0.259089;0;
-122.284;0;-78.38623;0;19.98771;-5.572498;-74.72454;-72.66084;0.236119;-0.001040695;0;
450.9883;0;452.3633;0;20.90465;-6.169745;489.6919;492.3157;0.04097975;-0.3258764;0;
649.8099;0;649.8093;0;24.50097;-5.761648;687.3502;688.5347;-0.1539634;-0.1956142;0;
256.7917;0;297.0208;0;29.56656;-5.956807;299.3542;301.0372;-0.2187761;0.1943864;0;
139.8424;0;183.9666;0;16.74348;-4.410214;180.1757;185.855;-0.02365423;-0.0007109731;0;
66.98839;0;114.3166;0;17.59829;-3.936903;107.9059;115.2037;0.1063042;0.1292244;0;
-461.9381;0;-375.4271;0;12.82421;-1.588666;-412.2536;-404.7758;0.1061974;0.4539313;0;
-686.3609;0;-599.9993;0;8.591763;-0.7832745;-634.1027;-624.6334;-0.02384399;0.1286385;0;
-344.3428;0;-293.4877;0;28.00794;0.4901882;-295.3854;-287.2375;-0.2187221;-0.001425473;0;
-223.1201;0;-172.7533;0;30.0559;0.8915933;-172.2754;-169.3205;-0.348437;-0.06639138;0;
-120.135;0;-76.44057;0;26.6768;1.091646;-71.21547;-69.76281;-0.4130542;-0.326194;0;
450.5739;0;449.0596;0;25.30984;2.02831;489.5118;491.4627;-0.4776065;-0.001029569;0;
662.4519;0;657.4409;0;19.32354;-3.466206;700.6011;700.2387;-0.5420939;-0.001028534;0;
268.8588;0;306.4564;0;13.14218;-3.931604;313.0915;313.2917;0.1081242;-0.3908316;0;
140.7779;0;186.6461;0;9.243237;-7.209817;183.7793;188.602;0.4328522;-0.1955368;0;
70.29678;0;120.0544;0;6.755702;-10.21668;114.6917;120.8214;0.04261326;-0.06540566;0;
-461.694;0;-371.6941;0;-30.42576;1.582335;-408.4106;-402.2246;0.3024398;-0.3901767;0;
-689.9901;0;-597.2071;0;-45.59946;3.121231;-634.5739;-626.0827;0.4970379;-0.3897846;0;
-339.5351;0;-283.3894;0;-28.20592;1.845541;-287.4229;-279.1277;0.1067345;-0.1944909;0;
-215.5061;0;-160.5413;0;-32.79927;3.384172;-161.1974;-157.4083;-0.1532422;-0.2592628;0;
-113.5907;0;-62.55416;0;-26.06754;-3.049346;-60.02372;-59.11196;0.1717485;-0.194035;0;
453.6134;0;462.2449;0;-22.02285;-4.051026;498.8182;498.9794;-0.1532607;-0.06390533;0;
654.8687;0;660.743;0;-26.15391;-5.587563;699.1536;697.6279;-0.9327148;-0.1288085;0;
269.2167;0;313.5657;0;-19.96471;-6.117812;317.58;317.8051;-0.6719083;-0.1936464;0;
148.6942;0;196.9341;0;-30.79564;-10.26448;195.0723;199.7324;-0.02155973;-0.1284845;0;
63.96228;0;117.7759;0;-31.77006;-13.06733;113.0424;117.9477;0.173364;0.06654667;0;
-468.2095;0;-375.9068;0;-10.57201;-0.1268619;-409.8709;-404.3458;0.3031244;0.001512466;0;
-691.2517;0;-605.601;0;-6.274483;2.4856;-632.0347;-623.4542;0.3677872;-0.3233258;0;
-346.73;0;-298.8963;0;0.4969753;2.550085;-292.5074;-285.5598;0.04258094;-0.3879682;0;
-225.1925;0;-172.4719;0;6.257252;6.030513;-169.2753;-167.4571;-0.08739652;-0.1926764;0;
-127.5152;0;-77.84606;0;-1.988058;-2.348169;-72.52877;-71.96172;0.1725607;-0.1275154;0;
444.2631;0;450.779;0;-2.588297;-3.350553;490.1988;490.7653;0.1074199;-0.257322;0;
660.3328;0;663.9062;0;-1.782389;-1.739718;705.0355;703.54;0.3671814;0.06777329;0;
267.7414;0;311.3535;0;-2.918698;-3.814319;316.8968;316.8395;0.4317797;0.1326725;0;
138.9119;0;188.852;0;-10.08306;1.548026;186.7686;191.3341;0.1065092;0.002604538;0;
68.93247;0;122.2581;0;-13.6229;1.211556;118.6776;124.5503;0.1713695;0.197504;0;
-461.0579;0;-368.9304;0;-13.81028;0.5405095;-401.9925;-396.5629;0.3660993;0.06737081;0;
-692.6655;0;-598.9438;0;-17.6148;1.07583;-631.6604;-624.2998;0.3007641;-0.1275989;0;
-350.766;0;-292.0585;0;-7.281974;-9.307362;-294.4449;-287.7164;-0.02437478;-0.2574054;0;
-228.4124;0;-171.0757;0;-4.260548;-13.24988;-170.1489;-167.9248;-0.2842197;-0.1272121;0;
-120.1122;0;-68.70516;0;-15.10726;-6.940415;-62.65684;-62.18417;0.04090264;0.3276872;0;
448.2853;0;457.0371;0;-14.62259;-5.727749;496.3752;497.2846;0.2357636;0.1324559;0;
651.7949;0;658.2266;0;-16.95242;-16.57298;699.1492;698.8708;0.04062464;0.06735544;0;
270.4563;0;318.9854;0;-18.47563;-18.43173;324.0724;325.0437;0.1055512;0.4570918;0;
146.1219;0;203.4727;0;-7.740769;-9.973606;200.996;206.3391;0.1704125;0.06682847;0;
58.89386;0;123.7458;0;-4.51781;-9.025824;118.3979;124.7352;0.3001759;-0.3230427;0;
-468.9625;0;-364.7581;0;-6.857795;-0.1752515;-400.5228;-395.5037;0.3648416;-0.3227181;0;
-690.1924;0;-592.9017;0;-6.046621;4.647574;-624.1952;-618.3066;0.2345403;0.06741019;0;
-344.11;0;-289.8955;0;0.5908865;-0.1797453;-288.0492;-282.6038;0.10437;0.3921792;0;
-213.5172;0;-160.7939;0;3.068539;1.361043;-158.4497;-156.633;0.3641345;0.001981046;0;
-117.6007;0;-67.42923;0;-2.4269;0.7568288;-62.33874;-62.64777;0.5586706;-0.06298829;0;
443.5479;0;452.9395;0;-3.095023;-0.5835903;491.0708;491.0119;0.1683052;-0.1278923;0;
662.1172;0;669.1879;0;-2.421352;2.766143;709.2799;707.347;-0.09173325;-0.1927312;0;
271.0231;0;318.3166;0;-2.084126;1.959568;322.3239;320.9552;-0.1566084;-0.4524069;0;
143.1899;0;191.4978;0;-10.11998;-0.7887012;189.5041;193.6965;-0.2214184;-0.7118217;0;
82.51395;0;129.399;0;-14.19565;-1.457738;128.2818;134.0942;0.2335755;0.06850167;0;
-452.1128;0;-369.7927;0;-0.784802;-7.685442;-397.5828;-392.5259;0.3632755;0.3283022;0;
-694.1616;0;-615.36;0;1.224743;-9.419276;-638.437;-631.2613;-0.09186095;0.06810296;0;
-346.2011;0;-296.4017;0;-2.996047;-10.68249;-294.593;-288.7988;-0.4815727;0.003067192;0;
-224.5392;0;-166.419;0;-0.9833044;-12.21224;-170.3593;-168.9437;-0.4810888;-0.2568052;0;
-126.9876;0;-74.79777;0;-6.006158;-6.037782;-73.92403;-73.0096;-0.09080137;0.06828949;0;
447.1015;0;454.6363;0;-5.732679;-4.959988;491.5535;492.2797;-0.1556775;-0.1266811;0;
657.7961;0;662.1375;0;-5.458499;-2.074738;701.9536;699.4931;-0.4803577;-0.6462926;0;
271.2667;0;316.6454;0;-6.39102;-0.4651853;320.4397;318.4814;-0.09007104;0.004030219;0;
147.7435;0;199.5735;0;4.064251;-0.06282023;195.6803;198.534;0.1049215;0.3938302;0;
67.63528;0;124.1608;0;6.806834;0.9419869;118.5223;123.0599;0.1697834;-0.1912716;0;
-459.1054;0;-362.5944;0;5.996687;-2.407984;-397.9622;-392.6796;0.2995475;-0.3210141;0;
-687.8414;0;-590.6777;0;7.262483;-2.07065;-624.6357;-617.0471;0.5591159;0.06911254;0;
-353.8178;0;-290.9221;0;7.657327;-10.44131;-294.9859;-289.0916;0.4935867;0.1340104;0;
-226.8385;0;-164.2558;0;8.587638;-13.71286;-166.1916;-165.1133;-0.0916153;-0.4508303;0;
-126.4109;0;-67.8891;0;0.8094773;-6.197241;-66.51215;-66.68425;-0.41636;-0.4503773;0;
437.1829;0;453.5421;0;-1.736932;-6.057048;488.963;489.2284;-0.02613754;0.1347813;0;
660.631;0;670.9143;0;-1.199323;-2.567849;711.6096;709.8756;0.2987254;-0.1252235;0;
270.7879;0;320.8533;0;-3.609991;-0.2879716;326.4627;325.3553;0.0385559;-0.06013031;0;
135.4587;0;191.5333;0;0.07830736;-1.024495;189.5784;193.3445;0.1684518;0.1997995;0;
72.72903;0;130.6838;0;0.6140921;0.7180911;128.6684;133.8051;0.7529886;-0.2551727;0;
-455.2662;0;-356.2653;0;-0.7266716;-1.627033;-390.2626;-385.6308;0.4923627;-0.3198836;0;
-698.3113;0;-596.2865;0;0.881649;-2.496054;-631.499;-625.5601;-0.09283812;-0.3195622;0;
-351.7835;0;-286.5927;0;-2.267069;1.927205;-290.0358;-285.1023;-0.3526142;-0.4491758;0;
-219.9336;0;-154.9333;0;-2.197442;2.327166;-155.1246;-155.1935;-0.02742319;-0.0589204;0;
-126.6344;0;-65.01023;0;1.35474;-0.4214722;-60.95345;-63.45858;0.3624084;0.2659755;0;
438.0216;0;455.1062;0;0.8175149;-0.2870828;493.8914;491.8886;0.1021749;0.1357736;0;
655.1595;0;668.1666;0;8.050362;-3.233921;709.5365;706.0364;-0.02786245;-0.1242322;0;
265.3219;0;321.6065;0;9.046651;-3.565587;325.5787;323.2066;0.1670676;0.005827293;0;
136.245;0;198.7825;0;6.023451;-4.16485;195.192;197.7572;-0.2229043;0.3306582;0;
63.08235;0;126.9937;0;5.816328;-4.96446;123.7816;127.5312;-0.3526151;0.3303259;0;
-463.9662;0;-365.1366;0;-2.562261;2.944392;-393.7077;-390.8365;0.1025106;-0.1247774;0;
-694.259;0;-599.3393;0;-4.434721;5.218731;-622.2595;-617.5171;0.6221463;-0.1896194;0;
-352.9201;0;-289.3301;0;-13.33887;5.883317;-285.3033;-281.3153;0.4266192;0.2003752;0;
-228.4404;0;-159.7294;0;-17.61238;8.489617;-159.08;-159.7186;-0.4833522;0.2001739;0;
-136.382;0;-73.04985;0;-10.82953;4.797148;-68.40311;-70.10309;-0.1580299;0.2649401;0;
428.9085;0;448.4489;0;-11.75665;4.591379;487.5737;486.5001;0.426835;0.3296412;0;
649.6788;0;666.2636;0;-2.031945;6.797202;707.0357;703.7144;-0.4181693;-0.1254614;0;
254.0371;0;312.0219;0;1.988584;5.718645;315.8341;313.5155;-0.7425858;-0.06036801;0;
122.9101;0;188.2704;0;1.249652;8.392095;182.7709;184.9525;-0.222101;0.5243987;0;
65.12807;0;133.6711;0;5.334233;8.316679;126.4905;129.7318;-0.2868451;0.3939371;0;
-459.1114;0;-358.0911;0;-3.177593;3.485673;-389.0026;-385.8894;-0.2215896;-0.1911648;0;
-699.2167;0;-601.921;0;-4.983061;1.740736;-626.2422;-620.8834;0.2334045;-0.1909727;0;
-358.7474;0;-291.9717;0;0.8500708;-1.074296;-289.0946;-283.6162;0.6229739;0.1340559;0;
-232.2003;0;-159.9945;0;-0.6246519;-3.350514;-160.5561;-159.6434;0.4924133;0.1988886;0;
-140.7628;0;-70.12887;0;4.935681;-4.55284;-70.00274;-71.02748;-0.02782016;0.3286234;0;
421.6584;0;446.9942;0;7.408968;-5.820941;482.6024;482.2033;-0.2876616;0.003456475;0;
644.56;0;661.6869;0;-4.789614;-7.087646;704.6931;701.171;-0.0924705;-0.386351;0;
257.5441;0;316.1954;0;-6.392392;-7.348456;322.8016;319.533;-0.352247;0.003841209;0;
127.9753;0;194.4387;0;-5.18052;-5.063775;190.2312;192.713;-0.4818277;0.3286741;0;
64.50353;0;133.0241;0;-6.715556;-2.982216;128.446;132.0497;0.1033625;0.3933112;0;
-458.0486;0;-350.679;0;0.2574169;-5.52457;-385.1125;-381.8247;0.168226;0.3279486;0;
-697.5303;0;-586.4579;0;1.7974;-5.853934;-622.7933;-617.5099;-0.02684506;-0.257087;0;
-361.9977;0;-285.3947;0;3.671604;4.065178;-290.2719;-286.4305;-0.1567528;-0.2568287;0;
-231.9492;0;-157.7345;0;6.347232;5.668684;-158.3589;-159.1441;-0.2215626;0.3931028;0;
-133.7653;0;-63.56072;0;4.464844;8.275322;-61.87316;-64.71904;-0.09140529;0.06787111;0;
432.4595;0;460.4273;0;6.269019;11.01319;495.1591;492.0662;-0.5460848;-0.1920665;0;
655.0379;0;678.6047;0;3.516053;-2.528067;717.4246;712.2733;-0.6754708;0.003028556;0;
262.5767;0;326.537;0;2.910284;-6.343554;331.085;326.8135;-0.1550534;-0.06194183;0;
127.8179;0;198.0233;0;7.730131;-4.05976;194.5083;195.6134;-0.02496289;-0.1918143;0;
64.53372;0;136.3553;0;7.655015;-6.53405;131.1571;133.7603;0.1699642;-0.06168685;0;
-460.7047;0;-351.2867;0;9.254913;-6.996365;-385.9648;-383.9889;0.2997281;0.3281792;0;
-703.8068;0;-592.4373;0;7.972816;-6.855369;-627.0806;-622.9203;0.1694923;0.1979147;0;
-362.5208;0;-286.4331;0;12.65385;-10.1975;-289.7448;-285.776;0.2342893;-0.1920882;0;
-233.0339;0;-157.0227;0;14.65087;-9.919327;-157.5199;-157.6781;0.1690865;-0.2568625;0;
-144.2193;0;-71.03302;0;-2.778924;-6.091455;-69.09353;-70.37598;-0.02598537;-0.06170239;0;
418.0805;0;448.2773;0;-6.728247;-5.214556;484.5726;483.229;0.1689428;0.2631963;0;
645.1711;0;670.9648;0;-8.932289;5.038828;710.9092;706.8808;0.2337403;-0.1268722;0;
260.4034;0;327.7752;0;-14.2146;9.052619;330.4483;327.4859;0.1685381;-0.6464834;0;
130.8317;0;202.6961;0;-3.148255;6.766225;197.7453;200.2206;0.2983035;-0.1260951;0;
68.73142;0;140.6485;0;-2.207086;8.902759;136.015;139.7372;0.3629711;0.133901;0;
-460.3842;0;-351.1832;0;-4.348322;2.731627;-383.7355;-380.7042;0.1677043;-0.321005;0;
-711.2328;0;-606.4518;0;-2.335197;0.3844799;-632.2873;-627.5723;0.03760115;-0.2557151;0;
-375.1867;0;-307.2425;0;-4.743748;3.331221;-300.9432;-296.6703;0.2324654;-0.1255235;0;
-241.3143;0;-166.1296;0;-2.461806;1.988337;-165.7086;-165.9377;0.3621665;-0.1903647;0;
-144.4329;0;-70.32323;0;-10.29621;-1.563757;-70.09008;-72.31797;0.2318679;-0.06023872;0;
422.0526;0;450.798;0;-13.29998;-3.705517;488.1373;486.0366;0.0367329;-0.1901129;0;
649.8262;0;672.5458;0;2.588219;-2.831016;715.1575;710.9974;0.1016633;-0.1249545;0;
265.3038;0;328.3553;0;4.795445;-3.431017;334.8796;331.5358;0.03659384;0.00510573;0;
132.6038;0;201.7138;0;7.2025;-5.70499;199.8608;201.3305;-0.158345;0.1350353;0;
62.75555;0;133.9201;0;11.48217;-5.76624;130.3823;133.787;-0.2231532;0.1348996;0;
-458.483;0;-347.2227;0;-0.5194334;-8.506624;-381.8662;-378.7148;-0.1579616;-0.06013797;0;
-698.6514;0;-585.1915;0;-1.99278;-9.837735;-619.238;-614.5281;-0.02786822;0.1348245;0;
-368.0527;0;-291.2509;0;0.6221668;-3.129679;-292.3423;-287.9495;0.1020945;0.1996564;0;
-234.4998;0;-159.7742;0;-0.718605;-1.720015;-157.4287;-157.0383;0.2319266;-0.125381;0;
-141.8731;0;-71.84531;0;4.373308;-2.588943;-66.62862;-68.67482;-0.02817585;0.1346144;0;
417.7382;0;445.7168;0;6.311296;-0.9118903;483.5368;481.805;-0.3529842;0.1994465;0;
655.886;0;677.9644;0;4.227874;-5.331726;719.9944;717.1399;-0.02779285;-0.2555254;0;
268.8587;0;331.2072;0;5.430051;-6.331112;337.2754;335.6732;-0.02776493;0.1345355;0;
128.7214;0;199.4404;0;8.572427;-2.573706;194.5706;198.2173;-0.2876064;0.3293023;0;
75.86852;0;146.2042;0;10.10405;-2.906035;141.5266;146.7314;0.0375193;-0.06083263;0;
-447.6946;0;-341.1353;0;14.04602;-2.09932;-373.107;-369.5316;0.1024489;-0.06077151;0;
-706.7393;0;-597.476;0;16.10801;-2.298159;-628.9158;-623.9072;-0.02758868;0.1341916;0;
-369.9481;0;-296.6516;0;14.6853;-2.630765;-295.7635;-291.3222;0.1023737;0.004122063;0;
-232.0205;0;-158.8601;0;14.87162;-2.092258;-156.0989;-157.0343;0.2322055;-0.2557514;0;
-144.7062;0;-73.24345;0;13.31643;-9.927036;-70.11015;-72.91874;0.1670049;0.1343096;0;
413.5962;0;441.5089;0;10.95853;-13.33307;478.8094;477.0031;-0.1579996;0.3290767;0;
649.4993;0;670.1377;0;13.42576;-6.487657;713.0228;708.9695;-0.1578409;0.1988113;0;
268.1006;0;330.2598;0;11.93841;-6.682087;336.8701;333.508;-0.09271494;0.3285463;0;
130.5877;0;199.4311;0;7.103638;-8.48379;197.4765;199.3027;0.2322149;0.003379397;0;
63.61506;0;133.2014;0;5.757329;-7.336556;131.2488;135.0096;0.3619163;0.06834334;0;
-459.4984;0;-356.249;0;-2.955993;-14.96512;-383.2496;-379.0552;-0.02825142;0.3931114;0;
-702.9141;0;-604.3287;0;-5.632339;-16.75862;-625.555;-619.9905;0.1017116;0.1978144;0;
-373.9354;0;-304.9341;0;-6.430964;-10.98137;-301.0892;-296.3424;0.4264462;-0.1272211;0;
-242.1882;0;-168.3837;0;-8.76805;-11.17128;-167.7285;-167.1719;0.296083;-0.1270933;0;
-140.9956;0;-73.51213;0;0.6178824;-7.007117;-68.11;-69.36553;-0.1589859;-0.06199824;0;
422.1131;0;448.4869;0;2.157503;-5.727522;486.3048;485.6127;-0.4186955;-0.3867727;0;
658.0077;0;678.8577;0;6.37587;-6.927338;720.9479;718.1327;-0.2883402;-0.5163187;0;
269.479;0;328.4764;0;9.985809;-6.384636;336.9162;334.7909;-0.4179851;-0.2559305;0;
122.9692;0;190.528;0;4.282349;-10.93294;188.4022;191.8387;-0.6124671;0.06916333;0;
73.0582;0;142.5481;0;5.684566;-12.26149;139.2999;144.2947;-0.4169497;0.004126492;0;
-444.0678;0;-334.5429;0;-1.086301;-15.06245;-368.21;-364.0323;0.3630773;-0.3207144;0;
-708.2386;0;-591.4525;0;-3.830899;-17.05668;-630.0832;-623.4109;0.7525165;-0.1904574;0;
-374.8192;0;-295.7565;0;2.804382;-16.43682;-301.6773;-295.3242;0.6218257;0.004635974;0;
-235.6373;0;-162.3387;0;1.997281;-17.49191;-160.3201;-159.2207;0.6861683;-0.06033603;0;
-147.1324;0;-77.21832;0;4.74194;-14.25927;-72.57805;-73.60365;0.2956748;-0.1902101;0;
416.5446;0;443.2852;0;4.669827;-13.03925;481.5289;480.6917;-0.3542957;0.004883065;0;
654.9435;0;675.4103;0;6.071654;-14.56676;718.9255;715.4655;-0.4838744;0.0698455;0;
273.6018;0;337.7136;0;7.874215;-13.94928;344.5159;341.4342;-0.2884862;-0.1900941;0;
133.2723;0;206.3776;0;-4.994421;-13.13146;204.6774;206.2839;-0.2881963;0.199901;0;
63.36095;0;137.2049;0;-8.472027;-13.18525;135.3815;138.673;-0.4178414;0.3296348;0;
-456.6289;0;-346.6273;0;-5.315682;-11.09566;-378.3089;-374.7083;0.1023172;0.004466905;0;
-701.1719;0;-595.0915;0;-7.453794;-10.28071;-623.8677;-618.9589;0.4270511;-0.1904396;0;
-366.1354;0;-299.6417;0;-6.77672;-13.35147;-296.0928;-293.1254;0.1667526;-0.3851503;0;
-229.6484;0;-161.3475;0;-8.443873;-13.40504;-158.3019;-159.8977;0.2315524;-0.1248939;0;
-137.7138;0;-71.35553;0;-4.148481;-14.66425;-66.50137;-68.78275;-0.093517;-0.05980108;0;
422.5805;0;444.8317;0;-3.273657;-15.25236;484.5385;483.1964;-0.6131617;0.07019369;0;
657.4752;0;673.4572;0;-6.083407;-12.42375;717.9341;713.6573;-0.2877089;0.1350905;0;
268.5097;0;324.4555;0;-3.397977;-11.8754;333.1557;329.1956;0.03741685;0.005020084;0;
125.2493;0;186.6986;0;-18.1313;-11.59566;186.5195;188.1856;0.2972486;0.3298518;0;
76.52283;0;138.66;0;-21.66305;-11.65087;138.6686;141.7073;0.491852;0.264553;0;
-441.1689;0;-342.3626;0;-7.440414;-9.89773;-369.403;-366.6172;0.2964557;-0.06054956;0;
-707.7789;0;-608.3222;0;-5.625253;-10.42365;-634.3984;-628.8043;0.1662232;0.004478619;0;
-365.4269;0;-298.3665;0;-0.4620366;-9.073516;-296.6804;-292.2164;0.3609582;-0.1254606;0;
-217.6963;0;-149.0166;0;2.352443;-7.992672;-147.5821;-148.0576;0.4255628;-0.06036716;0;
-144.0145;0;-78.27732;0;8.512021;-18.1658;-75.22008;-77.13188;0.2302332;-0.1902412;0;
407.3531;0;431.9824;0;12.99145;-20.02307;467.3953;465.9852;0.1000672;-0.2550174;0;
651.8207;0;671.7401;0;3.734992;-21.74439;711.1779;707.3953;-0.09493541;-0.1248264;0;
272.731;0;330.9236;0;3.329097;-24.53582;337.4633;333.5596;-0.2247747;0.070201;0;
131.7777;0;193.0977;0;2.254025;-15.33475;194.0711;194.1693;0.1002879;0.2650325;0;
71.17569;0;132.3716;0;1.247383;-14.64951;133.4065;135.0039;0.1001871;0.1348315;0;
-446.5107;0;-347.4578;0;1.379851;-8.941364;-374.9096;-372.4393;0.2300211;0.06972868;0;
-699.5596;0;-594.9841;0;0.908974;-4.31068;-624.5322;-620.0029;0.814496;0.1995933;0;
-369.0224;0;-296.7233;0;2.85142;-15.29131;-298.006;-295.043;0.5538083;-0.1904113;0;
-233.657;0;-163.8668;0;1.039893;-15.07499;-161.7749;-162.438;-0.03145427;-0.1252526;0;
-138.4075;0;-73.62244;0;15.90833;-14.72493;-68.09687;-70.57088;0.03354468;0.2646773;0;
423.5742;0;445.0659;0;20.2466;-15.51393;484.9436;481.5975;0.03351098;0.1344766;0;
656.5938;0;672.8789;0;8.035118;-9.001119;716.4022;710.4983;0.03347731;0.3292435;0;
272.1894;0;329.5001;0;8.094393;-7.920347;336.5605;331.5995;-0.03152367;0.3938801;0;
128.9877;0;192.4252;0;-1.827702;-3.357671;191.2327;191.8364;-0.3563287;-0.1912218;0;
73.32352;0;136.8847;0;-6.581288;-1.34481;136.318;138.4204;0.03383338;0.06883971;0;
-440.4919;0;-338.3266;0;-3.225772;0.06306117;-368.1904;-366.5275;0.3586361;0.5235419;0;
-700.6058;0;-591.2343;0;-6.504085;2.273435;-626.1281;-621.9056;0.1633737;0.1981792;0;
-368.2561;0;-294.3517;0;-1.005193;-3.355294;-297.3514;-294.1951;-0.09665982;-0.191824;0;
-227.769;0;-159.561;0;0.0001948906;-3.28494;-154.9991;-156.781;-0.2914647;-0.5814353;0;
-147.7052;0;-82.43937;0;-3.147637;-9.51093;-77.19485;-81.28629;-0.2262045;-0.2560144;0;
409.4757;0;432.1349;0;-1.536884;-14.05609;470.8573;467.0823;-0.09604254;0.3289489;0;
663.0616;0;679.3886;0;-6.559182;-1.784334;723.7568;718.6113;-0.2258807;0.1337164;0;
280.5247;0;338.8768;0;-6.887383;-1.581593;346.8437;342.1406;-0.5504904;0.06861469;0;
127.9444;0;193.4842;0;-8.219634;-0.2404667;192.6974;192.3094;-0.2251006;0.1984804;0;
72.78105;0;139.7542;0;-12.69935;3.711768;137.5939;139.2053;0.619701;0.1333137;0;
-443.72;0;-336.5219;0;3.589406;-13.17129;-370.8513;-368.9917;0.4891436;0.3930491;0;
-702.269;0;-588.4944;0;4.456455;-15.63643;-626.5375;-623.3054;-0.6157926;0.06781742;0;
-368.1684;0;-290.6775;0;-2.37955;-9.92729;-296.7609;-294.4066;-0.6801412;-0.5819241;0;
-232.3665;0;-160.3258;0;-0.7031954;-11.18999;-160.4061;-161.8648;-0.2896538;-0.5813394;0;
-145.4266;0;-78.14343;0;-27.49469;-1.064568;-75.16267;-78.30653;-0.2893627;-0.06101656;0;
413.8134;0;438.5504;0;-35.43766;1.079956;474.8864;472.2455;0.1007321;0.2638815;0;
655.6509;0;674.4285;0;-27.29773;5.566605;715.7255;711.2756;0.1006308;0.003746947;0;
278.3064;0;337.045;0;-29.34641;9.713831;343.3806;339.4974;-0.09437229;-0.2561262;0;
132.5999;0;200.15;0;-24.56149;1.934295;195.5472;196.8528;-0.1592448;0.004000539;0;
75.12047;0;143.1025;0;-22.25867;2.937095;138.067;141.87;-0.02915011;-0.1259382;0;
-437.0726;0;-332.6772;0;-14.2657;-2.960232;-366.3183;-362.3317;0.2957159;-0.190779;0;
-699.7512;0;-586.4652;0;-10.3666;-5.569592;-627.069;-621.2123;0.2304514;-0.1256199;0;
-368.0894;0;-290.7743;0;0.9633265;2.205902;-299.7281;-295.0017;-0.1595842;-0.2554284;0;
-236.6604;0;-165.4824;0;8.197003;2.06972;-166.3063;-165.6452;-0.1594238;0.06966498;0;
-161.3354;0;-92.47777;0;-3.131715;6.823307;-91.86407;-92.20309;0.03563837;0.3294643;0;
414.5998;0;438.3484;0;-2.190563;8.491024;473.6315;473.8551;-0.1592995;0.1342313;0;
671.2415;0;686.2206;0;-7.479648;8.616458;728.9645;726.5017;-0.2241067;0.1340964;0;
278.764;0;334.0203;0;-11.22318;10.41622;341.9887;339.4659;-0.09394688;0.198929;0;
126.4353;0;188.1953;0;-2.772782;3.104855;186.7854;189.1377;-0.2887545;-0.1261076;0;
73.64725;0;136.0948;0;-2.903717;1.293196;133.9367;137.7859;-0.09356234;-0.1909482;0;
-440.231;0;-338.9907;0;-2.767078;-0.1817276;-370.8817;-367.3488;0.2963357;0.06911301;0;
-701.3447;0;-592.3351;0;-1.960014;-3.329621;-629.129;-624.1004;0.4259726;0.523815;0;
-367.3075;0;-293.0151;0;-3.029772;1.965254;-299.2874;-296.2628;0.29561;0.393354;0;
-230.7569;0;-162.5986;0;-2.759284;2.700092;-161.1184;-162.4072;0.3602802;-0.1917474;0;
-151.8146;0;-87.47285;0;-4.029309;-4.938553;-82.18362;-84.59557;0.4248856;-0.2565221;0;
405.0581;0;427.4188;0;-5.43178;-6.808991;465.3113;463.6514;0.03465461;-0.1912969;0;
655.65;0;669.7422;0;-1.406858;-2.247432;713.7186;709.8116;0.1645545;-0.1261374;0;
284.7397;0;337.1112;0;-0.4010663;-2.111208;347.3103;343.0323;0.3592911;0.1988261;0;
133.4046;0;193.9068;0;-9.442993;-3.448745;193.6634;194.762;-0.1608086;-0.06124309;0;
68.42812;0;130.9934;0;-11.91175;-3.44528;129.6259;132.4101;-0.4854837;-0.4509856;0;
-441.8217;0;-339.1519;0;-7.947667;-2.905955;-371.0652;-369.8456;-0.2251265;-0.3855651;0;
-704.1832;0;-592.9334;0;-7.873309;-1.831308;-631.3738;-628.4063;0.09993637;-0.1253083;0;
-377.452;0;-302.9206;0;-9.271917;-5.245597;-309.3385;-307.1236;0.1648033;0.2646216;0;
-236.2685;0;-168.6211;0;-8.79311;-4.972394;-165.6622;-167.5725;-0.03026432;0.2643557;0;
-153.0103;0;-88.42937;0;-8.449482;-2.221098;-83.34959;-86.56972;-0.09520125;0.1991228;0;
413.0465;0;434.3343;0;-8.508341;-0.8793298;472.4548;469.4878;0.09979643;0.3288574;0;
670.7517;0;683.1475;0;-0.7966323;3.542427;728.2263;723.7006;0.03472881;0.1336249;0;
284.3966;0;336.3851;0;2.284651;6.084097;346.3737;342.6021;-0.09524076;0.0685233;0;
131.8124;0;191.1824;0;-2.271996;10.56572;192.103;192.8954;-0.1601124;0.00348711;0;
81.70508;0;142.6396;0;-1.399057;13.83727;141.6227;144.9756;-0.2249189;0.003483607;0;
-438.678;0;-336.8253;0;-2.067237;12.21577;-371.1994;-367.5376;-0.09475819;-0.1264546;0;
-707.6018;0;-601.1038;0;-2.869443;12.06953;-637.3799;-631.2855;0.03527171;-0.5810989;0;
-368.4984;0;-302.0873;0;4.233387;16.88005;-302.47;-297.5686;-0.02973107;-0.385613;0;
-230.1975;0;-166.8516;0;7.712734;17.06404;-162.4238;-164.149;0.1002335;-0.1253562;0;
-154.3792;0;-90.40982;0;-2.409072;11.42045;-87.23581;-90.20867;0.1651001;-0.1901975;0;
409.1803;0;429.045;0;-3.947869;9.198538;466.6985;465.79;-0.1599025;0.1348303;0;
663.5161;0;673.2409;0;7.510301;3.429007;719.4147;716.3209;-0.02980714;0.004760117;0;
285.664;0;334.5468;0;9.244067;-0.3254826;346.4415;343.6631;0.2950595;-0.255114;0;
135.5772;0;191.9697;0;11.37823;-2.736419;194.2947;196.2666;-0.09504101;0.1349464;0;
77.22027;0;136.9294;0;13.71132;-5.94885;136.5659;140.285;-0.2898475;0.1348108;0;
-433.8505;0;-339.3439;0;11.08558;-6.009856;-366.0688;-362.166;0.4250845;-0.06022672;0;
-696.2824;0;-602.9328;0;11.74403;-7.544302;-626.5073;-620.3596;0.8144614;-0.06016621;0;
-368.3098;0;-306.1008;0;8.718115;-6.665944;-303.7273;-298.3978;0.4888063;-0.2550078;0;
-230.8211;0;-165.6137;0;7.905071;-6.592263;-164.6793;-163.6031;-0.1613583;-0.3846862;0;
-151.8163;0;-89.04823;0;6.155816;-8.930041;-84.99131;-85.79022;-0.1611961;-0.254365;0;
405.0564;0;425.1578;0;3.805106;-9.992796;462.444;460.8338;0.0988352;-0.1891421;0;
658.9591;0;671.5441;0;8.35661;-7.102489;714.4149;710.5574;0.03376855;0.3307867;0;
283.6103;0;335.7253;0;6.539552;-6.425523;344.3827;341.5911;0.4235387;0.655291;0;
133.4632;0;192.3348;0;9.479742;-13.38517;190.6763;193.0099;0.6180151;-0.06000816;0;
83.04182;0;140.7299;0;9.069052;-15.71612;140.01;144.5902;0.2275901;-0.5796866;0;
-428.7844;0;-331.3618;0;2.629577;-13.088;-362.0034;-357.6777;0.2273614;-0.2542674;0;
-706.8386;0;-598.8317;0;2.559586;-13.74467;-637.3136;-630.8058;0.3570676;-0.3189793;0;
-374.4825;0;-303.8155;0;-11.17437;-15.13751;-308.9629;-303.3363;-0.09806254;-0.3836261;0;
-222.1201;0;-159.8324;0;-13.50669;-14.78738;-154.9173;-154.4187;-0.2278987;-0.1233713;0;
-152.8692;0;-92.26821;0;-9.876767;-17.78663;-86.42094;-87.04733;-0.03276767;-0.05827996;0;
397.9452;0;416.3189;0;-7.589668;-18.37161;456.0807;455.3925;-0.1626694;0.07171328;0;
658.9139;0;668.5236;0;-3.763649;-15.94188;715.4918;711.2436;0.1623307;0.2665433;0;
280.5667;0;330.7713;0;-3.022933;-16.99747;341.1482;337.4665;0.03223294;0.0713734;0;
129.9229;0;188.4478;0;29.73415;-9.746478;187.57;189.8264;-0.4225709;0.136269;0;
78.69299;0;137.7838;0;40.15312;-8.26306;136.0323;140.7852;-0.03234219;0.3960015;0;
-433.8785;0;-335.9915;0;36.09331;-13.4793;-367.7262;-363.5403;0.09762499;0.2007016;0;
-699.9335;0;-593.6492;0;42.08624;-13.53274;-631.6614;-626.2303;0.03255955;0.2654672;0;
-369.8333;0;-299.013;0;25.49953;-21.02111;-306.6897;-301.8263;0.1624615;0.5250698;0;
-228.4076;0;-164.8424;0;22.39245;-23.54522;-163.7657;-163.1551;0.292233;0.004803517;0;
-150.4047;0;-90.7764;0;9.978721;-26.46869;-86.2026;-87.59153;0.1620046;-0.3850054;0;
401.0318;0;419.1211;0;0.3231514;-29.85822;457.0485;456.0982;-0.03306017;-0.1247491;0;
657.6247;0;667.8871;0;10.10209;-21.38849;712.5856;709.6998;0.03194039;0.2002129;0;
289.5861;0;339.131;0;6.207174;-19.42462;348.5522;346.169;-0.1629937;0.1350444;0;
139.4329;0;197.2364;0;13.23353;-21.88335;195.6536;198.0829;-0.2277973;-0.2548953;0;
86.63177;0;145.0643;0;17.5745;-19.91897;143.858;147.8466;0.09726831;-0.3845739;0;
-428.6338;0;-331.1546;0;3.557037;-18.49232;-362.3447;-358.3601;-0.09773145;-0.4491548;0;
-707.0005;0;-602.9351;0;3.68816;-16.59822;-638.2792;-632.4246;-0.2925353;-0.1238668;0;
-368.21;0;-302.0427;0;7.635593;-13.76838;-304.0555;-299.5187;-0.1623067;0.2660617;0;
-215.6041;0;-154.6257;0;7.092058;-12.21393;-150.5146;-150.48;-0.09717622;0.1358597;0;
-152.3566;0;-91.93924;0;18.00327;-9.321518;-86.9577;-88.92213;0.0328561;0.1357232;0;
399.0194;0;418.3342;0;20.12864;-7.704561;456.544;454.7065;0.1627578;0.2005541;0;
667.4833;0;678.6578;0;26.60514;-9.170444;723.201;719.4913;-0.03230779;0.1353853;0;
289.7522;0;341.52;0;33.47826;-9.764075;349.7242;346.9552;-0.03227533;0.2002166;0;
133.9142;0;193.5635;0;12.34488;-7.878743;191.827;193.9958;0.09769178;0.07008073;0;
83.61736;0;142.8944;0;9.98795;-7.803843;141.6594;145.5127;-0.03234106;0.005042965;0;
-431.3953;0;-332.8226;0;14.19845;-12.68563;-364.7285;-361.4413;-0.03230856;-0.05992945;0;
-705.9487;0;-601.2906;0;9.361411;-13.87858;-636.9125;-632.2543;0.1626259;0.1350328;0;
-378.2787;0;-309.7701;0;34.93875;-16.2759;-313.3723;-310.0307;-0.1623742;0.4597338;0;
-231.722;0;-168.7796;0;42.33839;-17.80015;-165.3817;-166.0414;-0.2271784;0.004500491;0;
-152.8412;0;-94.70966;0;21.79931;-14.70117;-87.81694;-89.78777;0.4227233;-0.5152428;0;
394.3499;0;412.7555;0;20.03609;-14.35149;450.6882;448.6568;0.4872659;-0.1898883;0;
653.5731;0;664.8388;0;23.76701;-13.46629;708.543;704.2023;0.2918743;0.005204488;0;
288.1623;0;337.46;0;21.5333;-13.51974;347.762;343.7381;0.1616463;-0.3196374;0;
132.4508;0;191.3192;0;18.96607;-8.482557;190.1166;191.0318;-0.03341814;-0.4492509;0;
78.78217;0;137.2791;0;15.79918;-6.598512;136.0152;139.6781;-0.03338457;-0.1239628;0;
-430.2911;0;-333.1225;0;14.8453;-13.0891;-365.5569;-360.5859;-0.03335102;0.006096399;0;
-712.2169;0;-605.7131;0;13.28916;-14.28164;-645.4862;-638.2713;-0.1632522;-0.1238444;0;
-381.2922;0;-315.1252;0;6.042141;-16.81252;-318.6266;-313.293;-0.03315347;-0.1886873;0;
-226.0494;0;-166.0709;0;3.826243;-19.60891;-161.2604;-160.6173;0.2267492;0.136339;0;
-160.6675;0;-99.00012;0;4.424635;-19.52223;-96.3184;-96.42559;0.03161934;0.2011694;0;
390.5919;0;409.7812;0;3.884326;-22.11482;446.7555;446.6484;-0.1633144;-0.2538042;0;
664.8738;0;675.5481;0;5.689084;-20.95389;719.919;716.9385;-0.09818301;-0.3185165;0;
289.3942;0;340.35;0;6.085509;-21.13379;348.6319;346.0916;-0.1630517;0.006640248;0;
130.808;0;188.3967;0;9.96416;-29.01642;187.1751;189.9472;-0.1628879;0.2015356;0;
86.26136;0;144.4794;0;10.15522;-31.33154;143.259;148.0898;-0.2276915;0.3312678;0;
-422.5696;0;-323.5556;0;18.45041;-28.68785;-355.2595;-351.2456;-0.03256072;-0.1238365;0;
-704.5031;0;-597.4052;0;23.45571;-28.79299;-633.6998;-627.8784;0.09740668;-0.5135161;0;
-380.7701;0;-309.137;0;5.146415;-29.09897;-314.7856;-308.5327;-0.2275279;0.266608;0;
-232.3369;0;-165.1486;0;2.528299;-28.19895;-166.0439;-163.6704;0.03257008;0.5262095;0;
-154.3925;0;-91.20725;0;4.870284;-26.63001;-89.60289;-90.04285;0.162472;-0.18896;0;
397.4229;0;415.8171;0;1.583836;-25.26372;452.5272;452.1501;-0.2274953;-0.05883547;0;
657.83;0;665.0238;0;12.90175;-21.88918;711.0048;708.9415;0.09757003;0.201093;0;
290.4158;0;336.6453;0;15.36703;-20.19274;348.1599;345.7239;0.3573413;0.07095627;0;
133.0779;0;188.3814;0;11.53417;-17.49313;188.6401;190.5168;0.03214559;0.3307543;0;
72.34967;0;128.9719;0;12.86176;-15.66702;128.1684;132.2921;-0.03285405;0.4603567;0;
-430.158;0;-336.1115;0;10.8391;-16.38809;-365.2125;-361.7176;-0.1627557;0.5898288;0;
-702.4637;0;-613.759;0;10.0249;-14.89812;-634.9597;-630.4064;0.1622445;0.4593015;0;
-378.2954;0;-331.0341;0;12.49308;-19.57183;-315.7943;-311.8703;0.1620815;0.3938726;0;
-223.0556;0;-168.4706;0;12.27945;-20.42282;-159.6179;-160.0081;-0.3578201;0.5883788;0;
-155.4904;0;-98.77374;0;8.113927;-16.51741;-93.05337;-95.25478;-0.1625585;0.262951;0;
392.3281;0;403.5731;0;5.962321;-16.29987;445.0822;443.5701;-0.3572972;-0.06214998;0;
671.7932;0;673.9689;0;6.492193;-12.26463;722.1205;719.423;-0.4219055;0.2627492;0;
295.6194;0;338.5225;0;5.213848;-10.37679;350.3314;348.4488;0.2281918;0.3274525;0;
130.905;0;181.636;0;3.868463;-10.50033;183.2507;186.4299;0.4228646;0.06725411;0;
91.66816;0;140.0993;0;4.132995;-9.418172;143.9612;149.8234;0.7472763;0.1321539;0;
-420.4166;0;-335.3651;0;-1.163419;-8.738878;-359.3055;-353.6367;0.6815581;0.4568578;0;
-713.2217;0;-628.0683;0;-1.965558;-8.127252;-649.2361;-642.6359;-0.09873478;0.3264641;0;
-378.2981;0;-328.5249;0;1.050527;-10.06159;-318.2498;-312.968;0.03129911;-0.3235374;0;
-219.2477;0;-164.2148;0;0.7146792;-10.72119;-157.3232;-157.0443;0.3561044;-0.5181143;0;
-156.5589;0;-100.8315;0;10.15843;-10.7774;-94.32172;-96.167;0.1608445;-0.192757;0;
390.3236;0;404.5783;0;13.29606;-11.4364;444.8771;443.1586;-0.1641538;-0.06262864;0;
663.7313;0;668.5389;0;13.35005;-11.35792;716.3559;712.3278;-0.2289562;0.262271;0;
295.1244;0;337.7831;0;17.02033;-11.68143;351.6315;348.4196;-0.2936935;0.3919422;0;
138.219;0;190.6424;0;4.076129;-12.60745;193.3576;195.2088;-0.3583657;0.326581;0;
89.41711;0;143.537;0;-0.8854356;-13.39858;145.0625;148.4736;0.09676576;0.2612855;0;
-422.1032;0;-328.8699;0;14.45442;-12.11244;-358.0804;-354.5479;0.2266032;-0.1287811;0;
-707.7228;0;-616.1448;0;15.91377;-12.70311;-642.0777;-635.3627;-0.09846119;-0.193619;0;
-379.9261;0;-326.546;0;7.25759;-11.88655;-319.5943;-312.9486;-0.2932643;0.1314122;0;
-227.1834;0;-167.3603;0;7.517741;-11.27176;-165.1631;-162.7095;-0.4229043;0.001345487;0;
-164.424;0;-104.4736;0;-1.264699;-16.0161;-101.5291;-101.2643;-0.2925447;-0.3234926;0;
384.3404;0;397.8789;0;-5.415638;-15.93303;437.8643;437.6291;-0.09734869;-0.4531022;0;
664.5632;0;668.4679;0;-2.061294;-18.39539;714.7225;712.4885;0.09765115;-0.1278102;0;
295.4556;0;338.9615;0;-8.891726;-18.7788;350.3121;349.0174;-0.1623163;-0.06271446;0;
133.5525;0;186.3849;0;10.0735;-14.60711;186.9171;191.1209;-0.5519573;-0.1925861;0;
89.06559;0;141.6575;0;12.4079;-14.39149;143.0013;149.0749;-0.2915333;0.002509413;0;
-420.8926;0;-336.6194;0;-7.632583;-3.258103;-358.7028;-352.9476;-0.03137102;0.1974089;0;
-713.5724;0;-625.261;0;-6.485838;1.232905;-649.0088;-641.0105;0.2285299;0.1322432;0;
-383.8957;0;-325.658;0;-45.26159;-2.988136;-324.2696;-317.1538;0.09836556;-0.127759;0;
-222.6533;0;-167.1603;0;-60.08656;-0.9756458;-163.2745;-160.4138;-0.1616026;-0.06266332;0;
-159.2114;0;-105.7731;0;-26.93735;-3.319068;-100.8292;-99.783;0.2283638;0.002366993;0;
388.9231;0;400.7661;0;-25.36906;-3.449699;438.4386;439.3588;-0.09670238;0.002364614;0;
669.8284;0;671.1649;0;-22.32946;-3.915113;716.3581;715.9656;-0.4214419;-0.06260511;0;
296.905;0;337.9076;0;-16.6136;-5.11675;347.6358;347.9933;-0.09618175;0.002425144;0;
132.1269;0;182.5835;0;-11.37297;-0.3559425;180.9951;185.9124;-0.09608511;0.1323574;0;
88.70336;0;139.8589;0;-4.73011;0.5150712;138.8343;145.6208;-0.03102122;-0.06267763;0;
-416.6943;0;-325.985;0;-5.663362;-0.5570512;-356.9311;-350.9011;0.2938467;-0.127582;0;
-707.879;0;-608.7651;0;-1.102344;0.04635488;-645.4272;-637.8416;0.6183881;0.1324156;0;
-385.0172;0;-321.9848;0;-8.335881;1.787742;-326.0639;-318.9856;0.1629954;0.2622172;0;
-226.9595;0;-168.3633;0;-10.53733;3.46052;-165.7542;-163.2432;-0.2269725;-0.06288298;0;
-160.14;0;-104.4137;0;0.4579692;1.11264;-99.49586;-99.92343;0.03312496;-0.3876565;0;
383.3728;0;395.2526;0;0.3901601;2.116266;434.9605;434.221;0.09805902;-0.3222996;0;
660.723;0;664.22;0;1.930986;4.19061;710.3848;708.5841;-0.0319742;-0.06210643;0;
294.0556;0;336.7169;0;1.861696;5.927834;348.9148;347.4908;-0.03194207;0.06789066;0;
131.3418;0;182.2061;0;-2.694526;7.529468;184.1469;187.222;0.03305737;0.2627245;0;
90.66766;0;143.0426;0;-4.634201;7.9238;142.6701;148.3033;0.1629588;0.1325258;0;
-413.1078;0;-321.7426;0;-11.5294;17.96303;-352.0371;-347.8464;0.3576971;-0.3223788;0;
-711.2926;0;-610.8363;0;-15.06779;20.89211;-647.035;-642.0988;0.3573377;-0.2570875;0;
-386.4908;0;-323.6166;0;-18.46792;18.32589;-326.5456;-322.0516;0.03214194;0.1979422;0;
-221.9974;0;-167.4948;0;-20.25803;19.44619;-160.6132;-160.2467;0.09707698;0.2627107;0;
-163.4911;0;-110.1052;0;-24.45723;10.45118;-102.9182;-103.864;0.09697944;0.1974794;0;
379.2754;0;388.6298;0;-25.90652;6.086785;430.8544;429.7223;-0.2279547;0.1972809;0;
666.7496;0;665.9122;0;-17.90989;9.362832;716.965;713.0853;-0.1627583;0.002180677;0;
293.1421;0;334.4094;0;-16.41802;6.808073;349.0541;345.2408;0.09727459;-0.1927235;0;
124.9944;0;175.0908;0;-4.077644;2.983327;179.1636;180.1642;0.4869809;-0.0625952;0;
85.70103;0;136.5591;0;3.161098;1.640671;139.6908;142.8144;0.4215242;0.3272718;0;
-420.6931;0;-330.4684;0;-8.698423;-4.188371;-357.5122;-354.8915;0.1612313;0.1970082;0;
-710.0622;0;-611.7448;0;-9.359268;-6.126545;-644.8833;-639.0794;0.3559713;0.001908233;0;
-386.8234;0;-323.3373;0;3.309788;-5.517543;-327.0198;-320.2846;0.225679;0.131841;0;
-229.3886;0;-170.9638;0;7.59337;-7.58847;-168.021;-166.0402;0.3553869;0.001773841;0;
-156.2573;0;-100.265;0;-8.020673;3.069197;-94.8888;-95.34631;0.5499318;-0.19313;0;
384.3156;0;397.5231;0;-11.49621;5.745309;437.3141;436.5447;0.02964051;0.1968682;0;
659.3535;0;663.3024;0;-2.642427;1.251801;708.9879;706.2203;0.1595454;0.3915724;0;
297.4975;0;341.9846;0;-5.185368;2.925117;349.9556;347.753;0.3542871;-0.3234619;0;
131.4069;0;183.7828;0;5.871904;-5.986308;183.4375;184.9227;-0.1658076;-0.1282348;0;
84.42345;0;137.8711;0;9.884492;-9.128491;138.2758;141.0089;-0.03570631;0.5215675;0;
-416.5971;0;-324.9099;0;-8.612241;-4.162704;-354.6155;-352.0725;0.3541336;0.1962067;0;
-708.7189;0;-616.9989;0;-11.48398;-5.431075;-644.7382;-639.574;-0.03602627;-0.1288272;0;
-384.0446;0;-331.0224;0;-11.00295;-3.14832;-324.6884;-319.2171;-0.1659247;-0.3235998;0;
-217.3674;0;-163.8362;0;-13.33641;-1.537566;-157.3835;-155.8533;-0.03582334;0.001562093;0;
-159.6778;0;-104.2639;0;-10.84477;-8.435141;-100.0666;-100.4745;-0.360624;0.1964626;0;
376.963;0;389.1554;0;-10.83387;-9.565375;427.7062;427.861;-0.230327;-0.1285716;0;
671.1861;0;671.1849;0;-8.746881;-4.733115;719.567;717.8476;-0.1001609;-0.06347504;0;
300.4477;0;341.6758;0;-7.732737;-4.594393;353.7775;351.8099;-0.4898643;0.1314908;0;
125.4211;0;176.9151;0;-4.376065;-1.307613;176.261;179.1055;-0.4244047;0.4561954;0;
95.18525;0;144.8784;0;-2.965148;0.1003426;145.4118;150.8147;-0.2940436;0.3258023;0;
-405.4088;0;-316.0356;0;0.2530121;-1.909246;-346.1123;-340.7148;-0.1638135;-0.06432913;0;
-706.35;0;-609.8202;0;3.40059;-1.03655;-644.3644;-636.9109;-0.2286162;-0.1292318;0;
-382.865;0;-325.7249;0;-7.252748;-5.188328;-325.0021;-318.0559;-0.2933539;-0.06413464;0;
-219.4997;0;-167.6644;0;-8.9204;-6.120876;-160.8829;-157.8167;-0.2930591;0.2607665;0;
-151.5632;0;-100.2798;0;-6.834355;-5.444896;-94.25466;-93.12807;-0.09786259;0.3254718;0;
390.0045;0;398.5703;0;-9.105639;-6.645118;438.9471;439.5728;0.1621051;-0.1296266;0;
665.5364;0;663.7238;0;-0.388953;-1.614843;711.9311;710.7446;0.2269096;-0.1944637;0;
299.4263;0;337.3456;0;1.219028;-0.943391;348.9603;348.8994;-0.09815514;0.06560107;0;
140.3303;0;187.8317;0;-1.997377;-0.8754601;188.1903;192.6272;-0.1630239;0.1954699;0;
96.14893;0;143.665;0;-1.324809;0.3979733;145.3976;151.6417;0.3568787;0.3252081;0;
-408.3816;0;-321.3706;0;-5.342942;-4.75999;-349.6247;-344.0116;0.4864548;-0.06492271;0;
-704.0724;0;-606.1544;0;-6.945164;-5.692847;-642.6884;-636.5812;0.2260966;-0.5845962;0;
-391.5217;0;-329.1843;0;-6.603393;-4.883331;-334.3848;-329.2832;0.03096741;-0.2591721;0;
-225.3991;0;-171.8074;0;-7.734857;-5.347305;-166.508;-165.2846;-0.3588678;-0.323879;0;
-157.5816;0;-106.7299;0;-6.856429;-5.007017;-98.4998;-99.65146;-0.2285725;-0.6483903;0;
378.6822;0;388.316;0;-5.309298;-5.135952;429.209;427.7461;0.1614612;0.06690198;0;
669.6553;0;669.3469;0;-13.40829;-3.255391;717.4451;714.2971;0.03136431;0.7165082;0;
298.2313;0;338.5278;0;-15.40455;-2.984189;350.4708;348.138;0.5510715;0.3259842;0;
123.6442;0;173.4579;0;-5.408734;0.3678346;174.8318;177.124;0.6804525;-0.3240168;0;
94.53454;0;143.6111;0;-5.403299;2.242987;146.1079;150.2719;-0.1648067;0.2610149;0;
-406.4337;0;-319.8004;0;4.448743;-2.247001;-345.8542;-342.6314;-0.1646411;0.9753933;0;
-712.4963;0;-619.2659;0;9.267044;-2.110777;-648.9166;-643.823;0.1603611;0.3247399;0;
-395.2519;0;-337.5349;0;-4.943137;-3.448315;-335.9841;-331.1454;-0.03470208;-0.2602925;0;
-229.3755;0;-175.4646;0;-6.277341;-4.516577;-168.2931;-168.3943;-0.2295692;0.1947404;0;
-157.9308;0;-105.5733;0;-9.486215;-0.4260801;-97.2846;-99.44722;-0.2293386;0.1295774;0;
383.2685;0;393.9068;0;-13.49517;-0.2916861;434.6708;432.6353;-0.09917344;-0.1953895;0;
666.1785;0;667.5607;0;-8.658839;0.8471949;715.9675;711.7476;0.03086089;-0.1302259;0;
305.0652;0;345.8014;0;-10.19136;0.9803094;359.4893;355.711;0.03082988;-0.2600297;0;
140.5288;0;190.4068;0;-9.711625;1.11329;192.3994;193.0602;-0.03416844;-0.5196378;0;
94.59808;0;145.2381;0;-9.501772;1.514069;146.4791;149.388;0.1607679;-0.1942789;0;
-410.0558;0;-321.6732;0;-12.84113;-4.582777;-349.6688;-346.9502;0.4204758;0.130753;0;
-707.1818;0;-609.2678;0;-12.5598;-6.38659;-643.9193;-639.7667;0.2901186;-0.1942151;0;
-394.628;0;-330.6078;0;-16.63302;-6.514138;-335.0522;-331.4035;0.09492502;-0.388922;0;
-229.8765;0;-173.9792;0;-17.88911;-7.512336;-169.2363;-169.4018;-0.2300071;0.001272867;0;
-158.7437;0;-104.6516;0;-12.98199;-8.442549;-98.8515;-100.5161;-0.6845474;0.1961736;0;
383.206;0;394.7026;0;-12.36573;-9.371827;433.5428;431.8798;-0.4239901;-0.1288602;0;
679.4843;0;679.1628;0;-8.66961;-4.874554;727.7715;723.6115;0.161142;-0.2586654;0;
311.0489;0;351.957;0;-5.914233;-3.798051;364.9723;360.8789;0.0960127;0.1963659;0;
132.6384;0;182.4384;0;-10.66371;-5.066788;185.1332;185.6042;-0.03401845;0.3910706;0;
104.7066;0;153.582;0;-11.32356;-5.396612;156.8363;160.2429;-0.2288863;0.1308083;0;
-396.3343;0;-312.713;0;-4.345956;-2.511045;-335.0116;-331.6085;0.0961804;-0.1291925;0;
-709.4035;0;-621.8683;0;-2.935069;-1.503778;-645.0814;-640.9946;0.5508552;-0.2589974;0;
-389.4762;0;-332.8259;0;-6.816886;-10.2098;-330.8409;-327.7577;0.2904323;-0.3237045;0;
-221.669;0;-165.9502;0;-6.877386;-12.87886;-162.4679;-163.2609;-0.03469625;-0.1934446;0;
-159.165;0;-105.6262;0;-10.95631;-10.45454;-99.08646;-102.1899;-0.03466139;0.1965539;0;
384.5966;0;393.729;0;-13.75834;-10.97989;435.3695;432.2691;-0.03462657;0.5861604;0;
678.6247;0;675.504;0;-7.515227;-12.97835;725.411;721.1893;0.09534291;0.1957674;0;
313.2512;0;350.3634;0;-6.63702;-12.42945;364.4257;360.9579;0.4850512;-0.1942334;0;
138.7739;0;186.2187;0;-11.45312;-12.48394;188.148;189.931;0.3546291;0.1957659;0;
94.90647;0;142.1786;0;-10.63733;-11.86855;144.6682;148.6983;0.2243381;0.1955692;0;
-406.6243;0;-320.4818;0;-12.90382;-4.287796;-347.7922;-344.5158;0.483982;-0.2593988;0;
-707.7517;0;-610.139;0;-12.22127;-1.470205;-646.6674;-641.0829;0.2885937;-0.2591381;0;
-396.6341;0;-335.1638;0;-9.127527;2.215211;-339.6091;-335.0297;-0.231435;-0.2588777;0;
-231.8182;0;-179.4052;0;-8.783564;5.227218;-172.4767;-173.4616;-0.03630044;-0.2586176;0;
-161.2456;0;-108.448;0;4.420778;2.877563;-101.8388;-103.9472;0.2885727;0.3263484;0;
381.831;0;391.8471;0;9.506551;2.807688;431.7454;430.1389;0.1583481;0.4559551;0;
677.1113;0;673.3741;0;5.813303;3.206765;722.9774;719.0612;0.0282543;-0.06424177;0;
309.178;0;344.7998;0;8.017289;2.667679;358.7462;355.2087;0.09319326;-0.3890139;0;
130.5195;0;176.3504;0;5.464613;-1.286873;177.8515;179.44;-0.1667698;-0.193721;0;
99.46635;0;144.6265;0;4.722188;-2.290323;146.4385;150.649;-0.2315695;0.1962777;0;
-398.071;0;-323.0963;0;3.377297;-5.771013;-342.0257;-338.5065;0.2234346;0.1960805;0;
-711.5133;0;-629.8672;0;0.694586;-7.305821;-651.4014;-646.6364;0.1582427;0.0009814108;0;
-393.3954;0;-335.6944;0;2.97204;-2.475831;-336.6547;-331.8945;-0.2317204;0.0009804247;0;
-220.212;0;-165.8798;0;1.427836;-1.4686;-162.5913;-161.8963;-0.1015528;0.06594678;0;
-164.3937;0;-115.176;0;-1.98985;3.288542;-107.7054;-109.26;0.1584186;0.0009131759;0;
371.9395;0;380.2533;0;-3.661814;6.634263;420.0126;418.2722;0.02832471;-0.06405509;0;
672.7894;0;669.1633;0;-7.542901;7.498374;718.7527;714.9526;-0.1016384;0.260846;0;
305.735;0;339.8436;0;-9.678776;10.63904;356.5872;353.478;-0.1665037;0.4554859;0;
128.3918;0;174.0228;0;-7.927738;9.28869;178.2558;180.0848;-0.4911731;0.584963;0;
96.4038;0;143.5507;0;-6.445903;9.748237;146.7175;149.9814;-0.1658428;0.3894731;0;
-397.7572;0;-312.1771;0;-14.14259;16.03459;-338.8109;-336.6123;0.4190299;-0.0007222703;0;
-703.5786;0;-606.7152;0;-15.2001;17.894;-641.6306;-637.4976;0.2237068;0.2591478;0;
-396.6506;0;-334.617;0;-4.668631;13.92415;-338.8878;-335.8209;0.02858003;0.2588874;0;
-232.272;0;-178.734;0;-2.520486;12.43654;-174.1299;-175.189;-0.03641603;-0.2611114;0;
-162.3236;0;-110.0264;0;4.916786;14.70146;-105.6143;-106.9222;-0.2312815;-0.3258164;0;
379.6921;0;391.5197;0;9.198753;12.74418;428.2236;427.5416;-0.1011144;-0.2605217;0;
674.9745;0;675.6707;0;8.854718;11.52569;722.0829;719.2776;0.2238239;-0.06535789;0;
308.9174;0;347.7813;0;12.59686;10.17457;360.2888;358.2361;0.09366433;0.3894792;0;
131.696;0;179.0165;0;3.540901;1.724616;180.8918;183.7136;0.2235049;0.1941858;0;
99.82957;0;147.9147;0;1.729658;-0.6213973;148.851;153.4192;-0.1015564;-0.06587869;0;
-397.4583;0;-311.5656;0;6.550692;-6.783081;-339.5531;-335.3643;-0.231389;0.1290895;0;
-708.5274;0;-620.4096;0;5.136614;-10.05831;-647.4944;-641.6857;0.6134189;-0.1309095;0;
-391.7243;0;-340.6141;0;11.69651;-2.613338;-335.5004;-330.9468;0.4828679;0.06412402;0;
-220.2292;0;-169.4202;0;13.55979;-1.271054;-162.9373;-163.2609;-0.2972254;0.6487657;0;
-162.7242;0;-112.7783;0;7.183156;2.280197;-106.1146;-107.9371;-0.0370574;0.0634077;0;
374.3569;0;380.1497;0;5.634721;5.493086;420.9147;419.5313;0.1578819;-0.3264601;0;
679.9519;0;674.1198;0;5.964828;6.894086;724.0891;720.5207;-0.1021461;-0.00129532;0;
316.3886;0;350.7297;0;2.944724;8.561732;365.2916;361.7267;-0.1670108;0.2585754;0;
141.5959;0;186.0224;0;8.165702;12.23707;187.7011;188.825;-0.2967777;0.3232829;0;
116.7161;0;157.8495;0;10.70309;13.36348;162.4626;165.6468;-0.4913815;0.128056;0;
-388.21;0;-308.5747;0;-9.200983;10.46991;-333.2016;-330.9576;0.02885094;-0.002007343;0;
-711.4072;0;-616.6097;0;-12.20585;10.25844;-652.3937;-648.5278;0.418626;0.1928967;0;
-399.8487;0;-338.8794;0;-8.912029;1.540475;-344.4551;-340.2807;0.4831727;0.1927029;0;
-226.2839;0;-174.6837;0;-11.38132;-2.278978;-169.5717;-170.0867;0.6126218;0.06257457;0;
-160.4021;0;-110.7902;0;3.700665;1.005354;-103.4345;-106.9474;0.2871696;0.127479;0;
378.176;0;384.4472;0;5.505607;-0.06726144;426.4656;423.2061;0.2219137;0.2572856;0;
679.8941;0;673.9152;0;13.20323;-0.2011597;726.2612;721.3183;0.3516254;-0.002842267;0;
317.6427;0;352.3369;0;16.60622;0.06697413;368.8982;364.3976;-0.03853194;-0.1977414;0;
135.4774;0;179.1322;0;5.872264;-0.3349907;184.1202;184.6216;-0.1034606;-0.06760806;0;
101.3584;0;144.4071;0;4.258773;-1.205432;149.2652;151.7025;0.2864474;-0.002572787;0;
-388.4348;0;-307.0112;0;-7.600875;6.297623;-332.8301;-330.2702;0.351127;0.06239714;0;
-699.7004;0;-611.9243;0;-11.27791;8.099834;-641.8401;-637.0964;0.1558721;0.2572365;0;
-390.4024;0;-340.1957;0;-28.41323;4.072842;-336.9731;-332.9839;0.02578082;0.06207597;0;
-221.0326;0;-176.0612;0;-38.29767;5.073493;-166.1577;-166.7327;0.2856243;-0.002953745;0;
-169.1489;0;-122.9109;0;-16.35711;-4.644008;-114.0794;-116.4653;0.2203699;0.3218859;0;
369.1255;0;373.1508;0;-15.13425;-7.8544;414.9569;412.8232;0.1551812;0.2565952;0;
680.0357;0;672.3753;0;-8.554958;-4.698432;723.4471;719.3791;0.2199926;-0.003532038;0;
311.6622;0;344.2393;0;-0.844179;-6.837043;360.0276;356.0885;-0.1050652;-0.1334632;0;
131.8768;0;173.1042;0;-13.6367;1.810381;177.0076;177.6328;-0.364829;-0.3282311;0;
108.256;0;148.2552;0;-12.685;5.492502;152.8418;155.9026;-0.1695604;-0.1329993;0;
-388.5406;0;-315.4108;0;-6.576683;-3.488486;-333.5674;-331.1968;0.02551204;-0.197833;0;
-705.8655;0;-624.4384;0;-7.105938;-3.083083;-647.012;-642.6448;-0.03948093;-0.3925362;0;
-394.0001;0;-338.9541;0;-0.4683416;1.876629;-339.8284;-334.3412;0.02552608;-0.06730507;0;
-223.0025;0;-171.9473;0;0.06799246;3.080436;-167.3235;-166.2146;0.3503371;-0.3271068;0;
-163.5582;0;-114.9906;0;-2.141903;6.962229;-107.8727;-109.3886;0.4799198;-0.1968434;0;
369.9006;0;377.5025;0;-1.603887;8.562824;416.2848;414.8329;0.3495029;0.3230931;0;
670.8774;0;665.853;0;-9.305434;10.8985;714.9037;711.017;0.08928234;0.1928338;0;
312.0084;0;346.5316;0;-8.760221;12.29419;361.0504;357.355;0.2191273;0.387542;0;
133.9717;0;178.2054;0;-16.25351;10.47342;181.5276;181.834;0.08897245;0.3871526;0;
97.60534;0;140.6076;0;-16.83941;10.52976;144.4888;146.1691;-0.4308557;-0.1329751;0;
-394.9952;0;-312.1811;0;-8.718166;6.768256;-340.975;-338.4843;-0.04061871;-0.3927109;0;
-705.3796;0;-610.0925;0;-8.173543;5.02002;-648.3527;-643.1158;0.1543241;-0.06747959;0;
-402.1978;0;-344.1754;0;16.08225;4.211181;-348.8514;-344.4944;0.08920173;0.647229;0;
-229.5678;0;-182.848;0;23.50083;2.063496;-176.15;-176.1702;0.4139488;0.2567746;0;
-165.6191;0;-120.1956;0;28.43371;5.276603;-114.0042;-115.2737;0.1536635;0.1265819;0;
368.0291;0;373.0523;0;36.84523;5.606094;410.097;408.9537;-0.3662296;0.7111608;0;
681.4391;0;674.4008;0;14.10087;1.380658;721.2783;718.0746;-0.1709596;0.3206422;0;
319.6234;0;352.1972;0;10.00087;0.7764247;365.1072;362.0317;-0.2357552;0.125418;0;
125.0249;0;168.0607;0;9.990817;0.4407299;169.401;170.3891;-0.6253223;0.1252919;0;
100.0368;0;140.5931;0;4.55577;-0.8992496;144.7431;147.6667;-0.3648247;-0.1996707;0;
-384.008;0;-305.1367;0;5.220778;3.053525;-330.5385;-327.5553;-0.03962136;-0.19947;0;
-710.1455;0;-617.298;0;0.7275537;3.653303;-653.2315;-648.8146;0.1553205;0.1905344;0;
-399.2754;0;-342.0034;0;10.70716;-0.7041363;-347.0412;-343.0035;0.2201317;0.385245;0;
-216.1535;0;-168.5592;0;13.97893;-1.507224;-163.1597;-163.249;-0.1049261;-0.1348808;0;
-164.2123;0;-117.9777;0;-0.9055724;-4.519941;-110.772;-112.4854;-0.1048207;-0.459582;0;
370.0592;0;373.144;0;-3.048116;-7.060629;415.2;413.8006;-0.1047154;-0.1342835;0;
683.0923;0;672.306;0;4.122242;-2.833732;726.1887;722.5419;-0.2345449;0.2556555;0;
317.7143;0;347.9182;0;4.988756;-2.027089;366.2646;362.4341;0.02556018;0.3203659;0;
133.6749;0;175.9674;0;2.371775;-9.995777;179.99;180.9734;0.4803059;0.1901094;0;
103.868;0;145.4308;0;2.23567;-11.66031;149.3869;152.6807;0.09001923;0.1899183;0;
-388.9262;0;-308.0499;0;6.520331;-7.763702;-334.52;-331.4794;-0.3648426;0.2546948;0;
-703.2523;0;-611.2753;0;7.9203;-7.822885;-645.5273;-640.4284;-0.2995087;0.1245042;0;
-396.5744;0;-342.1711;0;4.69716;-6.006485;-342.6556;-338.249;-0.4291424;-0.2004576;0;
-228.3228;0;-182.7822;0;3.151223;-5.397603;-173.2088;-173.3668;-0.1038745;-0.005354138;0;
-164.5628;0;-120.1924;0;5.291511;-4.722472;-109.4418;-112.0359;-0.2337048;0.51439;0;
378.4547;0;379.9271;0;2.071013;-4.449795;425.1495;422.1208;-0.4933394;0.3189711;0;
686.7318;0;674.8344;0;9.57102;-5.98581;730.5686;725.3565;-0.1030396;-0.3310228;0;
325.473;0;354.317;0;13.17873;-6.78359;373.826;368.744;-0.1679034;-0.3956576;0;
137.053;0;178.924;0;-15.50272;-8.920228;183.7957;183.9662;-0.232702;-0.005455951;0;
107.3676;0;147.4475;0;-21.71644;-9.98287;153.5011;155.9828;0.2223032;-0.07041781;0;
-373.4986;0;-297.9769;0;-16.00119;-14.19276;-318.3535;-317.4985;0.09214512;-0.2002817;0;
-696.9605;0;-611.1449;0;-20.27202;-15.98692;-637.7479;-635.5819;-0.2327842;-0.005178469;0;
-392.7253;0;-341.8534;0;-4.980029;-15.43499;-338.3198;-335.6562;-0.2975176;0.1897288;0;
-212.1712;0;-167.5973;0;-1.357702;-16.35724;-157.1332;-159.2199;0.02761804;0.5143749;0;
-165.3565;0;-121.0772;0;2.796848;-12.85782;-110.8735;-115.1445;0.352427;0.4488907;0;
363.294;0;364.5504;0;11.3005;-11.63921;407.8522;404.4601;0.09220351;0.05863554;0;
684.3924;0;672.4042;0;1.107743;-11.56053;725.7199;720.6445;-0.1027912;-0.1363254;0;
329.0705;0;355.9498;0;7.001128;-10.20925;374.5418;369.7214;0.09221415;0.0587136;0;
141.1466;0;180.3677;0;4.649569;-9.462304;184.3859;183.4434;0.0921215;0.2535566;0;
106.4597;0;145.8288;0;5.716624;-8.046155;149.4056;150.5255;0.02706159;-0.006567507;0;
-382.7764;0;-306.0282;0;30.2259;-9.578678;-330.5658;-328.8849;-0.03793294;-0.07152825;0;
-697.6708;0;-607.569;0;33.81285;-9.636036;-642.0145;-638.2737;-0.1678295;0.05847831;0;
-395.3714;0;-340.1551;0;64.72426;-8.487644;-344.6435;-340.7191;0.2871105;-0.07151514;0;
-224.9971;0;-178.0821;0;80.06457;-9.751669;-173.3206;-172.5861;0.4817241;-0.07144327;0;
-164.4888;0;-116.4341;0;44.21597;-4.182531;-113.3016;-113.8796;0.09143596;0.05856319;0;
366.722;0;372.1249;0;40.55519;-3.039619;409.0498;408.5973;-0.4283946;-0.07143033;0;
677.4471;0;668.9766;0;45.13614;-10.27048;718.7329;715.7821;-0.4279642;-0.1363259;0;
323.9438;0;355.8365;0;41.47346;-11.2649;370.4354;367.6125;0.2221392;0.1236805;0;
131.9022;0;174.5698;0;33.32747;-15.8083;175.6609;178.2132;0.2868834;0.2534909;0;
103.8462;0;144.0347;0;28.27014;-18.40475;147.1861;152.3595;-0.3630783;0.3182035;0;
-376.2669;0;-298.0129;0;33.19822;-16.2428;-324.0375;-319.1192;-0.2977461;0.1229817;0;
-709.721;0;-618.1149;0;30.88769;-17.29821;-654.5456;-647.071;-0.1675123;0.05789081;0;
-404.286;0;-348.5665;0;40.30112;-14.93643;-354.1011;-346.9464;-0.2972786;-0.007134697;0;
-212.8508;0;-166.3077;0;42.33673;-14.25171;-161.6543;-160.2539;-0.1020779;-0.007127529;0;
-167.2223;0;-120.5385;0;37.80622;-14.50532;-116.5145;-117.1145;-0.23191;-0.1370551;0;
358.3691;0;362.0901;0;37.16599;-13.95488;398.5312;399.4311;-0.426579;-0.5267214;0;
685.8442;0;674.7564;0;35.05157;-14.8785;723.1549;722.0549;0.223523;-0.2663228;0;
327.7722;0;357.9873;0;35.35114;-15.13148;371.7296;369.8185;0.4182004;0.05878154;0;
133.1031;0;176.1563;0;15.82444;-15.65214;176.1417;178.293;0.1579109;0.1236898;0;
105.2333;0;146.8064;0;8.775942;-15.97133;147.2916;152.7516;0.2227196;0.3184676;0;
-381.6278;0;-303.8022;0;15.19651;-18.36666;-330.6787;-325.2867;-0.03737361;-0.07165649;0;
-704.5193;0;-617.6515;0;10.42582;-19.41994;-649.9983;-643.4247;-0.1672707;-0.07158449;0;
-398.34;0;-346.9791;0;24.41416;-19.33344;-347.6218;-341.9294;-0.2970374;0.3182915;0;
-220.4664;0;-173.9672;0;28.47547;-20.18467;-167.4879;-167.1735;-0.4266736;-0.006865036;0;
-166.2096;0;-118.6951;0;15.85455;-17.55218;-113.6591;-115.6564;-0.1014081;0.1230766;0;
361.0675;0;364.244;0;16.03969;-16.66376;404.3823;401.9497;-0.0363389;-0.07194915;0;
678.9197;0;666.6008;0;12.74202;-17.78573;719.255;714.6385;0.02866495;-0.7215502;0;
331.4119;0;358.5855;0;10.3847;-16.89708;376.3918;372.467;0.2235382;-0.3310212;0;
143.0484;0;182.0013;0;14.25903;-18.75562;187.6082;187.623;-0.2964252;0.3189848;0;
114.5439;0;152.7705;0;13.44042;-19.33962;159.4963;161.0102;-0.426062;0.1887296;0;
-369.2655;0;-297.2194;0;17.78117;-15.56915;-316.7372;-315.5371;0.4839089;-0.2012641;0;
-703.7262;0;-623.694;0;21.71542;-15.35255;-648.3146;-646.0537;0.54839;-0.2660292;0;
-399.7965;0;-351.0166;0;11.84698;-13.05983;-348.2512;-347.0545;-0.1018344;-0.07085984;0;
-212.3013;0;-167.6933;0;13.17523;-11.43912;-159.4335;-163.4229;-0.03676478;-0.07078864;0;
-174.9192;0;-129.3565;0;15.03702;-16.71915;-121.4798;-128.1514;0.0282395;0.1241845;0;
348.2437;0;352.8436;0;13.41432;-16.83632;392.2591;386.1564;-0.3615929;0.1890271;0;
684.3497;0;675.5767;0;37.98322;-19.29777;724.7601;716.9769;-0.1663276;-0.1359996;0;
327.4661;0;359.1816;0;44.7102;-21.62266;373.5206;365.3704;-0.03622575;0.1240065;0;
129.4864;0;171.9146;0;38.70343;-12.02262;173.7455;170.5385;-0.166124;0.3187839;0;
105.993;0;144.2557;0;42.41558;-9.599153;148.5835;148.8779;0.02894491;-0.07134049;0;
-377.4331;0;-300.978;0;26.29804;-14.88104;-327.0143;-326.7202;0.02891582;-0.2661708;0;
-703.7021;0;-611.1445;0;18.9706;-14.06241;-650.7104;-648.5424;-0.1010479;-0.200936;0;
-400.2722;0;-343.852;0;29.73518;-15.18687;-351.5191;-349.041;-0.1009464;-0.2657015;0;
-220.0854;0;-174.2166;0;26.89226;-16.04239;-169.1949;-171.4669;-0.490649;-0.3304018;0;
-167.8904;0;-121.2556;0;18.02398;-9.596028;-116.5512;-121.1948;-0.6200907;-0.005233149;0;
356.0775;0;358.5002;0;16.19721;-7.777969;397.4326;395.1675;-0.3595982;0.1896742;0;
676.1837;0;663.0492;0;1.84634;-11.58806;713.8115;710.2994;-0.2942696;-0.2652878;0;
328.9284;0;357.4112;0;-3.848942;-11.37547;371.1411;366.5706;-0.1640392;-0.2000539;0;
136.9443;0;179.7662;0;4.728741;-10.76119;177.3654;177.6095;0.1609623;0.1899511;0;
105.4474;0;143.4787;0;3.050026;-11.15228;145.3907;148.6955;0.03086591;0.1247929;0;
-378.4778;0;-306.6892;0;11.7545;-9.198564;-328.8921;-325.7155;-0.09909979;0.1896349;0;
-711.7423;0;-624.3463;0;14.7568;-9.457253;-658.7081;-653.1609;0.2908038;-0.0054577;0;
-407.2423;0;-355.7911;0;11.66051;-9.849648;-359.6962;-353.3425;0.355479;-0.2003542;0;
-214.4299;0;-174.2122;0;14.19439;-10.37561;-165.5572;-163.2079;-0.03468226;-0.1351856;0;
-167.6128;0;-124.2496;0;6.945483;-11.57088;-118.0396;-117.9416;-0.09961475;-0.005115064;0;
353.1689;0;355.1968;0;7.139575;-11.55925;393.0721;393.9197;0.03042003;0.1248248;0;
682.2734;0;667.0579;0;2.309629;-17.37503;718.8257;717.9233;0.2252915;-0.005235349;0;
329.3275;0;353.8573;0;-0.5721033;-18.76422;370.778;368.9395;0.2900324;0.05973725;0;
129.4093;0;167.3453;0;13.29357;-17.47269;170.1311;172.6048;0.1598063;0.05967723;0;
106.5408;0;141.8773;0;15.89218;-18.05798;147.4715;153.0036;0.09467843;-0.005350077;0;
-370.7015;0;-299.6683;0;16.74687;-11.67657;-321.566;-316.1643;0.02961595;0.05962264;0;
-707.9093;0;-628.1395;0;18.8735;-8.851681;-656.1995;-649.1166;-0.2302832;-0.1353393;0;
-404.6626;0;-361.517;0;22.40451;-10.31629;-357.8773;-351.3013;-0.4249538;-0.2001707;0;
-213.1645;0;-174.3727;0;25.93197;-8.899282;-165.7391;-163.9798;-0.4245268;-0.2649369;0;
-171.2213;0;-129.5324;0;14.51906;-5.675281;-124.2808;-124.3973;-0.0342962;-0.4595726;0;
348.752;0;349.3571;0;12.62943;-5.066732;387.2745;387.2831;0.2256076;-0.06930684;0;
683.2957;0;669.7823;0;15.96565;-2.047531;720.0304;717.4777;0.09544626;0.1256648;0;
339.0318;0;364.325;0;14.81053;-0.7058151;379.9774;377.5523;0.1603177;-0.2642655;0;
139.104;0;175.7411;0;16.33686;-7.537243;178.3843;180.4593;0.3550586;-0.458902;0;
108.8544;0;142.7685;0;13.97592;-8.936189;148.6574;152.4795;-0.1000695;-0.2635388;0;
-367.7655;0;-297.5912;0;16.77492;-8.6594;-319.3818;-316.2507;-0.2299037;-0.1983067;0;
-704.2267;0;-620.1299;0;11.86794;-8.985492;-652.1434;-647.7662;-0.03477062;-0.00320542;0;
-409.0421;0;-359.2001;0;20.09504;-12.32561;-360.9467;-357.0735;-0.3595724;0.06176514;0;
-220.0384;0;-181.5533;0;21.34765;-13.85383;-171.679;-172.6823;-0.2292764;-0.2631336;0;
-173.8404;0;-135.4565;0;-8.949599;-6.003031;-125.4671;-129.4054;0.03082333;-0.1979019;0;
348.197;0;346.9372;0;-12.89272;-4.791306;388.0259;384.8412;-0.3590117;-0.1327357;0;
685.4274;0;668.9891;0;-42.95449;1.308833;721.5307;716.7874;-0.4236183;-0.1975697;0;
335.4143;0;357.9728;0;-59.92427;6.19715;376.0415;370.9282;-0.09835593;0.1924329;0;
134.4281;0;169.8326;0;-13.98184;-2.583719;174.015;173.5295;-0.2281918;0.5820436;0;
120.9872;0;152.9203;0;-7.872225;-1.308447;160.5343;162.1733;-0.3578972;0.5164914;0;
-359.3929;0;-289.6984;0;-14.09361;-2.84774;-310.6402;-310.2523;-0.0976682;0.2561031;0;
-710.6051;0;-625.0511;0;-7.649083;-4.787262;-658.653;-656.3914;0.292234;-0.1339583;0;
-404.3571;0;-355.9955;0;-8.17726;8.345838;-358.2668;-355.133;0.3569077;-0.2637584;0;
-208.9239;0;-170.9806;0;-4.61907;10.68185;-161.2557;-162.6852;0.03171236;0.06134335;0;
-171.7325;0;-132.9528;0;-7.160025;12.14462;-122.9878;-127.4768;-0.3581235;0.2561837;0;
351.9269;0;348.0016;0;-7.956137;15.81648;391.0649;386.8928;-0.3577637;0.06102429;0;
694.7758;0;675.6121;0;-3.46114;5.016581;730.2513;724.3342;0.03239983;0.1259303;0;
347.8767;0;368.5247;0;-1.983794;2.734121;388.5015;382.5903;-0.03260007;0.1258038;0;
146.2533;0;180.8111;0;-13.16758;7.621006;185.5879;185.1174;-0.162502;-0.06922465;0;
117.4333;0;150.582;0;-16.16846;6.273811;156.2286;158.8196;0.162498;-0.06915509;0;
-363.4431;0;-294.6581;0;-8.717478;6.6023;-316.6283;-314.2273;0.4222041;0.06084908;0;
-696.4103;0;-613.0143;0;-9.043511;5.791993;-647.1439;-642.8088;0.1619105;0.1907226;0;
-396.6734;0;-347.9688;0;-1.599685;6.255054;-353.0161;-348.4355;-0.2930236;0.190531;0;
-209.931;0;-173.5192;0;2.487759;6.985458;-165.443;-164.9899;-0.3576965;0.1253722;0;
-162.9935;0;-126.3684;0;-3.409238;1.619927;-117.6757;-119.2221;-0.2274024;0.06027888;0;
354.4727;0;350.8937;0;-2.535156;1.484333;391.1243;389.642;-0.09723923;-0.2646184;0;
689.0107;0;669.6307;0;-0.4555283;0.07632224;722.3771;719.2097;-0.2270762;-0.06945048;0;
347.927;0;368.7338;0;-0.8572122;-1.263413;386.4448;383.6553;-0.3567827;0.1904887;0;
144.367;0;178.7711;0;1.890315;7.445394;181.1595;182.8705;0.03337982;-0.2644741;0;
119.1096;0;150.7929;0;1.084133;9.045503;154.8031;158.5114;0.4231503;-0.2642084;0;
-357.1458;0;-287.0136;0;4.901437;11.31383;-312.9924;-309.2878;0.4876925;-0.06904088;0;
-705.9864;0;-626.6168;0;7.775924;13.71373;-658.1293;-652.7417;0.3572678;-0.3288409;0;
-403.2413;0;-366.9924;0;-6.766576;8.274454;-359.8051;-355.36;-0.03289526;-0.3285105;0;
-199.3134;0;-168.5357;0;-7.897877;7.663293;-154.7964;-154.6037;0.03210513;-0.003343659;0;
-169.628;0;-131.26;0;-7.889941;5.71321;-124.0937;-126.5873;0.1620076;0.06162704;0;
341.0359;0;338.4483;0;-10.49496;3.764964;377.279;374.9753;-0.2279593;-0.1333369;0;
696.3269;0;676.8755;0;7.868668;3.694198;728.4107;725.1723;-0.09779555;-0.1332029;0;
349.7386;0;370.5365;0;12.14767;1.881947;387.1;383.6775;0.2921068;-0.2630038;0;
135.6821;0;169.9523;0;13.20719;3.219715;171.8191;171.8982;0.3567806;-0.1977722;0;
115.6808;0;147.9175;0;16.67654;3.149497;151.4691;153.2972;0.2914548;0.1922306;0;
-357.6976;0;-289.5113;0;12.90874;0.6011027;-311.7004;-310.3113;0.4210966;0.4519068;0;
-699.1664;0;-627.1755;0;13.23154;0.4665328;-648.7177;-645.4559;0.3557061;0.3215181;0;
-405.4861;0;-371.7359;0;6.586813;0.1981323;-359.4609;-356.5148;0.225414;0.06132564;0;
-216.6109;0;-180.0211;0;4.034599;0.5998309;-168.9453;-171.2495;0.2251875;-0.003703328;0;
-166.3559;0;-125.6174;0;-1.930326;0.5322452;-118.2384;-123.6637;0.1599939;-0.1336343;0;
350.614;0;347.0837;0;-7.019577;0.7326592;389.3753;384.0804;-0.1650035;-0.523304;0;
685.2183;0;667.6362;0;1.628641;4.482845;721.1921;713.6536;-0.2947724;-0.4578109;0;
350.3853;0;370.9266;0;1.693377;5.483085;391.6952;384.1018;-0.03460687;-0.1325142;0;
150.8833;0;182.8358;0;0.4198537;8.290736;191.3396;187.8143;0.1603299;0.1924557;0;
119.3725;0;150.6682;0;2.026046;10.29189;159.101;157.7031;0.3550709;-0.1325744;0;
-359.0071;0;-288.8874;0;-1.793407;6.195716;-311.0102;-312.0318;0.5496161;-0.7171472;0;
-698.663;0;-617.1194;0;-1.791605;5.988542;-646.9661;-645.6129;0.2891945;-0.4565573;0;
-396.2376;0;-354.3187;0;2.296032;4.374934;-348.9655;-346.9265;-0.4257369;0.06364016;0;
-199.8754;0;-165.8697;0;4.63825;2.227084;-150.9642;-153.2376;-0.2953744;0.1935109;0;
-168.3778;0;-129.846;0;1.61948;7.181461;-118.8286;-123.0987;0.3545958;0.3232512;0;
341.9099;0;340.4231;0;2.421159;7.576143;381.4144;378.5854;0.09437014;0.3229263;0;
693.1396;0;677.2866;0;10.65775;3.348727;729.5435;724.0936;0.09427532;0.2576346;0;
347.554;0;371.2595;0;14.39808;3.27838;389.7933;384.4739;0.2241153;-0.3273304;0;
133.5622;0;172.1738;0;14.98585;-1.614546;174.3847;174.6303;-0.165914;-0.2620342;0;
118.9978;0;152.0109;0;17.44904;-4.29212;159.6543;161.7113;0.0941221;0.3879026;0;
-346.8252;0;-291.419;0;19.30752;2.142311;-297.339;-295.534;0.3538969;0.1926108;0;
-694.2394;0;-627.8945;0;18.75226;2.341107;-642.679;-638.3146;0.02870459;-0.1973868;0;
-403.5626;0;-361.8969;0;25.90071;1.066201;-357.1764;-352.8788;0.1586104;-0.2621559;0;
-206.6309;0;-171.4413;0;26.07575;1.600871;-159.1044;-158.9965;0.2883857;-0.1969251;0;
-158.1975;0;-120.607;0;20.69092;-1.347865;-111.0311;-113.1722;0.1581613;0.06314214;0;
353.8916;0;352.0891;0;20.33534;-1.413493;391.7028;389.5638;-0.1668343;-0.06685599;0;
690.929;0;672.1992;0;1.492333;-2.885697;725.7037;721.4429;-0.2316341;-0.1967235;0;
349.406;0;369.738;0;-5.742835;-3.284695;388.9559;384.8868;0.4182721;0.1283109;0;
145.4698;0;179.0871;0;-2.589233;-1.003975;183.2307;183.726;0.5477865;0.06321461;0;
126.0833;0;158.6674;0;-7.945266;-0.4671029;162.9942;165.1756;0.2223994;-0.1317509;0;
-348.6174;0;-276.2111;0;1.97668;3.016357;-303.0604;-301.1311;0.2221759;0.1282508;0;
-697.0917;0;-609.8282;0;3.381213;4.821865;-647.3951;-643.7811;0.4168547;0.3879913;0;
-399.2906;0;-350.408;0;-2.315612;5.95573;-353.5795;-350.219;0.2215338;0.06276476;0;
-203.4877;0;-166.3358;0;-1.241558;7.892129;-156.5731;-157.5262;0.0264092;-0.1971677;0;
-172.861;0;-132.2482;0;-7.202157;5.740867;-124.7441;-128.1327;-0.03858468;-0.06703488;0;
334.7451;0;336.2118;0;-9.069955;5.400184;374.193;371.3701;-0.2984153;-0.002000179;0;
687.6063;0;671.0805;0;-1.827173;7.270158;722.5792;717.8226;-0.1681807;0.1279365;0;
346.0867;0;367.6209;0;1.457193;6.392075;386.1469;380.2706;0.02689027;-0.002126721;0;
134.0953;0;169.6633;0;-11.53872;7.591344;173.553;172.4928;-0.2330061;0.06284276;0;
120.7797;0;153.6258;0;-14.80965;7.047853;159.5731;161.7623;-0.03786996;0.517551;0;
-353.0411;0;-283.8712;0;2.08444;3.289849;-304.9788;-303.3541;0.4819068;-0.002707766;0;
-705.6339;0;-626.1638;0;3.891007;2.214817;-654.0593;-650.5621;0.4164553;-0.1326397;0;
-406.6998;0;-364.0411;0;8.106656;-3.949717;-360.4243;-356.9307;0.2211348;0.2572976;0;
-207.4536;0;-169.5229;0;12.38542;-7.361755;-159.7878;-161.2327;0.02601056;-0.002830302;0;
-163.2673;0;-124.0003;0;-0.6214717;-4.675041;-115.7119;-119.4041;-0.1039503;-0.1977295;0;
346.3907;0;344.2015;0;-2.228438;-6.478883;384.1532;381.2767;-0.03887847;0.1922733;0;
684.2476;0;667.3181;0;-3.832813;-4.864782;719.6609;714.0387;-0.2987088;0.5169168;0;
348.7284;0;368.4224;0;-6.91042;-4.52498;389.9781;383.2371;0.02642808;0.3864627;0;
143.8558;0;174.9618;0;-3.420852;-7.132767;183.1275;181.5157;0.09136887;-0.06869704;0;
121.3475;0;150.923;0;-4.555515;-5.98689;159.2679;160.4688;-0.298527;-0.3284974;0;
-346.7892;0;-279.6373;0;-1.403106;-11.87525;-299.599;-298.4618;-0.03835766;0.1266041;0;
-701.5747;0;-625.9321;0;0.004823719;-13.06901;-649.8093;-646.6742;0.09161556;0.06150953;0;
-421.1354;0;-382.0505;0;-3.344084;-6.558657;-373.3575;-369.8508;0.1564908;-0.7181603;0;
-220.8752;0;-182.6416;0;-3.005931;-6.083186;-173.0204;-172.9529;0.2213009;-0.3276347;0;
-173.8642;0;-133.1079;0;-3.203981;1.290805;-126.8696;-129.301;0.1561112;0.06249855;0;
339.2401;0;335.2905;0;-3.401833;4.906586;377.1296;374.6382;-0.1688823;-0.1974336;0;
693.5959;0;673.1586;0;-3.599485;0.3469387;728.3864;723.961;-0.3636146;-0.06730055;0;
356.0059;0;375.9437;0;-4.801317;1.552161;395.4465;390.6507;-0.298282;-0.2621349;0;
142.3179;0;178.7274;0;-0.5095853;-0.5927306;180.407;180.2388;-0.6228189;-0.5217409;0;
121.8101;0;155.1846;0;0.3615828;-1.797828;160.1109;162.6289;-0.2973564;-0.391282;0;
-351.7618;0;-283.8757;0;-5.533278;1.553003;-304.9413;-302.7382;0.09274641;-0.1959868;0;
-707.4169;0;-622.5451;0;-6.800517;1.350494;-657.5825;-653.1951;0.02768587;0.1940142;0;
-412.6039;0;-363.1122;0;-7.194849;0.9473615;-367.6922;-362.9969;-0.03730929;0.4536886;0;
-207.5422;0;-172.1556;0;-8.460417;1.080375;-163.2378;-162.2953;-0.3621085;0.1933634;0;
-169.6651;0;-133.5645;0;-6.643255;-0.9971811;-125.2803;-126.2753;-0.2967773;0.1282017;0;
339.4996;0;333.7099;0;-5.431131;-1.599025;376.0937;374.0377;0.09332493;0.322975;0;
689.4199;0;665.9575;0;-10.04737;-1.061555;723.0412;718.551;-0.03670352;0.4525851;0;
351.1468;0;367.6254;0;-10.10463;-1.261437;389.1696;385.4336;0.0283007;0.5170977;0;
145.0224;0;174.2905;0;-3.530391;-0.05447717;181.8826;182.2107;0.1582069;0.3216761;0;
122.2631;0;148.9406;0;-1.11497;0.8163557;158.399;161.3505;-0.03685405;-0.003483866;0;
-352.6212;0;-287.7397;0;3.173058;-1.059987;-308.4006;-304.3276;0.02815033;-0.133415;0;
-703.4653;0;-627.2797;0;7.188358;-0.9919387;-655.8534;-650.0353;0.02812204;-0.1982483;0;
-415.8402;0;-378.2118;0;3.899581;0.4826825;-373.2111;-368.2735;-0.4916449;0.1267876;0;
-215.0231;0;-185.3036;0;3.024031;0.1472829;-171.4373;-172.5642;-0.3612162;0.1266602;0;
-169.2049;0;-135.8297;0;16.41758;3.295211;-124.9134;-129.2874;0.02895074;0.1265329;0;
339.6469;0;333.2586;0;20.15213;3.425865;375.2733;371.9031;-0.1659804;0.3213078;0;
688.0678;0;666.1937;0;5.529842;3.288457;720.2226;715.9813;-0.1008463;0.320985;0;
347.9221;0;366.0499;0;1.63952;4.088948;385.7917;381.3672;0.2890591;0.1257604;0;
136.1787;0;168.7186;0;5.857431;-2.479366;173.3231;173.7132;0.02889931;-0.004300658;0;
127.6711;0;157.1797;0;3.57437;-3.012738;163.3414;167.1044;-0.1660317;0.1256384;0;
-335.4745;0;-269.3889;0;-4.868339;-8.100291;-291.3443;-288.2097;0.1589718;0.1904795;0;
-699.7666;0;-619.8793;0;-9.150355;-11.17325;-652.3074;-647.2396;0.09384471;0.1253207;0;
-417.1426;0;-372.1307;0;-8.672647;-1.784652;-374.1665;-368.2291;-0.03618427;0.1251948;0;
-210.2023;0;-174.5434;0;-10.94111;-2.117773;-165.6451;-164.0241;-0.03614791;-0.004865692;0;
-170.7608;0;-134.8879;0;-10.12681;4.716492;-125.5612;-127.3776;-0.1010789;0.2550086;0;
334.5319;0;330.7012;0;-8.240622;7.591897;370.8779;368.8135;0.02895732;0.189785;0;
690.4542;0;669.1986;0;-20.28878;-1.659132;722.7032;719.2666;-0.1659738;0.05965961;0;
353.7418;0;368.7393;0;-24.22051;-2.46126;390.5811;386.9606;-0.5556111;-0.07033502;0;
143.4918;0;171.4053;0;-2.76261;-8.688078;179.1698;179.9256;-0.2951834;-0.3951011;0;
128.3552;0;152.9298;0;2.799871;-11.82742;162.7479;166.5639;0.2248519;-0.1348347;0;
-339.6011;0;-282.0678;0;-5.843131;-12.15045;-297.1845;-293.7471;0.02972394;0.06020281;0;
-696.0805;0;-630.8589;0;-4.029574;-14.34856;-649.6461;-645.2751;-0.36011;0.06014232;0;
-415.147;0;-381.475;0;-1.613652;-11.32003;-372.2574;-368.3281;-0.4247155;0.3199513;0;
-216.6419;0;-183.0663;0;-0.4739306;-11.24168;-173.1708;-173.4308;-0.3593214;0.1896951;0;
-184.1279;0;-148.0873;0;0.3308288;-7.613423;-140.8879;-143.8338;-0.09909096;-0.07036489;0;
323.3646;0;316.0158;0;0.9337088;-5.663269;357.6281;354.9975;-0.2938934;-0.1352615;0;
694.4155;0;667.1466;0;0.1958364;-5.322663;724.4592;721.2065;-0.5534675;-0.3300276;0;
359.5732;0;371.3746;0;-0.4749218;-3.240966;394.2094;391.7097;-0.09813996;-0.2647287;0;
140.7592;0;167.8535;0;4.549397;-6.586734;175.0483;177.486;0.2267954;-0.1994953;0;
133.4963;0;155.2536;0;6.420836;-6.848048;167.5636;172.5601;0.3565021;-0.1992949;0;
-332.2787;0;-273.3745;0;0.1177449;-5.09961;-289.6876;-286.1953;0.2262093;0.06077473;0;
-703.5081;0;-632.9814;0;-0.8203785;-5.295435;-657.0867;-652.5359;0.09604727;0.125681;0;
-418.9439;0;-385.3445;0;1.993485;-3.81649;-376.9419;-372.3958;0.2258855;0.1255547;0;
-210.5025;0;-179.1858;0;1.321897;-3.276913;-168.043;-168.1241;-0.09917823;0.3203306;0;
-179.8063;0;-144.1483;0;5.071612;-5.349969;-136.7647;-138.8448;-0.5538499;0.2550414;0;
327.1821;0;319.701;0;6.271966;-6.215372;361.6223;360.0441;-0.4233588;-0.005084256;0;
694.7934;0;670.5157;0;0.3047923;-1.051563;726.0131;721.7503;-0.357966;-0.3299159;0;
354.7034;0;368.2436;0;-1.771619;1.15993;391.4513;386.943;-0.292639;-0.264617;0;
132.2711;0;160.0406;0;2.248649;-7.146997;167.7952;168.2264;0.2273938;-0.0694491;0;
126.8283;0;153.4455;0;2.380112;-8.948233;161.005;163.4972;0.1621979;-0.1343467;0;
-329.5697;0;-274.4312;0;-4.252736;-3.245936;-287.6189;-285.0667;-0.2277691;-0.1342117;0;
-695.3046;0;-633.8496;0;-5.990751;-3.912382;-649.2729;-644.3495;-0.5523769;0.06082521;0;
-417.058;0;-384.9625;0;-5.515241;0.6462666;-375.258;-369.9647;-0.6167892;0.3856008;0;
-211.1172;0;-182.6772;0;-6.380355;3.190847;-169.6716;-168.5065;0.1634386;0.125344;0;
-168.7388;0;-137.7037;0;-4.632632;-5.452914;-127.8345;-128.9195;0.4231437;-0.1996187;0;
335.7398;0;327.8258;0;-3.556251;-5.782349;367.545;367.1483;-0.03205281;0.190386;0;
688.475;0;663.8273;0;-4.222262;-5.642573;717.0623;714.6045;0.2928161;-0.004707366;0;
354.9505;0;369.0581;0;-3.482062;-6.105784;388.3817;385.489;0.4224566;-0.1996047;0;
139.5769;0;169.9747;0;-0.1960332;-3.085539;172.912;173.8954;0.09719536;0.1254326;0;
123.0074;0;150.751;0;0.6074709;-3.752146;156.5589;159.9775;0.2919997;0.06033923;0;
-333.137;0;-270.189;0;3.88939;6.29882;-292.5602;-288.6453;0.4866084;0.125246;0;
-695.0576;0;-618.6797;0;4.957209;9.641516;-650.7736;-645.6132;0.2912174;0.3200221;0;
-417.8107;0;-380.3026;0;1.938118;2.397793;-376.3823;-371.352;-0.1638466;0.4496353;0;
-206.9967;0;-179.771;0;1.199236;2.52935;-164.7977;-164.5201;-0.03374731;0.1243468;0;
-180.9267;0;-147.3566;0;-0.6106298;-1.157131;-138.5827;-140.6168;-0.1636481;-0.3955169;0;
314.6936;0;309.4994;0;-1.212253;-3.031491;348.2494;347.8416;-0.7481897;-0.3301522;0;
692.6872;0;669.3824;0;-8.244609;-5.104794;723.0234;720.3671;-0.2276992;-0.1998858;0;
357.9716;0;375.2947;0;-11.25043;-7.97993;394.1493;390.1839;0.1623336;-0.1347176;0;
129.4766;0;164.0237;0;-6.416358;-3.149263;164.9933;166.3417;0.2271379;0.06031982;0;
130.0961;0;160.1107;0;-7.280568;-2.878167;163.828;168.3609;0.1619423;-0.004708127;0;
-327.9295;0;-270.3963;0;-4.928727;-5.085589;-286.1105;-282.7066;0.03184489;-0.3295401;0;
-702.1617;0;-635.8783;0;-5.124846;-4.276684;-656.1994;-651.9243;0.09678023;-0.4591436;0;
-417.6613;0;-379.9926;0;-2.374006;-7.889465;-377.055;-372.2845;-0.4880231;-0.06887826;0;
-206.535;0;-173.9017;0;-0.5629594;-8.88616;-166.3444;-164.7645;-0.4875327;0.2560277;0;
-170.3456;0;-137.5577;0;-11.74818;-4.188548;-129.6956;-130.4911;0.09766323;0.1908031;0;
327.4504;0;319.5383;0;-14.28197;-3.514632;359.0017;357.4573;-0.487141;0.4504807;0;
683.9421;0;657.2349;0;-15.07092;-4.046842;711.3387;707.3596;-0.4866515;0.5149954;0;
356.2317;0;368.157;0;-17.60138;-3.975793;388.036;384.5607;-0.09635846;-0.07022814;0;
144.1052;0;171.0109;0;-13.49785;-3.168124;174.5658;176.0289;-0.2911637;0.0597771;0;
128.9679;0;149.7247;0;-12.27884;-3.097958;158.4609;162.1714;-0.1609364;0.5144885;0;
-331.6177;0;-274.65;0;-16.01657;-4.501365;-294.2209;-290.514;0.03412732;0.4490041;0;
-686.9807;0;-610.6425;0;-16.40262;-4.630808;-646.1232;-639.7964;-0.09584165;-0.006218427;0;
-411.4286;0;-369.2749;0;-8.682981;-9.381821;-374.5477;-368.6645;-0.09574535;-0.1361469;0;
-213.8643;0;-182.7475;0;-6.86657;-11.38188;-175.2088;-175.2661;0.03428554;0.253794;0;
-177.5425;0;-143.1461;0;-6.122737;-8.557284;-138.3013;-141.4819;-0.355553;0.1236043;0;
320.3857;0;313.2059;0;-4.375272;-9.218393;350.7794;348.2892;-0.225261;-0.1363893;0;
687.8788;0;659.1546;0;-9.126298;-6.86485;714.8688;711.2566;0.1647694;0.2535518;0;
358.4779;0;368.2632;0;-9.51927;-5.183379;391.2503;387.3293;-0.2252002;0.1883297;0;
134.9799;0;160.9347;0;-11.1173;-10.20177;166.9697;167.2381;-0.3549086;-0.1366962;0;
135.1566;0;158.2742;0;-11.64199;-10.59342;165.4901;168.9441;-0.15965;0.05834315;0;
-319.1259;0;-259.4874;0;-12.90211;-6.898832;-280.702;-277.064;-0.09452224;0.1882192;0;
-696.5529;0;-622.9189;0;-14.09557;-6.22207;-654.1696;-649.1609;-0.2243619;0.1230628;0;
-422.4279;0;-384.5375;0;-7.583699;-3.938399;-383.5854;-379.0816;-0.8088426;0.1229391;0;
-212.7337;0;-183.6269;0;-6.638073;-2.393956;-172.3685;-172.3045;-0.6780952;0.1877829;0;
-174.1017;0;-142.7753;0;-1.742259;-2.257585;-133.9645;-135.7121;-0.0277404;0.05765953;0;
327.3213;0;319.261;0;1.809465;-0.5807429;357.9854;357.8012;-0.09267987;-0.3322025;0;
692.5586;0;667.5775;0;-7.234684;-2.924562;719.1315;717.4482;-0.09258674;-0.007031951;0;
366.7137;0;380.2383;0;-8.500212;-3.323521;398.4447;396.3884;0.1024083;0.3827792;0;
147.2678;0;175.8962;0;-5.812353;0.4978457;179.5292;182.2225;-0.352466;-0.1373442;0;
130.0034;0;154.6051;0;-7.079311;0.09544784;161.9825;167.2344;-0.7419159;-0.3970755;0;
-326.8351;0;-264.7146;0;-5.7994;3.243428;-286.8297;-282.1454;-0.4163337;-0.2667419;0;
-688.1375;0;-609.2753;0;-5.860921;3.843015;-644.674;-639.3072;0.2337581;-0.2015065;0;
-418.4562;0;-377.3418;0;-8.935515;-3.193932;-380.5962;-375.9843;0.3634579;0.05856532;0;
-214.7629;0;-185.6838;0;-9.864542;-6.003884;-176.3787;-175.8944;-0.1566461;0.1884412;0;
-175.7541;0;-143.3934;0;-7.844898;-6.600698;-136.3465;-137.237;0.168348;-0.1365849;0;
324.3587;0;317.3317;0;-6.765288;-9.005329;354.2939;354.4038;0.1681789;0.05845437;0;
701.5305;0;675.0828;0;-11.11275;-13.48414;727.2503;724.424;-0.3517288;-0.006571705;0;
370.7415;0;381.864;0;-11.63744;-15.47995;401.3705;397.4851;-0.1564734;-0.2664345;0;
137.7359;0;164.277;0;-7.740985;-20.15308;166.71;168.3257;-0.09134883;0.1886047;0;
139.8464;0;163.05;0;-8.134373;-22.74517;167.7294;172.6543;-0.02628969;0.2533825;0;
-315.3154;0;-262.4626;0;-1.562116;-16.89492;-278.3401;-274.2946;0.2985734;-0.07170884;0;
-701.2419;0;-640.0089;0;0.3818371;-15.67225;-659.7435;-653.8281;-0.02656329;0.0582979;0;
-422.7394;0;-392.0526;0;-5.245601;-15.79047;-386.2802;-379.1214;-0.5462753;0.188174;0;
-206.2358;0;-178.5783;0;-6.244708;-14.10003;-170.313;-167.2218;-0.4807591;0.1879849;0;
-177.9801;0;-145.4155;0;-9.788406;-12.81331;-140.8441;-140.4421;0.1693974;0.05786135;0;
320.0734;0;312.563;0;-12.79268;-11.25983;349.3636;348.8906;0.3641292;0.1227706;0;
696.9372;0;669.257;0;-13.9189;-10.17678;722.6373;719.1663;0.03892662;0.2525819;0;
373.3992;0;383.7902;0;-16.11474;-9.228798;404.071;401.1031;-0.02607983;0.05742606;0;
150.4484;0;176.6335;0;-17.03656;-7.679039;179.3402;181.4353;-0.09102096;-0.007598986;0;
137.8035;0;161.526;0;-15.81399;-6.264682;165.4794;169.6339;-0.1558968;-0.00759135;0;
-317.7935;0;-258.3628;0;-18.34272;-9.875343;-282.5868;-278.6239;-0.1557402;-0.1375184;0;
-691.2863;0;-622.4201;0;-13.83729;-10.87016;-652.6791;-647.0336;0.03931831;-0.007445544;0;
-426.287;0;-397.4075;0;-14.62669;-7.443235;-391.9666;-386.7015;0.2341808;0.187464;0;
-216.464;0;-194.8598;0;-11.06202;-8.038602;-182.1155;-181.0411;0.2339455;0.3172103;0;
-173.6429;0;-145.6261;0;8.373902;-6.690866;-138.3294;-138.0057;0.3636451;0.05702218;0;
323.0945;0;310.3536;0;13.38835;-6.818109;350.1266;351.7618;0.2333451;-0.2678718;0;
692.8963;0;658.804;0;42.5126;-8.2179;715.2161;712.6643;-0.2866281;-0.137668;0;
370.3618;0;375.7214;0;56.40136;-7.673779;397.2195;392.5463;-0.1564054;-0.007594969;0;
140.2302;0;163.3255;0;36.04922;-13.76127;167.0608;167.7021;0.2335557;0.2522821;0;
134.2172;0;154.4158;0;38.15645;-13.88141;160.8335;165.7845;-0.156483;0.1220939;0;
-315.3792;0;-260.9057;0;27.40182;-17.08264;-280.7937;-274.7232;-0.09135839;0.05700383;0;
-699.9313;0;-634.768;0;21.0103;-19.20881;-661.4451;-654.3812;0.03866808;0.3168159;0;
-422.3672;0;-392.1893;0;24.40544;-5.793288;-388.4798;-382.2351;-0.2862075;0.1865629;0;
-202.2408;0;-180.0267;0;18.88856;-3.510047;-169.1371;-167.0216;-0.1559852;0.1214081;0;
-179.9861;0;-155.9828;0;24.83143;0.1104362;-146.9157;-147.9882;-0.2857632;0.3161882;0;
314.7586;0;300.2572;0;24.47071;2.990469;339.7999;339.7279;-0.3504434;-0.07393363;0;
698.4993;0;665.5218;0;19.62432;-2.705963;719.8922;719.1332;-0.1551892;-0.6585654;0;
369.9622;0;374.1242;0;19.8047;-3.372951;396.0813;393.324;-0.0250986;-0.2680996;0;
139.0189;0;159.481;0;14.96301;-9.665835;164.1746;165.4806;0.234796;-0.1378956;0;
133.6319;0;150.9499;0;13.4741;-13.20622;157.9502;163.4403;0.1046254;-0.3976264;0;
-322.1484;0;-268.3036;0;16.20625;-16.74292;-289.0464;-282.6873;-0.02541443;-0.07239012;0;
-697.8232;0;-624.3549;0;16.05625;-20.544;-660.6315;-652.3423;-0.09035623;-0.007350047;0;
-426.6954;0;-386.2219;0;15.63797;-19.92052;-393.4142;-387.3822;-0.1552328;0.122592;0;
-219.0583;0;-192.7434;0;14.7516;-21.24016;-185.3108;-185.0944;0.1697599;-0.2023679;0;
-181.1072;0;-155.131;0;19.76062;-22.15658;-148.0182;-147.6147;0.2345567;-0.6569359;0;
318.3238;0;303.6068;0;21.48208;-22.80414;343.2586;344.9112;-0.1554831;-0.2664718;0;
691.1914;0;657.9985;0;12.21709;-19.16415;713.29;710.7555;-0.3502288;0.1236;0;
367.6591;0;374.7294;0;9.592849;-18.00631;394.3583;392.5759;0.1698618;0.2534105;0;
138.0924;0;161.5848;0;10.92238;-18.45697;164.7647;168.6063;0.2346584;0.1881886;0;
130.0826;0;148.304;0;7.897296;-17.16587;156.041;160.5659;-0.2203487;0.05806477;0;
-317.6981;0;-267.8859;0;11.50668;-20.43067;-284.8318;-280.9986;-0.0252253;-0.2018629;0;
