Fp1;Fp2;O1;O2;POLY3;POLY4;A1;A2;Video;Audio;event;
7.129167;0;0;0;19.57027;-7.965309;-3.250241;0.5201136;-0.2475256;-0.01507243;0;12:39:58 Глаза открыты;
-567.0269;0;0;0;22.16355;-8.560151;-568.6503;-565.196;0.4023966;-0.144992;0;
-582.8239;0;0;0;12.02625;-12.36946;-586.757;-582.2443;0.5319269;-0.2098136;0;
-219.3582;0;0;0;10.20648;-14.63445;-228.0974;-225.8381;0.2065557;-0.1446355;0;
-215.2023;0;0;0;4.702888;-11.00266;-222.3085;-223.4872;-0.1184885;-0.01455544;0;
17.64704;0;0;0;-1.128986;-10.52273;6.425003;5.934613;-0.1833368;0.1153939;0;
617.7651;0;0;0;8.718761;-8.636753;598.6208;598.4433;0.1416841;0.2452126;0;
587.097;0;0;0;9.580657;-6.68557;570.7206;568.5443;0.1415417;-0.1448378;0;
202.2003;0;0;0;-5.031005;-5.607125;190.9627;190.0379;0.3363015;-0.274627;0;
208.4314;0;0;0;-7.705267;-5.534509;195.3935;198.0928;0.4658983;0.115453;0;
-6.107835;0;0;0;-9.104045;4.384283;-16.13408;-13.25008;0.07562613;-0.07956503;0;
-570.6929;0;0;0;-13.18073;6.858124;-573.775;-571.8934;-0.05438455;-0.3393545;0;
-571.8061;0;0;0;-0.2403936;1.023839;-577.7587;-573.88;-0.2492319;0.05079059;0;
-226.4049;0;0;0;2.908656;1.156777;-236.6619;-233.849;-0.1840142;0.1157069;0;
-232.3618;0;0;0;-6.070224;-8.824598;-240.0472;-242.2347;0.4658442;-0.4691154;0;
11.62416;0;0;0;-5.193468;-12.23174;-0.4888312;-1.986957;0.4004087;-0.5985788;0;
622.6179;0;0;0;-7.599147;-13.76006;602.0213;602.2114;-0.1846997;-0.3381079;0;
594.631;0;0;0;-8.462168;-16.76034;576.9911;574.3699;0.01038794;-0.2728009;0;
200.169;0;0;0;-4.971041;-11.85387;187.1071;186.425;0.3352142;-0.07762472;0;
205.715;0;0;0;-5.836702;-11.77497;191.2294;194.546;0.1399754;0.442192;0;
1.860631;0;0;0;1.53753;-7.543339;-8.112626;-5.798866;-0.05506731;0.05194364;0;
-568.6669;0;0;0;4.014231;-5.660237;-571.5088;-569.7596;0.009955361;-0.1430106;0;
-579.6523;0;0;0;-3.023376;-5.118686;-585.3647;-581.9931;-0.05502198;0.5717739;0;
-226.8719;0;0;0;-3.086711;-3.774006;-235.2648;-233.7706;0.07496799;-0.01350672;0;
-220.1472;0;0;0;-5.160691;-6.114495;-224.9709;-228.2883;0.2697947;-0.5981992;0;
19.32879;0;0;0;-5.958812;-5.907402;9.76224;6.198313;0.2045563;-0.1428268;0;
618.0709;0;0;0;-6.757108;-10.85808;598.8938;598.0196;0.1393834;-0.01274856;0;
584.8412;0;0;0;-8.223211;-11.9189;568.0573;566.7466;0.3341453;-0.07770309;0;
190.3891;0;0;0;-0.5127651;-14.05038;178.7443;178.0597;0.008972882;0.05230967;0;
200.0678;0;0;0;1.564831;-16.38054;186.061;188.6254;-0.3808402;0.05225711;0;
-8.903281;0;0;0;1.22749;-7.924474;-20.08496;-16.83592;-0.1205881;-0.01276274;0;
-578.4205;0;0;0;4.106645;-6.844784;-582.8444;-578.9739;0.2693371;0.05221742;0;
-577.652;0;0;0;-1.79198;-4.62747;-584.1953;-577.8925;0.3990011;0.1171323;0;
-232.3698;0;0;0;-3.062001;-2.345522;-241.7801;-238.0448;0.1387308;-0.4027241;0;
-230.1373;0;0;0;5.447542;-7.299781;-237.2893;-238.8051;0.0736241;-0.5972215;0;
21.65498;0;0;0;6.914961;-7.426412;10.13739;8.997909;0.2034848;-0.2717847;0;
610.025;0;0;0;7.042711;-9.629265;591.9597;590.9464;-0.05658903;-0.1415769;0;
568.9948;0;0;0;9.379183;-10.95925;554.6334;551.3721;-0.1214995;-0.01149998;0;
192.5495;0;0;0;4.346893;-11.28315;182.1381;181.6287;0.333394;0.1184463;0;
199.4775;0;0;0;4.207827;-12.74544;186.2654;190.879;0.4629937;-0.01160744;0;
-17.11419;0;0;0;5.878538;-10.38823;-26.81477;-22.6431;0.2026591;-0.07656312;0;
-583.0001;0;0;0;4.265041;-10.7127;-585.382;-583.0262;0.07252076;0.05344849;0;
-581.9769;0;0;0;12.03029;-7.419899;-586.7928;-583.1275;0.2023826;-0.01157256;0;
-228.0698;0;0;0;11.61703;-4.867092;-235.0048;-233.0922;0.07224453;0.05340641;0;
-230.3394;0;0;0;14.82054;-12.02925;-233.3943;-235.3567;0.007204599;-0.271484;0;
12.02038;0;0;0;17.68506;-11.74923;4.283342;3.134985;0.2020994;-0.3361785;0;
617.3915;0;0;0;-2.226029;-10.86665;600.7292;600.5815;-0.1229404;-0.205906;0;
582.2885;0;0;0;-5.640043;-11.52556;567.7044;566.1201;-0.2527516;-0.07576445;0;
191.0248;0;0;0;-6.772476;-3.409289;180.2035;180.4948;-0.4473996;0.4440504;0;
200.2031;0;0;0;-9.646059;-2.066205;187.6436;191.2454;-0.5768847;0.5085716;0;
-15.32731;0;0;0;-1.330971;2.624554;-23.81378;-20.65282;0.008400992;0.3781259;0;
-584.4009;0;0;0;-0.5253506;6.171891;-585.8823;-583.3492;0.2682619;0.572648;0;
-577.192;0;0;0;9.924026;-1.470121;-580.4211;-576.0789;0.1380577;0.5720726;0;
-234.3466;0;0;0;13.39668;-0.6648487;-240.2585;-238.1072;0.07295162;0.3116284;0;
-230.7378;0;0;0;18.67548;-5.888727;-234.5199;-237.4931;0.007910976;-0.01352147;0;
34.54834;0;0;0;23.67958;-8.294196;26.64709;23.05218;0.2028051;-0.01350789;0;
619.657;0;0;0;8.183096;-0.9178613;604.3924;601.8006;0.1376339;0.05147303;0;
569.7466;0;0;0;5.496532;-1.720734;556.9337;552.6578;-0.2523084;-0.2084481;0;
197.2986;0;0;0;4.887797;6.519651;187.8718;185.4743;-0.3819896;-0.3381733;0;
203.0973;0;0;0;2.739432;9.192418;191.9933;194.096;-0.2516711;-0.1429315;0;
-18.99522;0;0;0;-1.482879;2.284061;-25.52784;-23.17743;0.2033532;-0.01285317;0;
-578.3824;0;0;0;-4.4955;1.745903;-577.5997;-575.8138;0.3980509;-0.1427749;0;
-573.1161;0;0;0;5.489353;-1.939791;-574.583;-571.5496;0.07281423;-0.2075988;0;
-228.6506;0;0;0;6.689286;-3.612415;-233.8642;-232.1456;-0.122161;-0.01248819;0;
-231.7317;0;0;0;12.97823;-8.431435;-235.1284;-236.66;-0.2519729;0.2473937;0;
18.31306;0;0;0;17.31944;-10.56629;9.859815;7.954975;-0.2517197;0.4420472;0;
619.4925;0;0;0;12.41192;-10.15378;602.7394;600.9614;-0.1215321;0.246701;0;
575.5168;0;0;0;15.14612;-11.28229;562.4037;559.3157;0.008524697;-0.143351;0;
185.6342;0;0;0;5.217911;-3.300225;177.5943;176.4458;-0.05645121;0.1816298;0;
204.1258;0;0;0;1.126831;-0.2156946;193.845;196.4459;-0.5111659;0.506284;0;
-5.411607;0;0;0;13.51693;0.1194368;-12.18376;-9.460578;-0.1858155;0.1159712;0;
-582.5536;0;0;0;12.90014;2.999461;-582.4474;-579.7269;0.4640446;-0.07904734;0;
-580.3441;0;0;0;15.2317;2.460583;-583.5488;-579.0819;0.07377425;-0.1439352;0;
-231.0612;0;0;0;16.55654;2.926992;-237.8234;-235.6099;-0.3161039;-0.40366;0;
-232.3282;0;0;0;9.037817;7.07687;-236.8973;-238.8714;-0.3157863;-0.01345034;0;
33.83403;0;0;0;9.229806;8.007521;23.89728;21.92512;-0.05559963;-0.07840417;0;
630.6875;0;0;0;-3.506469;3.913638;612.0776;611.4193;0.1393583;-0.4681294;0;
578.5797;0;0;0;-9.061675;2.837978;562.9869;561.0175;0.009283547;-0.2077897;0;
203.9363;0;0;0;5.012626;1.830383;192.7321;192.3263;0.009274219;-0.07764622;0;
207.6669;0;0;0;6.548807;0.8909045;194.5374;198.0675;-0.1856371;-0.2075029;0;
-27.1738;0;0;0;4.130353;-2.05724;-36.22965;-33.51518;0.1393861;-0.2722617;0;
-588.7392;0;0;0;5.66742;-3.662763;-590.1023;-587.578;0.6589847;0.1178159;0;
-573.405;0;0;0;5.728098;1.029601;-576.7658;-572.4324;0.07361656;0.1176975;0;
-226.5654;0;0;0;5.120107;2.435208;-232.9838;-231.9031;0.2034773;-0.5320942;0;
-226.4003;0;0;0;13.15194;0.1554631;-229.8136;-233.4192;0.3981749;-0.2716902;0;
28.32431;0;0;0;15.95274;0.4902216;20.22921;17.5643;-0.05699663;0.05341955;0;
623.9964;0;0;0;5.219439;3.637805;607.2888;605.626;-0.2518414;-0.3364382;0;
574.5814;0;0;0;4.343538;3.63415;560.5768;556.7917;-0.6413924;-0.01126341;0;
186.1366;0;0;0;-2.359607;7.582369;175.9565;174.4242;-0.5757806;0.3135846;0;
202.2538;0;0;0;-7.313729;9.115357;190.4599;193.8016;-0.185398;0.1183675;0;
-13.9658;0;0;0;6.291277;2.408027;-20.75045;-17.78686;0.07465769;0.1182486;0;
-583.4155;0;0;0;8.562131;1.735778;-582.8221;-580.6111;0.3994194;0.0531624;0;
-571.2726;0;0;0;2.525308;-1.748956;-574.3029;-569.2206;0.204116;-0.2717277;0;
-222.9359;0;0;0;4.130361;-3.019875;-230.0861;-226.0708;-0.1858931;-0.2064873;0;
-224.9608;0;0;0;0.7099591;-2.213045;-229.0428;-229.5293;-0.120739;-0.01137784;0;
34.19762;0;0;0;-0.563552;-3.014616;25.55947;24.88603;-0.1206177;0.1185683;0;
622.1177;0;0;0;7.207522;4.691328;605.7421;606.0064;0.2043402;0.05348179;0;
566.0205;0;0;0;7.467724;7.16486;552.9722;551.5496;0.2691022;-0.141474;0;
189.016;0;0;0;9.737396;7.693524;180.7909;180.9314;-0.05600487;-0.07636447;0;
199.4457;0;0;0;10.73297;9.025453;189.9795;194.3677;0.1389534;-0.07628774;0;
-27.26583;0;0;0;1.00929;10.62397;-33.16182;-28.71554;0.1388138;-0.01124375;0;
-587.4568;0;0;0;-3.010212;11.21602;-585.6633;-581.5338;-0.1861624;0.1187022;0;
-569.6877;0;0;0;-2.739743;7.721763;-569.77;-562.7086;0.07389405;0.118583;0;
-223.2266;0;0;0;-6.018544;7.245124;-228.4313;-222.2516;0.3336892;0.2483985;0;
-231.3731;0;0;0;-10.56782;1.678383;-234.3237;-233.8348;0.2683865;0.1831816;0;
23.2315;0;0;0;-12.23117;0.4041423;16.41088;16.27454;0.2031495;-0.01190453;0;
624.2186;0;0;0;-20.59162;-2.409547;609.4713;610.0222;-0.1218913;0.1830095;0;
573.8663;0;0;0;-23.38397;-4.885372;561.82;559.3094;-0.1217688;0.2477929;0;
188.0459;0;0;0;-18.27026;7.44403;179.6348;178.0638;-0.2515812;-0.1422601;0;
212.532;0;0;0;-18.45297;10.18285;201.6931;203.8718;-0.3812631;-0.4669539;0;
-2.261194;0;0;0;-8.52047;10.2396;-9.15363;-7.91417;-0.05604326;-0.531452;0;
-581.8426;0;0;0;-4.158628;12.30566;-581.4193;-580.4309;0.1389151;-0.336016;0;
-578.3219;0;0;0;-5.49362;12.42726;-581.085;-576.5994;0.07380815;-0.01084166;0;
-228.6038;0;0;0;-2.340268;13.68745;-235.487;-231.7555;0.008766644;-0.1407654;0;
-233.2467;0;0;0;-8.366137;7.310442;-237.6866;-237.9569;-0.1861442;-0.07565667;0;
26.35732;0;0;0;-11.17077;5.494679;17.54901;17.34147;-0.1209898;0.2492561;0;
626.9039;0;0;0;-1.313908;5.154243;610.6707;610.276;0.009066445;-0.2707331;0;
568.678;0;0;0;-0.1735119;3.67544;555.8969;553.441;0.07402468;-0.7252325;0;
190.6713;0;0;0;-8.077568;4.542525;181.9635;182.0713;0.1389176;-0.1397977;0;
209.5326;0;0;0;-6.930375;4.06908;199.3343;202.9403;0.07381071;0.1851795;0;
-23.62331;0;0;0;-19.51571;7.28005;-29.43859;-26.52337;0.2036712;-0.1398433;0;
-586.3167;0;0;0;-23.78301;8.411445;-585.1297;-581.8426;-0.05640279;-0.2696375;0;
-566.4248;0;0;0;-8.085354;8.804891;-567.4254;-563.0796;-0.6410522;-0.2043992;0;
-222.6532;0;0;0;-7.140201;9.86777;-226.9011;-225.5582;-0.3155713;-0.009291779;0;
-222.1171;0;0;0;3.316799;10.72863;-223.7995;-226.2061;0.2044845;0.1856196;0;
42.41074;0;0;0;8.805823;12.32532;36.23226;33.95306;-0.2504924;-0.204371;0;
628.5735;0;0;0;1.495957;6.820458;613.843;612.1283;-0.1852733;-0.269133;0;
561.7252;0;0;0;3.235767;5.474069;549.6332;546.421;-0.0551525;0.1859089;0;
186.5365;0;0;0;-2.863054;10.29122;178.3922;177.4321;-0.3149664;0.05578737;0;
205.7144;0;0;0;-5.003631;10.21389;195.3918;198.6806;0.07515408;0.185666;0;
-24.81406;0;0;0;-5.199674;12.34696;-30.69095;-28.09269;0.01011122;0.2504468;0;
-586.944;0;0;0;-8.007488;13.40628;-585.4437;-583.9101;-0.184801;0.1852278;0;
-565.9895;0;0;0;-2.306015;10.24474;-567.864;-564.6453;0.07525409;0.3149764;0;
-216.0964;0;0;0;-1.566764;9.69858;-222.1544;-220.8754;-0.2496582;-0.1401115;0;
-218.4405;0;0;0;-4.713021;9.35392;-222.0561;-224.589;-0.05450535;-0.01003606;0;
39.64938;0;0;0;-4.239771;8.406759;31.53962;30.13377;0.3353535;0.1848761;0;
635.3726;0;0;0;-3.699647;7.795466;618.8377;619.0574;0.0101798;-0.01021174;0;
570.2041;0;0;0;-2.624203;6.715906;557.2465;555.2797;0.2700389;0.05476586;0;
181.0765;0;0;0;-2.554217;5.168673;172.942;172.164;0.5946043;-0.1401912;0;
204.0079;0;0;0;-1.413551;3.689855;193.5703;196.6036;0.3991048;-0.464887;0;
-25.45686;0;0;0;-1.746923;4.288993;-30.82402;-28.16852;0.07386709;-0.2695179;0;
-596.5817;0;0;0;-2.749546;3.681837;-594.2598;-591.9193;0.008825525;0.05558963;0;
-571.4946;0;0;0;5.424891;1.199769;-573.2355;-567.2742;-0.05615069;-0.00943357;0;
-221.6584;0;0;0;5.955303;0.3948907;-226.9583;-221.815;-0.05609426;-0.2043261;0;
-224.2467;0;0;0;5.413455;-1.949909;-225.9806;-226.1523;0.1388641;-0.07418612;0;
39.9709;0;0;0;6.211323;-3.622523;33.86599;33.50699;-0.1211448;0.0558231;0;
627.0731;0;0;0;-6.722014;-0.8055997;613.2282;614.119;-0.2509577;0.1207344;0;
562.6626;0;0;0;-11.00217;-0.6038414;552.08;550.7209;-0.1207709;-0.009321647;0;
193.47;0;0;0;-11.3259;-2.277808;186.5837;185.9132;0.009285152;-0.3991163;0;
211.329;0;0;0;-13.92649;-1.672673;202.1383;205.8413;0.07424317;-0.07387859;0;
-32.8232;0;0;0;-15.31902;-4.953034;-37.50697;-32.93316;-0.1207335;0.3809671;0;
-593.6333;0;0;0;-15.90684;-6.086767;-590.8162;-587.2464;-0.05564481;0.1207149;0;
-559.9285;0;0;0;-11.80502;0.3495887;-559.6754;-554.7349;0.009378447;-0.1392758;0;
-216.788;0;0;0;-9.31491;1.889723;-220.6581;-217.4093;-0.05559832;-0.2690705;0;
-224.1289;0;0;0;-7.028375;-0.2555078;-226.4334;-226.8735;-0.2504445;-0.3337675;0;
44.58634;0;0;0;-5.614793;0.3475954;37.9114;37.90903;-0.5100622;-0.3983995;0;
636.0567;0;0;0;5.510259;0.481212;622.7043;622.7645;-0.379615;-0.1381298;0;
565.5777;0;0;0;9.858003;0.0118479;556.6116;554.1729;-0.05439685;-0.008056318;0;
183.5137;0;0;0;3.485085;2.356117;179.1792;177.8674;-0.1842769;-0.2679176;0;
204.5686;0;0;0;4.285867;2.688664;197.9896;200.7396;-0.3789937;-0.2676484;0;
-25.70881;0;0;0;-1.411867;0.2077158;-29.03281;-25.41106;0.2060931;0.1224246;0;
-587.6505;0;0;0;-3.754973;0.4754388;-584.0372;-581.2311;0.4007881;0.1872689;0;
-556.4504;0;0;0;-3.483756;-4.34781;-554.5273;-551.3493;0.140516;-0.2027233;0;
-217.1241;0;0;0;-5.087846;-6.151858;-218.8261;-217.5253;0.01044014;-0.3974216;0;
-227.0258;0;0;0;-4.814314;-1.323028;-227.4143;-229.1133;-0.119505;-0.1371529;0;
48.25154;0;0;0;-6.215996;-1.187733;43.24076;42.23059;0.2704191;0.1878216;0;
634.3459;0;0;0;0.01954021;2.564383;622.5936;622.2091;0.5949841;0.1876329;0;
563.3064;0;0;0;0.9575257;5.107158;555.9387;552.3687;0.3994842;-0.007457684;0;
195.3001;0;0;0;1.156658;0.07842802;191.1257;189.3084;0.00927876;-0.2023522;0;
212.9699;0;0;0;2.830435;-0.4575143;205.6137;208.5459;-0.1206652;-0.2671162;0;
-32.93311;0;0;0;-4.607148;4.231629;-35.72165;-33.10477;0.26926;-0.1369132;0;
-598.6781;0;0;0;-5.205731;4.562292;-593.7802;-591.7282;0.3339568;-0.006840895;0;
-567.342;0;0;0;-10.08964;3.954861;-564.5105;-561.0862;-0.05618278;-0.006834021;0;
-230.1911;0;0;0;-13.16096;4.352785;-230.4859;-228.9391;-0.05612632;0.5129116;0;
-242.2662;0;0;0;-3.234755;0.7313325;-239.9369;-241.4527;0.1388321;0.5123962;0;
36.21242;0;0;0;-1.490193;-0.07307553;34.16649;33.4019;0.2686273;-0.07282473;0;
635.9995;0;0;0;-1.488695;-1.211712;625.5848;625.7581;-0.2513814;-0.07275155;0;
564.2087;0;0;0;0.7909523;-2.550153;557.0529;554.6022;-0.4460308;0.05725623;0;
181.9587;0;0;0;1.928257;0.2656925;178.9954;178.7961;-0.05577858;0.2521007;0;
205.8887;0;0;0;4.203496;0.06447674;200.6171;205.1031;-0.05572253;0.05694538;0;
-28.07565;0;0;0;2.391587;1.872829;-28.15708;-25.36221;-0.1206339;-0.2679485;0;
-598.948;0;0;0;2.389184;2.942674;-591.4706;-588.4287;0.204324;0.1221248;0;
-566.9244;0;0;0;5.467266;-0.610256;-563.0153;-557.4152;0.1391514;0.1869694;0;
-222.3402;0;0;0;4.792187;-0.7436087;-222.1831;-219.837;-0.1858251;-0.2030225;0;
-234.9853;0;0;0;8.337345;-2.484418;-232.642;-233.859;-0.2506058;-0.5926226;0;
48.42094;0;0;0;9.199624;-3.82158;45.32715;44.92349;0.009515414;-0.6569945;0;
646.1968;0;0;0;1.956711;0.2012358;635.6724;634.8318;-0.05546149;-0.2665303;0;
565.5252;0;0;0;0.6145986;1.07169;558.5096;554.9838;-0.1203731;0.188509;0;
191.957;0;0;0;-1.930638;-0.4698725;189.8209;188.1727;0.07464987;0.2532869;0;
210.6921;0;0;0;-3.000425;0.6023265;207.6212;210.2849;-0.1203272;0.188065;0;
-43.01722;0;0;0;-4.873421;0.7355652;-41.83718;-39.23857;-0.05523891;0.5776801;0;
-601.9431;0;0;0;-6.609836;1.940519;-593.3304;-591.0468;0.1397186;0.642067;0;
-558.1724;0;0;0;4.046726;1.603654;-551.2551;-547.7868;0.009643544;0.1216831;0;
-227.2151;0;0;0;7.458911;1.06618;-222.5536;-221.8999;0.1395685;-0.2032759;0;
-233.6085;0;0;0;2.628645;9.83975;-227.3275;-229.2357;0.269363;-0.07313694;0;
56.29315;0;0;0;2.492282;12.04018;56.82072;56.16383;-0.2506464;0.05687123;0;
635.5079;0;0;0;10.39303;8.679055;628.3513;626.9455;-0.4452966;-0.07312059;0;
554.4723;0;0;0;12.59339;9.072232;550.5712;546.9804;-0.1849798;-0.008079783;0;
187.4743;0;0;0;4.676508;4.97728;187.8251;187.3613;0.1400428;-0.073039;0;
206.6512;0;0;0;3.801153;3.297705;205.4399;209.4118;0.2048694;-0.137933;0;
-37.87113;0;0;0;-0.3548765;1.954733;-34.89583;-32.11479;-0.0552058;-0.007859679;0;
-607.7966;0;0;0;-3.435979;0.01038574;-598.1401;-596.4238;0.009817014;-0.2677211;0;
-568.9551;0;0;0;0.05009813;-0.659454;-561.5572;-557.7188;-0.1201275;0.1223519;0;
-216.6852;0;0;0;-1.021679;-2.400348;-212.1683;-209.8329;-0.05503949;0.3820983;0;
-231.1476;0;0;0;-0.6185109;1.018072;-224.6362;-225.8639;-0.05498418;-0.008089648;0;
47.13243;0;0;0;-0.8189602;1.887827;48.38986;47.97551;-0.1848636;0.3817225;0;
641.3489;0;0;0;-1.822515;-0.4583506;634.9839;634.6324;0.01022416;0.5112737;0;
558.1209;0;0;0;-2.356548;0.8146637;555.0732;552.0984;0.3350506;0.2508906;0;
187.4337;0;0;0;-2.019387;-4.14277;187.8872;187.1018;0.3996813;0.1856711;0;
208.4222;0;0;0;-1.414145;-5.947024;207.3136;209.9023;0.07444297;0.05554987;0;
-45.59714;0;0;0;-9.785469;4.039164;-41.83211;-40.18304;-0.1855012;0.2503961;0;
-599.5853;0;0;0;-13.05817;6.379386;-589.4523;-586.9303;0.009587215;0.1202098;0;
-554.2554;0;0;0;-4.403881;3.760764;-546.8811;-542.7375;0.07454492;-0.2047477;0;
-230.7358;0;0;0;-2.992936;5.096643;-226.9921;-225.5388;-0.1853993;-0.1395746;0;
-237.2505;0;0;0;-7.545257;2.814103;-231.6366;-233.7455;-0.1852131;-0.009499691;0;
57.71471;0;0;0;-6.532321;1.538599;58.76281;57.65556;0.009875072;0.3153466;0;
633.6797;0;0;0;-7.664833;5.355081;627.6053;627.7485;0.00986515;0.4449644;0;
550.397;0;0;0;-7.991924;4.813836;547.827;545.8461;-0.1200794;-0.2051561;0;
189.2752;0;0;0;-0.07966386;3.536324;189.7062;188.9143;-0.3798282;-0.399852;0;
213.1354;0;0;0;2.197592;3.197856;210.3801;213.7119;-0.05460979;0.1202885;0;
-33.57984;0;0;0;1.926964;-4.039392;-31.02252;-27.44422;0.5301511;0.2501023;0;
-603.5721;0;0;0;3.331547;-6.781512;-591.7095;-588.3846;0.1398144;-0.01001837;0;
-564.7348;0;0;0;2.725963;-5.502022;-555.3204;-550.0624;-0.05522811;-0.3998123;0;
-214.843;0;0;0;2.924295;-6.367271;-209.3736;-206.1823;0.07476207;-0.4643779;0;
-223.685;0;0;0;0.0409687;-8.370361;-216.7219;-217.6567;-0.3800845;0.1207947;0;
54.27513;0;0;0;-1.835083;-9.232729;56.29626;54.73765;-0.3797025;0.4455101;0;
640.8632;0;0;0;-1.698541;-5.941288;635.3861;633.2043;-0.379321;0.3151277;0;
557.6982;0;0;0;-4.041359;-5.600404;555.5999;551.9211;-0.7687439;0.4447458;0;
188.948;0;0;0;-2.497056;-1.575923;191.0996;190.423;-0.5730695;0.3793316;0;
208.8105;0;0;0;-2.82934;0.8369244;209.0859;212.8453;-0.3775916;-0.1407883;0;
-47.39563;0;0;0;-7.716617;-6.062914;-42.37286;-39.42937;0.01259185;-0.0107122;0;
-601.1946;0;0;0;-7.038302;-7.59743;-589.8051;-587.2394;0.5323179;0.3141353;0;
-552.8645;0;0;0;-16.20826;-3.236027;-544.4849;-539.8604;0.4668157;-0.01101708;0;
-226.7227;0;0;0;-19.54087;-3.165793;-221.1626;-218.9789;0.2714446;-0.1409407;0;
-230.9301;0;0;0;-6.459446;-6.377671;-223.3142;-225.5679;0.3361392;0.1840377;0;
67.90183;0;0;0;-5.649648;-6.505228;71.26227;69.13568;0.1408994;0.05391803;0;
641.7326;0;0;0;4.001571;-8.441196;637.6559;636.0313;-0.1840788;-0.2060055;0;
550.8832;0;0;0;10.02577;-8.566681;549.4342;545.9996;-0.1189265;-0.01089649;0;
189.7609;0;0;0;-3.17982;-6.280653;191.8741;190.5044;0.270997;0.0540818;0;
206.2493;0;0;0;-3.109276;-5.269598;206.174;208.054;-0.05411199;-0.2058419;0;
-48.76734;0;0;0;-4.3116;-1.915279;-44.03247;-42.21683;-0.1839923;-0.01073305;0;
-603.6894;0;0;0;-6.719141;-0.03783241;-591.6505;-590.149;0.270964;0.05424507;0;
-553.1704;0;0;0;0.1864861;3.445196;-544.0796;-541.3302;0.335659;-0.2056788;0;
-211.9733;0;0;0;0.5884403;5.317256;-205.7027;-204.2055;0.2053871;-0.01057011;0;
-229.7512;0;0;0;2.39651;6.718433;-220.9257;-222.8658;0.1402134;0.3142772;0;
52.02559;0;0;0;4.872349;8.118324;54.97018;53.84415;0.07510514;0.1840268;0;
640.49;0;0;0;-1.562909;4.292262;635.623;635.1853;0.2049644;-0.2059622;0;
547.9551;0;0;0;-2.499343;3.417171;546.5913;544.5923;0.009856384;-0.07582057;0;
179.2146;0;0;0;5.139955;1.672181;181.7877;181.9771;-0.4449249;0.05419029;0;
208.6446;0;0;0;7.077173;-0.003950746;211.7774;213.7782;-0.3795105;-0.07579884;0;
-47.62379;0;0;0;3.988603;0.8667094;-38.74712;-38.24759;-0.05429246;0.249114;0;
-604.7958;0;0;0;3.783524;0.3970799;-590.5558;-588.7449;-0.1841726;0.3138311;0;
-551.2148;0;0;0;8.669843;0.06176629;-540.4248;-535.9921;-0.1190202;0.1186137;0;
-221.4514;0;0;0;10.20137;0.1286872;-214.3579;-211.179;0.2059361;0.3783639;0;
-231.4737;0;0;0;6.372729;-0.2063568;-222.4509;-223.0233;-0.05414019;0.1181143;0;
65.54717;0;0;0;6.166231;-1.076928;70.7504;69.36649;-0.4438898;-0.1418737;0;
643.9406;0;0;0;7.030691;3.880769;642.0172;640.5096;-0.5733785;-0.01179648;0;
545.0304;0;0;0;7.224698;5.01558;545.795;542.6025;-0.3779003;-0.2066866;0;
179.1039;0;0;0;6.480504;0.6566496;183.8658;182.5505;0.1422181;-0.07654428;0;
200.6006;0;0;0;6.339294;0.7229728;203.9834;206.2925;0.4019446;-0.01150003;0;
-58.53336;0;0;0;8.141585;-3.899454;-50.21894;-47.9121;0.5314754;-0.5961946;0;
-608.2607;0;0;0;7.999683;-5.436021;-592.6458;-589.3418;0.465974;-0.2707588;0;
-554.6761;0;0;0;10.73831;-3.488176;-542.2628;-536.5259;0.4005384;0.249252;0;
-223.41;0;0;0;11.12869;-3.886569;-214.8822;-212.0246;0.2702013;-0.1408025;0;
-235.6168;0;0;0;8.974051;-3.011885;-225.6608;-226.929;0.07502779;-0.2705957;0;
54.84907;0;0;0;7.960656;-4.147569;59.17287;58.40576;-0.1199496;0.1194803;0;
642.3112;0;0;0;5.072269;5.435036;639.3218;637.8683;-0.05486176;0.2492949;0;
546.4636;0;0;0;3.32586;8.979548;548.3498;544.8363;-0.1847413;-0.1407597;0;
176.3503;0;0;0;-0.8970407;-2.21538;182.2326;181.4087;-0.249523;-0.2705529;0;
213.9666;0;0;0;-2.97322;-2.615052;217.719;219.3323;0.4004011;0.314425;0;
-45.99286;0;0;0;-3.170327;-5.090671;-36.0598;-35.82244;0.4649661;0.9637824;0;
-619.7207;0;0;0;-3.167142;-6.961078;-603.4883;-602.7515;0.009727534;0.8978468;0;
-561.3146;0;0;0;-4.504106;-1.930485;-549.3464;-547.0485;0.1396524;0.4421732;0;
-222.0458;0;0;0;-4.432231;-1.258716;-212.2135;-212.7291;0.07454478;0.2468269;0;
-235.7532;0;0;0;3.944967;0.8188976;-222.9323;-227.6328;-0.2503668;-0.07825785;0;
61.95916;0;0;0;7.289905;1.889802;69.70721;65.69864;-0.1851479;-0.01321188;0;
640.3561;0;0;0;7.148859;7.380381;639.7881;637.2203;0.1398748;0.3116381;0;
542.9489;0;0;0;8.279775;10.85596;545.0675;540.5034;0.009799593;0.311325;0;
186.7071;0;0;0;17.18006;3.611135;191.8846;189.4489;-0.1851123;0.4409468;0;
213.5059;0;0;0;22.05292;2.870694;215.9921;218.3065;0.1399104;0.1806344;0;
-55.26114;0;0;0;6.825514;5.279195;-47.53013;-45.03064;0.3996392;-0.07941647;0;
-609.427;0;0;0;4.474132;4.135181;-593.6453;-591.3358;0.3992377;0.1155654;0;
-544.1597;0;0;0;9.225058;5.939443;-531.0175;-527.3359;0.3988365;-0.2743548;0;
-220.3379;0;0;0;6.737542;5.5317;-210.7697;-208.5286;0.3334684;-0.2091118;0;
-237.0455;0;0;0;16.91218;3.650619;-226.6123;-227.5594;-0.05667071;-0.07896701;0;
69.72611;0;0;0;19.97664;3.178071;75.15132;73.64299;-0.1865485;-0.4686917;0;
649.3647;0;0;0;9.574094;0.5626648;648.9124;647.0308;0.4633124;-0.1433841;0;
542.3281;0;0;0;8.492747;0.4281336;546.2491;542.7452;0.3329122;0.3115314;0;
176.9666;0;0;0;8.886355;-4.930809;184.3194;183.8799;-0.3170958;0.2462511;0;
202.7132;0;0;0;6.064387;-7.806121;207.6848;211.6811;-0.1218751;0.1810363;0;
-59.42128;0;0;0;11.75172;2.449867;-49.76953;-46.21455;0.2030841;0.05091967;0;
-611.8339;0;0;0;12.07471;3.854048;-594.5707;-591.6439;0.07294533;-0.1440335;0;
-550.1873;0;0;0;3.221313;2.845431;-535.3152;-530.7048;-0.12203;-0.07892144;0;
-214.4904;0;0;0;1.140996;4.85206;-204.3184;-200.962;0.137962;-0.2087768;0;
-226.3313;0;0;0;-2.410124;-1.516072;-214.7328;-215.6901;0.1378234;-0.4034691;0;
68.81036;0;0;0;-5.087019;-2.787225;76.71159;75.00565;-0.2521192;-0.273129;0;
646.6382;0;0;0;-3.741761;-0.3060554;647.5975;646.2056;-0.05696382;-0.2078872;0;
541.541;0;0;0;-4.608658;-1.310492;546.3724;542.9204;0.3328975;-0.07774363;0;
177.9918;0;0;0;-3.131135;1.102088;187.3161;186.1165;0.137661;0.1822039;0;
205.4866;0;0;0;-2.257332;1.971759;212.5526;214.665;-0.3172488;0.05208609;0;
-62.27294;0;0;0;-3.861679;-2.116059;-51.15356;-49.543;-0.122028;-0.07790093;0;
-613.3708;0;0;0;-4.393661;-2.649796;-596.0782;-592.97;0.2678987;-0.14279;0;
-544.8511;0;0;0;2.910794;-0.5706627;-530.9492;-525.5328;-0.4470112;-0.1426465;0;
-217.6553;0;0;0;6.257749;-0.03422586;-206.5785;-204.5408;-0.7713988;-0.07753585;0;
-230.2427;0;0;0;-3.461431;-0.4360891;-217.5528;-219.89;0.1389191;-0.0124906;0;
77.77142;0;0;0;-4.194887;-0.2347021;84.76394;83.05378;0.2037468;0.182424;0;
654.0911;0;0;0;-3.587459;0.9711045;654.1425;651.8094;-0.1212946;0.3121754;0;
546.1127;0;0;0;-6.263172;0.7691799;549.2876;544.6455;0.398566;0.181927;0;
180.8099;0;0;0;3.9909;3.447724;186.98;186.4655;0.2682309;-0.1430925;0;
207.9894;0;0;0;5.460758;3.980124;212.4043;216.1381;-0.3817121;-0.1429487;0;
-54.27533;0;0;0;-2.11319;1.162841;-45.24225;-42.57412;-0.3813285;0.1820316;0;
-611.8155;0;0;0;-3.987077;0.893741;-596.2323;-593.1296;-0.1860433;0.2468161;0;
-546.6707;0;0;0;-5.12117;-3.460926;-532.8523;-528.7532;-0.05592172;-0.143236;0;
-212.1018;0;0;0;-6.723615;-5.064917;-200.2338;-198.7;0.2040038;-0.07812473;0;
-230.9416;0;0;0;-14.08523;-4.925861;-217.6487;-219.0525;0.2687662;0.3767252;0;
71.13873;0;0;0;-16.61667;-6.059622;79.23335;77.70603;0.1385614;0.1164773;0;
655.6484;0;0;0;-19.14459;-3.441321;656.676;655.4625;0.008487539;-0.3384112;0;
548.8555;0;0;0;-21.40253;-3.37088;553.0679;549.9816;-0.1214557;-0.5979405;0;
188.5473;0;0;0;-15.01801;-1.090073;195.754;194.5448;0.008601051;-0.5323724;0;
214.5322;0;0;0;-13.66375;0.183698;220.2948;222.96;-0.1213423;-0.1420334;0;
-64.10593;0;0;0;-7.688175;-1.692009;-52.41456;-50.37677;-0.1861877;0.1829461;0;
-613.5153;0;0;0;-2.456513;-1.020479;-596.0261;-593.4282;0.008901415;0.2477296;0;
-540.5602;0;0;0;-7.008396;-3.832737;-527.3989;-523.2419;-0.1860096;0.05257863;0;
-222.0519;0;0;0;-4.188315;-4.699542;-211.7149;-210.5605;-0.25079;-0.01244154;0;
-234.0101;0;0;0;-5.724348;-1.211829;-221.4347;-224.092;-0.05563597;0.2474403;0;
85.87682;0;0;0;-8.800055;0.06206401;93.37969;90.78748;-0.05558007;0.05228967;0;
659.9395;0;0;0;13.44663;-1.679555;660.6257;658.161;-0.2504262;-0.2725996;0;
547.645;0;0;0;18.79176;-0.8070889;553.1406;548.3671;-0.2501746;-0.0124563;0;
191.336;0;0;0;3.166461;2.60973;201.1364;198.3042;-0.1199886;0.1174909;0;
214.5694;0;0;0;3.498072;3.946766;221.6739;223.5297;-0.3797373;0.1823402;0;
-57.13469;0;0;0;-7.557505;9.636228;-45.35222;-43.74817;-0.05451909;0.377059;0;
-613.4226;0;0;0;-11.83682;12.77462;-593.7809;-593.2405;0.4003071;0.5066148;0;
-548.4011;0;0;0;-6.332569;9.948624;-531.7152;-529.2388;-0.1198339;0.1812691;0;
-208.2083;0;0;0;-7.599003;10.34052;-195.6621;-194.375;-0.3795829;0.05115222;0;
-222.3669;0;0;0;0.1791405;12.87536;-208.2091;-210.609;0.07556996;0.3109702;0;
74.02018;0;0;0;2.858278;12.99639;82.91639;81.33101;0.3353634;-0.01417898;0;
655.9033;0;0;0;7.142313;11.64367;658.1064;657.1473;0.01018971;-0.1440994;0;
545.1746;0;0;0;11.08628;10.82818;551.5609;547.1045;-0.1847226;0.3757841;0;
178.186;0;0;0;7.324092;9.209832;187.5019;184.7366;0.2052671;0.1805045;0;
209.8659;0;0;0;6.647147;8.463765;216.7986;219.346;0.4649302;0.05038844;0;
-61.70858;0;0;0;10.39151;6.914654;-49.97271;-47.86519;0.3994957;-0.01462953;0;
-610.808;0;0;0;9.644136;7.175637;-593.2119;-590.7317;0.1392249;-0.07958218;0;
-533.6078;0;0;0;1.3964;5.293027;-519.2153;-513.864;-0.1857517;-0.01453487;0;
-214.6692;0;0;0;-2.021255;5.08676;-201.9153;-199.318;-0.05563034;-0.339357;0;
-233.5064;0;0;0;-6.909344;10.3062;-219.391;-220.6069;-0.1205418;-0.4689507;0;
85.06823;0;0;0;-9.916512;10.69762;91.4858;90.83333;-0.2503553;-0.2086101;0;
659.1317;0;0;0;-15.19783;18.3228;657.9841;656.6451;-0.05520177;-0.01349846;0;
538.717;0;0;0;-18.66519;20.51482;542.0684;537.9821;0.1397557;-0.2083869;0;
185.9778;0;0;0;-11.41276;14.7338;192.1368;190.0537;0.2045826;-0.3381122;0;
215.9632;0;0;0;-11.0665;12.84347;219.1176;221.4093;-0.1204596;0.2469336;0;
-64.23802;0;0;0;-6.232612;9.749476;-56.96391;-54.36212;0.009596091;0.3766202;0;
-614.8967;0;0;0;-3.078518;6.725448;-601.1331;-599.1586;0.2694558;0.1813397;0;
-538.6293;0;0;0;-7.964568;-1.720915;-527.5033;-524.3439;0.009315698;-0.01374453;0;
-207.2544;0;0;0;-7.488051;-4.800279;-199.7627;-197.9808;-0.1206283;-0.01373072;0;
-223.4129;0;0;0;-7.413178;-13.30217;-215.4915;-216.8973;-0.1854745;0.3760871;0;
83.9072;0;0;0;-7.405729;-17.30765;85.94861;84.6692;0.009613911;0.1158399;0;
659.5335;0;0;0;-9.475368;-8.180828;654.5764;652.861;0.009604251;-0.01421122;0;
538.5563;0;0;0;-10.06808;-6.899932;537.1649;532.765;-0.1203401;0.05077041;0;
177.9461;0;0;0;-10.46011;-1.065606;179.3047;176.9083;0.1396502;-0.0792153;0;
214.4989;0;0;0;-11.78975;1.748626;213.1075;215.586;0.07454254;0.245701;0;
-57.08027;0;0;0;-5.012745;7.507279;-54.34734;-51.30907;0.139435;0.1155195;0;
-607.6212;0;0;0;-3.600213;10.31302;-598.5817;-595.9213;0.5940663;-0.2094333;0;
-533.1727;0;0;0;-3.530222;7.154458;-526.8909;-523.2961;0.4635347;-0.01432087;0;
-209.7368;0;0;0;-0.8473579;8.085031;-205.2729;-204.8676;0.07326485;0.1156282;0;
-222.5195;0;0;0;-13.57253;-4.448658;-215.8737;-220.0291;-0.3166128;0.2454467;0;
92.60827;0;0;0;-18.44901;-8.463041;92.93809;90.28615;-0.2513273;0.2452001;0;
661.7916;0;0;0;-2.890436;-9.995024;654.6248;653.5997;0.008794562;-0.07988301;0;
540;0;0;0;-1.279941;-13.73602;536.8384;533.4406;0.1387204;0.05013194;0;
186.0725;0;0;0;-8.111158;-7.425949;185.7877;185.1419;0.3984504;0.1800163;0;
219.7435;0;0;0;-7.031281;-7.01659;216.9603;220.9377;0.1381807;-0.080034;0;
-60.08672;0;0;0;-16.06655;-3.459566;-57.86971;-54.64585;-0.2517622;-0.2098883;0;
-608.5631;0;0;0;-19.60038;-0.8437554;-599.9766;-597.6929;-0.1215746;-0.01477534;0;
-527.6795;0;0;0;-10.06984;0.02787053;-523.162;-519.8812;-0.05648508;-0.07972784;0;
-206.4979;0;0;0;-10.25981;2.506089;-204.2963;-203.1428;-0.186363;-0.01468038;0;
-227.7172;0;0;0;-5.828875;0.9629635;-222.207;-224.2404;-0.5110124;0.1802364;0;
89.4773;0;0;0;-2.206671;1.698808;89.17242;87.8906;-0.510499;-0.01484674;0;
669.7831;0;0;0;-13.72503;1.295204;660.6705;659.8273;0.009752694;-0.01483182;0;
543.1735;0;0;0;-15.05041;0.9589875;537.8181;534.0397;0.3345796;0.05015043;0;
178.3733;0;0;0;-10.01242;2.833546;177.2087;174.3086;0.3342434;-0.144802;0;
215.4253;0;0;0;-10.2698;3.232596;211.7632;213.2388;0.1390055;-0.2096238;0;
-57.96632;0;0;0;-5.705134;4.033144;-56.6898;-55.15316;0.4637026;-0.2743805;0;
-607.5068;0;0;0;-3.488599;5.502716;-599.485;-598.3871;0.6581386;-0.07920282;0;
-525.7497;0;0;0;-5.092684;4.425459;-520.9218;-518.2009;-0.3170328;0.3106808;0;
-202.6336;0;0;0;-3.412627;5.358774;-201.0589;-199.84;-0.5765836;0.375336;0;
-224.5438;0;0;0;-6.892799;7.362755;-222.2836;-223.9395;0.1386365;0.05012213;0;
94.14671;0;0;0;-9.230397;7.690272;91.03239;89.81546;-0.1213721;-0.1448303;0;
664.0156;0;0;0;3.304807;13.10804;654.9074;652.8172;-0.3161522;-0.2096521;0;
533.4762;0;0;0;5.913455;14.23358;528.1253;523.351;0.07396953;-0.4043434;0;
181.5543;0;0;0;-2.800024;13.68341;179.8319;178.4357;0.1388626;-0.6638065;0;
211.1069;0;0;0;-2.59614;13.73665;208.3243;211.0524;0.008788332;-0.5332048;0;
-73.83709;0;0;0;-7.28258;9.703991;-71.93175;-70.58068;-0.05618784;-0.2078324;0;
-611.4926;0;0;0;-8.279641;8.153632;-602.9675;-601.9926;-0.05613138;-0.07768885;0;
-521.1108;0;0;0;-9.141977;1.916149;-515.6552;-512.2451;-0.05607498;0.0523239;0;
-201.0603;0;0;0;-11.40997;-1.568767;-198.6712;-197.2634;-0.120986;-0.1426307;0;
-216.1631;0;0;0;0.5242156;-1.835122;-211.5899;-213.8068;0.2689396;-0.2724221;0;
104.9553;0;0;0;2.197652;-4.311647;103.9017;101.5622;0.3336368;-0.2721483;0;
664.5685;0;0;0;4.741039;-2.163861;656.3945;653.1203;-0.05650254;-0.1419402;0;
532.5917;0;0;0;7.817734;-2.228669;528.6738;523.3414;0.07348891;0.2480065;0;
181.8576;0;0;0;-0.965007;-4.034969;180.9422;178.4262;-0.1214869;0.3127246;0;
215.4704;0;0;0;-0.8966884;-4.432812;212.9941;213.979;-0.3162669;0.3773777;0;
-62.98123;0;0;0;-7.393498;-1.414126;-60.27013;-58.84901;0.07385493;0.2470639;0;
-607.7066;0;0;0;-9.462173;0.194885;-598.564;-596.2697;-0.1211213;0.05191358;0;
-519.0777;0;0;0;-6.908047;-3.89127;-512.8803;-509.5264;-0.05603226;0.1168288;0;
-193.7819;0;0;0;-8.776139;-3.21753;-190.4642;-190.3621;0.1389261;-0.07819065;0;
-220.0739;0;0;0;5.165129;-4.286024;-215.3853;-219.2812;-0.3159849;-0.01314475;0;
96.1759;0;0;0;9.044704;-4.750476;94.36308;92.03279;-0.5105695;0.1168032;0;
664.6685;0;0;0;7.294304;1.416483;656.2983;655.4695;-0.6399911;0.05171844;0;
530.5052;0;0;0;9.765222;2.218855;527.2658;525.6884;-0.444446;0.05166647;0;
181.7722;0;0;0;7.946748;6.70436;182.9713;184.6438;0.205674;0.05161456;0;
214.0732;0;0;0;9.813797;8.841077;217.5825;222.3767;0.2704347;0.1814974;0;
-80.49395;0;0;0;-0.8459838;5.683996;-68.18011;-65.38971;-0.1846085;0.5061517;0;
-619.767;0;0;0;-4.46148;7.017943;-602.9678;-601.6794;-0.1194556;0.8304799;0;
-523.3798;0;0;0;3.714677;1.049532;-513.7814;-512.3069;0.07556643;0.569776;0;
-207.6374;0;0;0;2.571868;0.3786484;-204.9826;-205.7585;0.3353599;0.1793995;0;
-226.4817;0;0;0;8.128989;0.1774411;-225.5162;-229.2898;0.4649576;0.0492845;0;
100.3942;0;0;0;9.459991;-1.363345;94.86194;91.96669;0.07468634;0.1791697;0;
666.2589;0;0;0;7.976618;9.756948;653.1735;650.5309;-0.05532338;0.3738917;0;
531.5942;0;0;0;8.906608;12.62729;522.2076;517.5688;0.2046016;-0.01628809;0;
179.0495;0;0;0;2.400924;12.34667;174.9822;172.1596;0.00949396;-0.2111737;0;
214.1019;0;0;0;1.326785;13.7409;208.1021;208.5932;-0.445287;0.1788425;0;
-70.09549;0;0;0;-4.501698;15.2677;-73.21568;-73.47468;0.009931847;0.04872811;0;
-614.0016;0;0;0;-7.712355;16.19;-610.7469;-611.6303;0.4646932;-0.08125554;0;
-520.4314;0;0;0;0.06492674;8.939822;-520.9905;-520.1864;0.1393896;-0.3410433;0;
-198.0078;0;0;0;1.873523;6.519454;-201.19;-202.6356;-0.1206198;-0.6655373;0;
-220.5474;0;0;0;-1.477262;3.43181;-220.5405;-226.4824;-0.1854659;-0.01519513;0;
102.0747;0;0;0;-1.475778;0.1463203;96.83417;91.08569;0.1395571;0.1147548;0;
673.3099;0;0;0;7.634408;1.150795;661.5155;655.273;0.2693516;-0.08026251;0;
537.3264;0;0;0;9.703817;-0.6587783;530.1664;521.8688;0.3340483;0.1147202;0;
178.5915;0;0;0;9.359274;2.556942;176.6862;171.9576;0.1388106;-0.01532979;0;
212.4575;0;0;0;10.01945;4.831793;209.9918;209.7032;-0.1861656;-0.01531439;0;
-75.0491;0;0;0;5.119267;-4.282619;-72.5148;-72.99049;0.1388582;0.04966834;0;
-619.1377;0;0;0;3.506533;-6.220699;-609.9843;-610.272;-0.1861181;-0.08031625;0;
-525.6248;0;0;0;-2.658932;4.971457;-519.6039;-519.5791;-0.3808331;0.1146665;0;
-213.0659;0;0;0;-5.469299;6.975828;-209.1751;-212.8984;0.1392883;-0.08035076;0;
-233.7164;0;0;0;-9.81806;7.772614;-227.8305;-234.1112;-0.1856883;-0.2102047;0;
102.2872;0;0;0;-13.49189;11.11383;101.608;96.52042;-0.1855018;-0.1450262;0;
666.2759;0;0;0;-4.838145;2.395124;659.6003;653.5184;0.269456;-0.2748151;0;
528.113;0;0;0;-3.158345;0.5171955;526.879;517.9921;0.1392506;0.1152651;0;
185.192;0;0;0;-4.695413;7.75071;187.8947;181.8902;0.07414333;0.2450839;0;
209.8059;0;0;0;-2.882033;6.939127;211.2566;210.0058;0.1390362;-0.07999904;0;
-92.87785;0;0;0;2.143728;10.34828;-85.86897;-87.24345;0.07392913;0.3098854;0;
-633.3878;0;0;0;7.165416;11.54346;-620.4514;-621.1998;0.1388222;0.6344107;0;
-530.1779;0;0;0;-1.951462;3.159236;-522.1896;-520.4385;0.2686174;0.3739039;0;
-202.6221;0;0;0;-2.752809;1.548471;-197.8277;-198.7645;0.008478104;0.1786262;0;
-231.7787;0;0;0;9.90961;-2.337973;-223.1785;-227.9875;-0.4463018;0.04851201;0;
87.91859;0;0;0;11.17147;-5.617665;91.51264;87.64557;-0.3159187;-0.01650408;0;
666.8517;0;0;0;18.32755;-3.602655;662.9459;658.6454;-0.1856666;0.1134472;0;
528.126;0;0;0;21.8591;-5.675384;528.5345;521.2399;-0.3154147;0.04836586;0;
171.212;0;0;0;9.378557;-1.181947;174.681;169.8925;-0.3150977;-0.2115521;0;
213.0813;0;0;0;5.417018;0.761624;214.7353;214.012;-0.1848465;-0.08140486;0;
-81.54727;0;0;0;9.966903;-7.879695;-73.21085;-74.49564;-0.05472604;0.1785463;0;
-629.0651;0;0;0;9.086232;-8.407641;-613.4907;-614.5868;0.01029629;-0.3413718;0;
-525.3598;0;0;0;-6.329216;-7.729364;-513.2993;-513.2698;0.1402206;-0.5359308;0;
-209.0531;0;0;0;-11.61414;-8.726341;-199.3786;-201.9104;0.01014505;-0.0156536;0;
-229.2703;0;0;0;-8.521013;-0.07689704;-217.2316;-222.4471;0.0751022;0.1142968;0;
110.1021;0;0;0;-11.46019;3.473154;117.3186;112.6706;0.07502674;-0.08072006;0;
671.2094;0;0;0;-5.956317;-3.094542;673.1088;667.4035;-0.2498854;-0.1456063;0;
524.9831;0;0;0;-5.279771;-3.292381;531.3159;522.6803;0.2701045;-0.4053293;0;
181.9402;0;0;0;-6.279819;2.739269;190.578;184.5748;0.4647351;-0.1450527;0;
214.7408;0;0;0;-6.138812;3.071431;221.1835;219.3718;-0.2503726;0.3748318;0;
-84.44965;0;0;0;-3.789095;5.546592;-72.01646;-73.95132;-0.2501211;-0.01534891;0;
-622.2819;0;0;0;-0.9712723;6.679729;-602.9272;-604.5478;0.2049017;-0.1452682;0;
-526.8293;0;0;0;-16.04182;0.1089331;-511.3046;-511.7991;0.1397284;0.3096492;0;
-214.5191;0;0;0;-19.57568;-1.096869;-202.6957;-206.0008;-0.3801507;0.04946868;0;
-230.8578;0;0;0;-10.98219;-6.186348;-217.8593;-224.7218;-0.4447361;-0.2754177;0;
104.9555;0;0;0;-11.30595;-9.663244;112.1313;105.9629;-0.5092565;-0.1452063;0;
676.9999;0;0;0;-5.19902;-4.964729;677.6093;671.8219;-0.5737122;0.04984162;0;
532.5795;0;0;0;-1.978616;-5.964485;537.7484;529.8429;0.0765377;0.1147589;0;
170.601;0;0;0;-3.048354;-6.025475;178.7633;173.0521;0.4012975;0.04967623;0;
208.348;0;0;0;-0.5006719;-6.220369;213.1913;211.5462;-0.05387712;0.3094957;0;
-81.71564;0;0;0;0.6389071;-8.223606;-71.69237;-74.89744;0.0761117;0.3741521;0;
-631.0449;0;0;0;2.98279;-9.086122;-613.4105;-616.7997;0.2709373;-0.01602796;0;
-527.4001;0;0;0;-0.1690153;-11.48826;-513.7814;-514.9808;-0.1841064;-0.3408486;0;
-205.2193;0;0;0;-1.575365;-13.15129;-195.2375;-199.1219;-0.0539867;-0.08063671;0;
-231.4998;0;0;0;9.277209;-13.94187;-218.9668;-225.6584;0.1409696;0.244281;0;
105.0013;0;0;0;11.41134;-14.5307;112.3993;107.5885;-0.5088455;-0.08080114;0;
667.3006;0;0;0;7.515109;-17.73116;669.0065;663.3259;-0.1834975;-0.2106546;0;
517.8299;0;0;0;8.646633;-17.98128;524.8439;516.4829;0.6612623;0.1793611;0;
179.4794;0;0;0;2.207584;-18.29812;189.4223;184.5056;0.2707938;0.1142135;0;
209.5338;0;0;0;0.1292607;-18.07879;217.9051;217.3661;-0.05431497;-0.01583593;0;
-100.1462;0;0;0;4.54976;-13.9078;-85.97371;-87.26184;0.01070695;-0.01582002;0;
-631.0911;0;0;0;4.879982;-13.49193;-610.4362;-611.9104;-0.05427115;-0.1457388;0;
-517.5762;0;0;0;4.674007;-3.096264;-500.1279;-499.2269;-0.1841513;0.1792444;0;
-208.024;0;0;0;5.874759;1.461564;-192.6547;-193.6911;-0.508803;0.1140969;0;
-233.677;0;0;0;7.410074;-6.912527;-215.6994;-221.2325;-0.3783571;-0.4057565;0;
106.8243;0;0;0;9.009243;-5.96782;118.5994;113.0719;-0.1830748;-0.4053488;0;
669.559;0;0;0;11.67951;-10.65051;673.951;668.9913;-0.2478582;-0.01513743;0;
519.6488;0;0;0;12.7395;-13.05119;529.2837;522.3299;-0.3125765;-0.1450569;0;
170.5518;0;0;0;17.4831;-7.545599;183.6128;178.1028;-0.5721318;-0.1449112;0;
209.3609;0;0;0;19.00577;-8.542761;219.4727;217.404;-0.1817529;0.3749732;0;
-82.01563;0;0;0;16.44108;-4.582306;-66.79152;-68.98306;0.4681032;0.2446617;0;
-624.7853;0;0;0;16.02339;-3.238043;-604.0168;-605.8314;0.07782876;-0.08042081;0;
-521.4592;0;0;0;11.72038;-7.789506;-505.0844;-505.023;-0.05218413;0.3094641;0;
-202.7826;0;0;0;9.430456;-7.915646;-187.861;-190.236;0.4026397;0.4390878;0;
-226.5043;0;0;0;4.665558;-10.18499;-207.9745;-214.0953;0.01243107;0.1138099;0;
109.0547;0;0;0;0.3075894;-11.04553;122.1936;116.8911;-0.8321568;-0.08120652;0;
665.5403;0;0;0;5.397495;-10.90047;672.0443;666.8096;-0.5714513;-0.01615757;0;
514.6971;0;0;0;5.324723;-10.82253;525.9421;518.4639;0.07879627;0.3086954;0;
178.1613;0;0;0;-2.784952;-10.54373;192.8309;187.2966;0.2086518;0.3733526;0;
212.465;0;0;0;-4.389744;-10.33218;225.1208;222.9654;-0.1813619;-0.4066307;0;
-94.53182;0;0;0;-4.519055;-6.704846;-76.45395;-78.7321;-0.1162123;-0.01641808;0;
-628.8557;0;0;0;-6.390525;-6.363194;-604.6116;-606.2003;0.1437738;0.7632065;0;
-520.8403;0;0;0;-0.02011494;-1.199237;-499.9939;-500.1442;-0.1812074;-0.01716845;0;
-209.4107;0;0;0;1.452798;0.2755929;-190.4593;-193.1082;-0.1810253;-0.3419879;0;
-228.9404;0;0;0;-2.031286;-4.078575;-207.2594;-213.0291;-0.1158761;-0.08177491;0;
110.8689;0;0;0;-0.8237967;-4.007493;126.9685;122.329;-0.3106616;-0.4714968;0;
667.0404;0;0;0;-3.434937;-13.24687;676.3771;671.9297;-0.3753169;-0.01625164;0;
515.2587;0;0;0;-2.628179;-16.85051;529.521;522.7043;-0.4399071;0.4385361;0;
175.349;0;0;0;-4.567921;-14.42232;193.1577;188.7841;-0.049661;-0.0816433;0;
216.652;0;0;0;-5.902502;-16.08228;232.8186;232.4474;0.08032359;-0.1465286;0;
-89.41199;0;0;0;4.283859;-12.71709;-67.26459;-67.19816;0.1452102;0.113488;0;
-639.733;0;0;0;5.217559;-10.89578;-611.6108;-610.6075;0.274999;-0.08152806;0;
-528.021;0;0;0;13.31762;-11.82259;-503.8626;-501.6109;0.01485331;0.04848854;0;
-205.3399;0;0;0;19.26511;-9.935187;-183.1423;-183.9538;0.01483838;0.5681785;0;
-231.5578;0;0;0;-1.719298;-5.906351;-207.3211;-211.2551;-0.1151112;0.1128363;0;
106.3801;0;0;0;-6.071827;-3.154238;125.5326;121.7274;-0.3748649;-0.01721181;0;
662.9934;0;0;0;5.455826;0.9347683;676.7543;672.2657;-0.2445536;0.3076422;0;
507.4676;0;0;0;5.382995;4.483924;525.3375;519.6042;0.01556153;-0.1474383;0;
168.6277;0;0;0;3.971066;3.005795;189.6656;186.999;0.4703173;-0.08232283;0;
199.3178;0;0;0;4.905081;3.806569;219.5849;220.8565;0.33991;0.2425966;0;
-110.6018;0;0;0;1.350179;11.03666;-83.48347;-83.08778;-0.1152029;-0.08248387;0;
-638.3503;0;0;0;-0.8619801;13.97282;-604.2003;-604.1798;-0.1150872;0.2424357;0;
-524.0786;0;0;0;11.33002;9.471042;-493.6485;-492.3786;-0.3098735;0.6969635;0;
-217.0185;0;0;0;14.53284;9.729457;-189.2427;-190.8477;-0.3095622;0.1765245;0;
-235.9159;0;0;0;6.748709;9.987613;-205.7941;-211.458;0.1455203;0.1113798;0;
111.6466;0;0;0;8.282169;8.303004;135.6786;130.895;0.2103414;0.1762352;0;
663.0697;0;0;0;-2.241375;13.05033;680.4559;675.7396;-0.179674;-0.3436806;0;
502.7337;0;0;0;-7.061894;12.16644;524.7875;517.7021;-0.4393628;-0.1484333;0;
167.6467;0;0;0;7.011374;11.21645;192.8018;189.2218;-0.179052;-0.1482841;0;
210.6441;0;0;0;7.405494;11.00423;235.2742;235.5083;0.405834;-0.2780698;0;
-100.5363;0;0;0;7.800195;0.1423049;-69.809;-71.38667;0.4703935;0.3069157;0;
-648.5972;0;0;0;9.533669;-3.407933;-612.6534;-614.5419;0.1450842;0.5015093;0;
-536.2516;0;0;0;3.093728;-7.088449;-504.0297;-504.2295;0.2099057;-0.01873336;0;
-214.3743;0;0;0;3.09062;-11.77001;-184.3087;-186.6947;0.07976015;0.0462528;0;
-239.3963;0;0;0;-4.949461;-6.600619;-207.1119;-212.6815;-0.2451567;0.2411084;0;
97.98733;0;0;0;-9.365118;-7.464765;125.4916;120.6148;-0.1149757;-0.2139053;0;
659.9813;0;0;0;0.3562075;-9.466752;681.8983;676.8389;0.01507452;-0.4085924;0;
502.8344;0;0;0;0.02105693;-9.725049;528.8522;521.8615;-0.24481;-0.08334514;0;
157.315;0;0;0;1.561277;-13.33236;186.3052;182.1326;-0.1795967;0.1116406;0;
199.0109;0;0;0;4.372747;-15.39531;225.973;226.0524;-0.04948152;0.04656111;0;
-105.9109;0;0;0;-7.554364;-14.57617;-72.97892;-74.0865;-0.3093012;-0.213355;0;
-646.4077;0;0;0;-10.42619;-16.36994;-605.4504;-607.244;-0.1790557;-0.08320597;0;
-531.5032;0;0;0;-1.57445;-17.62616;-493.8978;-494.5027;-0.04894109;0.2417144;0;
-217.814;0;0;0;-1.371797;-17.8094;-183.8072;-187.6598;0.01607542;0.04656944;0;
-239.834;0;0;0;-1.638839;-26.43206;-204.7993;-211.3968;-0.04890807;-0.08341204;0;
110.9808;0;0;0;-1.03398;-28.21404;139.546;135.0166;-0.3736956;0.2415085;0;
664.6534;0;0;0;-0.4307043;-26.04224;688.1299;683.4802;-0.04848344;0.5661026;0;
499.1934;0;0;0;2.249046;-25.54719;528.331;521.687;0.4063367;0.240697;0;
163.8601;0;0;0;-8.737927;-20.63189;195.5921;191.8283;-0.1138104;-0.08438157;0;
198.4905;0;0;0;-11.81061;-18.06593;228.8787;228.6794;-0.2436307;0.0456379;0;
-119.3618;0;0;0;1.061984;-11.01469;-83.3819;-83.76842;0.08145083;0.2404941;0;
-648.4134;0;0;0;1.530408;-7.051751;-606.4727;-605.8593;0.1463363;0.3052198;0;
-527.3224;0;0;0;8.762539;-4.834228;-488.2349;-485.3108;0.1461893;0.3698804;0;
-220.6339;0;0;0;13.84395;-2.753022;-183.0225;-182.6625;0.2110097;0.4994435;0;
-241.1518;0;0;0;-0.7719967;-1.678529;-201.7666;-204.9052;0.2757651;0.1091376;0;
106.7907;0;0;0;-2.110392;-0.6051151;139.6397;136.5042;0.2105206;-0.02090679;0;
658.0313;0;0;0;0.2362535;-9.579976;684.6003;680.1561;-0.1794949;0.2389836;0;
498.0127;0;0;0;-1.639994;-13.38838;528.678;523.0513;-0.04937991;0.1088088;0;
158.7451;0;0;0;4.12243;-11.83432;191.8783;189.818;0.2105391;-0.2161373;0;
195.1297;0;0;0;4.385732;-14.30079;226.9178;228.5452;-0.1794765;-0.1509528;0;
-113.7237;0;0;0;3.243225;-18.2383;-75.7207;-74.4697;0.1455405;-0.2157684;0;
-646.9664;0;0;0;2.301961;-20.83218;-601.8176;-600.8802;0.2103616;-0.2805189;0;
-528.6879;0;0;0;3.706167;-17.93111;-485.9583;-484.2098;-0.3095885;-0.2802371;0;
-223.3724;0;0;0;3.903514;-17.17628;-182.5598;-182.5622;-0.2443101;-0.1500208;0;
-250.3842;0;0;0;-5.74595;-21.4458;-207.6762;-209.615;-0.04916256;-0.2148374;0;
103.8144;0;0;0;-8.284796;-21.08934;141.607;139.6077;-0.1140805;-0.08468687;0;
657.994;0;0;0;-12.89915;-20.19737;690.4388;686.8797;-0.4388026;0.3052023;0;
491.0414;0;0;0;-17.30682;-20.44501;528.5136;522.5218;-0.2434596;0.564765;0;
157.4655;0;0;0;-10.45692;-13.52547;198.898;194.9737;0.2765237;0.4342628;0;
191.7274;0;0;0;-11.18335;-11.90429;232.2437;232.1964;0.1463112;-0.2808143;0;
-127.3674;0;0;0;-10.43518;-12.96405;-81.45705;-81.81665;0.01622948;-0.5404015;0;
-650.7263;0;0;0;-9.151896;-12.88404;-599.3648;-599.5991;0.3410499;0.04484757;0;
-528.7584;0;0;0;-13.16216;-15.81822;-480.1347;-478.8695;0.4056745;-0.1500995;0;
-227.3159;0;0;0;-11.87614;-17.4769;-179.5531;-182.7245;0.2103649;-0.214916;0;
-241.7676;0;0;0;-17.42391;-19.53569;-191.6165;-198.7202;0.2751209;0.1101366;0;
115.1086;0;0;0;-18.07599;-19.65003;159.2122;153.5525;0.07994238;0.110026;0;
663.7796;0;0;0;-13.30143;-31.68697;700.78;695.4382;-0.309942;0.1748828;0;
492.8857;0;0;0;-13.42276;-36.07588;534.534;527.8858;-0.5045326;-0.08516235;0;
149.1255;0;0;0;-2.02242;-25.12165;194.3551;190.6496;-0.5040256;-0.2150115;0;
194.2654;0;0;0;1.798005;-24.89546;236.8259;236.6848;-0.1137151;-0.2797627;0;
-116.5862;0;0;0;-1.016841;-19.04318;-68.63363;-69.77408;0.1462685;-0.344449;0;
-660.8829;0;0;0;0.0559078;-15.60791;-605.7322;-606.5591;0.2110889;0.04570116;0;
-536.4686;0;0;0;0.5243661;-17.6687;-484.9964;-483.5736;0.08094208;0.370492;0;
-219.7759;0;0;0;2.265152;-14.97163;-171.4789;-172.4314;0.01589341;0.1102503;0;
-246.0418;0;0;0;-11.66957;-21.58778;-196.6689;-200.1191;-0.0490899;-0.3446319;0;
109.0896;0;0;0;-16.01113;-23.10669;152.3534;149.7187;-0.503812;-0.2143509;0;
662.9515;0;0;0;-7.890717;-19.53338;700.7371;696.231;-0.3733711;0.2406359;0;
488.4352;0;0;0;-9.35568;-21.18832;530.1808;523.6178;0.01680816;-0.08444262;0;
157.2357;0;0;0;-4.188716;-16.14344;201.9379;199.067;-0.3080454;-0.4741618;0;
195.371;0;0;0;-3.247478;-15.05549;239.7159;240.4086;-0.2427686;-0.2787834;0;
-134.2847;0;0;0;-4.248593;-20.19792;-84.86197;-84.98199;0.08231208;0.1113008;0;
-656.5123;0;0;0;-4.043253;-20.24461;-601.8918;-601.6993;0.01726203;0.04622164;0;
-525.5431;0;0;0;-6.785857;-24.24312;-472.2269;-470.4729;0.2121467;-0.2786615;0;
-229.9758;0;0;0;-6.577968;-25.62541;-175.1514;-176.1479;0.2119335;-0.08347949;0;
-246.3614;0;0;0;-18.15928;-22.3846;-188.1563;-192.2752;-0.2430508;0.04653908;0;
113.0182;0;0;0;-22.42794;-21.96021;163.1063;160.4283;-0.3077739;-0.2783444;0;
652.1335;0;0;0;-19.99354;-20.86642;690.5522;688.6265;0.08233938;-0.2130974;0;
485.9365;0;0;0;-23.99193;-20.30959;522.9422;519.5193;0.08225664;0.04698612;0;
160.4866;0;0;0;-11.77766;-16.47128;199.1417;197.5963;-0.112728;0.5666776;0;
197.0568;0;0;0;-8.4833;-15.44998;236.2354;237.815;0.08228726;0.9559122;0;
-126.6036;0;0;0;-17.04859;-14.89859;-79.96815;-78.26525;0.08220457;0.5651478;0;
-660.9577;0;0;0;-14.41949;-14.21379;-608.622;-605.2342;-0.11278;0.1098085;0;
-531.9206;0;0;0;-24.11692;-18.41944;-483.8229;-478.7518;-0.1126667;0.2396328;0;
-218.0436;0;0;0;-26.10242;-18.86969;-172.2431;-170.363;0.01738117;0.3043594;0;
-244.686;0;0;0;-14.68934;-24.27622;-198.057;-199.0523;0.08233104;-0.1507178;0;
107.0706;0;0;0;-13.26806;-26.39528;145.5944;145.0373;-0.04768637;-0.0206317;0;
660.0601;0;0;0;-4.346117;-24.56022;690.8614;689.7427;-0.04763845;0.1093237;0;
486.6087;0;0;0;-0.456984;-26.2771;523.2512;520.3844;-0.04759058;-0.2156228;0;
153.287;0;0;0;0.1466877;-17.94506;195.3899;195.0873;-0.3723795;0.3043326;0;
193.4877;0;0;0;2.557438;-15.44866;234.6737;237.9321;-0.3070379;0.4339615;0;
-132.0432;0;0;0;-2.066832;-18.44736;-85.77611;-83.27061;-0.04686008;0.1086887;0;
-656.5843;0;0;0;-2.734341;-16.75426;-604.6166;-601.6763;0.08312169;0.4334162;0;
-521.6795;0;0;0;-5.611981;-21.49309;-472.6376;-468.3885;-0.1118639;0.3680134;0;
-227.0532;0;0;0;-6.074857;-22.67718;-179.06;-178.0635;-0.1767188;0.1727415;0;
-253.4991;0;0;0;-13.10233;-18.56844;-202.6806;-205.1834;0.2132628;0.1076006;0;
116.5072;0;0;0;-15.63378;-18.01404;161.59;160.2142;-0.04682084;-0.2823116;0;
656.1813;0;0;0;-7.714818;-16.79025;695.6591;694.0973;-0.3066432;-0.1520932;0;
472.3641;0;0;0;-8.175581;-14.16104;517.3619;513.8027;0.01850167;0.2378637;0;
151.2381;0;0;0;5.898806;-20.44308;199.1268;198.8195;0.08345041;0.1726573;0;
188.8172;0;0;0;10.98309;-22.1641;234.6587;238.4122;0.1483339;0.04254916;0;
-140.9569;0;0;0;4.340625;-8.81247;-88.28987;-84.91498;-0.04671716;-0.08742828;0;
-665.9263;0;0;0;6.413345;-7.330113;-605.9409;-602.8818;-0.3065396;-0.02237309;0;
-532.2615;0;0;0;-2.569056;-4.241533;-475.21;-471.6541;-0.1762969;0.1725514;0;
-220.6331;0;0;0;-5.580585;-1.156178;-165.9502;-165.0216;0.08374961;-0.02252399;0;
-243.025;0;0;0;-4.034736;-13.74744;-186.8354;-188.9687;0.1486328;-0.3473381;0;
110.9789;0;0;0;-6.039438;-15.87708;161.1151;160.5456;-0.1763532;-0.3469891;0;
657.5925;0;0;0;-7.574587;-17.9376;701.494;701.4873;-0.1112087;-0.08677104;0;
476.2726;0;0;0;-9.977873;-20.39782;525.0649;522.8094;0.2787071;0.1082182;0;
139.0883;0;0;0;-1.595103;-19.90845;190.7052;190.9506;0.08352502;0.1081095;0;
182.6141;0;0;0;0.9520952;-21.29508;232.9922;236.3609;-0.2413956;0.3029028;0;
-139.595;0;0;0;-5.078057;-14.91043;-82.33354;-80.65491;-0.3710878;0.3675658;0;
-667.7517;0;0;0;-3.665459;-13.48881;-603.4263;-602.1242;-0.1108455;0.2372618;0;
-534.0851;0;0;0;-7.68124;-9.992262;-472.8853;-469.9603;0.2790699;0.4319254;0;
-234.2614;0;0;0;-8.611527;-7.102077;-175.8093;-175.5109;0.1488548;0.04168737;0;
-252.2044;0;0;0;-3.44531;-10.97983;-191.9994;-194.8872;0.2786399;-0.1532565;0;
117.6133;0;0;0;-3.776641;-10.165;172.8228;170.3751;0.2783599;-0.2830372;0;
650.4772;0;0;0;4.064034;-11.6954;700.6962;697.314;-0.2416585;-0.6725569;0;
468.4773;0;0;0;6.940339;-11.21476;523.1435;518.2654;-0.111481;-0.5419464;0;
149.1043;0;0;0;1.239938;-14.55252;205.5897;203.84;-0.306271;-0.3464998;0;
182.0004;0;0;0;1.573485;-16.34644;237.8043;238.6801;-0.3059632;0.04365238;0;
-147.392;0;0;0;-1.575928;-5.880917;-84.64764;-85.39699;0.08414825;0.2385105;0;
-661.1731;0;0;0;-3.048213;-3.530605;-592.8071;-592.931;0.01909635;-0.08656582;0;
-520.2042;0;0;0;-5.657118;-3.527058;-455.78;-453.4676;-0.1108575;0.2383579;0;
-219.9572;0;0;0;-9.135035;-1.648114;-157.6592;-158.0352;-0.1107461;0.368053;0;
-252.2199;0;0;0;-1.623767;-4.25867;-187.2358;-191.2971;-0.04566751;-0.08708817;0;
109.5394;0;0;0;-0.7514795;-5.594049;168.8984;165.7782;0.01934572;-0.4118374;0;
657.9661;0;0;0;-7.314808;-3.244026;711.4559;708.4638;-0.04564106;-0.2814889;0;
469.7742;0;0;0;-7.642251;-3.843613;528.4576;524.4691;-0.1755299;-0.2162387;0;
140.9047;0;0;0;-10.51496;-10.40396;201.6531;201.1668;-0.3702555;-0.2160214;0;
192.4247;0;0;0;-11.44142;-12.60394;250.1135;253.0635;-0.3049161;-0.08586966;0;
-138.415;0;0;0;-10.62662;-14.66762;-74.53721;-71.8401;0.08519427;-0.2157181;0;
-667.5723;0;0;0;-11.28553;-15.45668;-597.5119;-593.6306;0.150076;-0.02059929;0;
-524.3482;0;0;0;-5.178618;-18.72319;-458.5436;-452.7296;-0.3048462;0.1093561;0;
-225.6587;0;0;0;-3.09731;-19.97705;-162.3565;-158.9846;-0.1746052;-0.1506232;0;
-250.4819;0;0;0;-3.697411;-10.78056;-185.8689;-186.4985;0.08543963;0.3692669;0;
121.2706;0;0;0;-2.018756;-8.425328;180.1964;179.0677;-0.1095482;0.2389612;0;
655.1928;0;0;0;-5.299257;-5.13482;707.7501;705.9979;-0.1744055;-0.345985;0;
466.2541;0;0;0;-7.035245;-2.651293;522.8815;519.132;-0.2391976;-0.02080063;0;
144.8844;0;0;0;0.4065638;-1.309092;205.0156;203.4563;0.3457488;0.109155;0;
180.096;0;0;0;1.947373;0.299814;238.5427;240.9205;0.6052707;0.433882;0;
-147.3579;0;0;0;-6.82947;-4.925034;-82.97303;-81.15984;0.2148585;0.3684787;0;
-657.7032;0;0;0;-7.693264;-6.192761;-585.1996;-584.1379;0.5394794;-0.3465323;0;
-525.9833;0;0;0;-9.695266;-11.54505;-456.3011;-453.5538;0.4739699;-0.6060535;0;
-234.0387;0;0;0;-11.02469;-15.88722;-167.7375;-167.5541;0.08368964;-0.2806078;0;
-252.6066;0;0;0;-9.473375;-12.85702;-184.4979;-188.1253;-0.04632913;0.3693476;0;
113.2759;0;0;0;-11.74103;-15.52342;175.694;174.3816;-0.1762173;0.4989111;0;
653.8278;0;0;0;2.002144;-14.70403;709.7489;709.7496;-0.1110729;0.3035078;0;
467.5142;0;0;0;6.219691;-14.35434;528.8763;526.066;-0.04599391;0.4331375;0;
134.3367;0;0;0;-5.508205;-22.71266;199.0729;198.7017;-0.110915;-0.02206912;0;
181.0531;0;0;0;-5.57002;-23.69446;243.0382;247.0401;-0.1108036;-0.6717203;0;
-142.029;0;0;0;-9.917704;-24.80936;-75.42107;-71.3607;0.08420977;-0.08633933;0;
-671.5576;0;0;0;-12.38598;-25.72219;-598.7697;-594.6509;0.2140598;0.7583229;0;
-532.14;0;0;0;-8.355051;-19.80197;-462.2988;-457.2472;-0.1759593;0.6276262;0;
-227.2583;0;0;0;-8.078237;-18.57638;-159.4863;-157.0009;-0.2407498;-0.02267785;0;
-255.0159;0;0;0;-9.67771;-11.79269;-185.2505;-186.8281;-0.1105732;-0.4124591;0;
115.9915;0;0;0;-10.53962;-7.76186;179.6273;177.739;-0.1104621;-0.02224062;0;
657.0405;0;0;0;-1.955212;-8.356908;714.4279;712.1666;-0.1103511;0.1077164;0;
459.3543;0;0;0;-0.07723717;-4.128708;521.8065;518.1732;-0.1102403;-0.08729385;0;
136.8046;0;0;0;-0.747721;-13.83684;201.9427;200.5619;0.01980519;0.2376306;0;
181.8944;0;0;0;0.7942479;-16.36829;245.3429;246.6496;-0.1101494;0.1724245;0;
-156.2435;0;0;0;-7.11078;-3.156448;-85.98721;-85.30646;-0.3049407;-0.4124549;0;
-671.9521;0;0;0;-9.17974;-2.483447;-595.7695;-594.2149;-0.1746996;-0.2171384;0;
-524.6007;0;0;0;-6.089057;0.8010901;-453.0548;-449.128;-0.3044588;-0.0220182;0;
-235.7185;0;0;0;-4.542698;3.211549;-166.3685;-165.6314;-0.2391855;-0.2168981;0;
-256.4711;0;0;0;-8.020758;-6.704908;-185.1293;-189.0157;0.08589151;-0.1517128;0;
124.97;0;0;0;-4.530074;-8.975469;189.9933;187.2352;-0.1740642;-0.02162569;0;
654.2658;0;0;0;-7.071117;-7.894723;713.4766;710.7838;-0.4337586;0.1083307;0;
460.0807;0;0;0;-8.33681;-8.757568;523.105;518.6034;0.1513833;0.04325452;0;
138.5922;0;0;0;24.09082;-14.71013;203.9896;202.9282;-0.1086382;-0.4115603;0;
174.0601;0;0;0;32.64043;-17.10673;238.8295;241.5173;-0.6282678;-0.2162448;0;
-158.9475;0;0;0;30.33045;-13.20453;-88.87087;-86.93542;0.02203694;0.1737766;0;
-678.0893;0;0;0;35.25647;-14.53092;-602.8981;-600.34;0.6716881;-0.2811694;0;
-532.6057;0;0;0;23.09726;-5.540855;-461.1758;-456.4962;0.4761113;-0.3458543;0;
-231.6591;0;0;0;20.32738;-1.985314;-161.8001;-159.9364;-0.1090732;0.174232;0;
-265.3467;0;0;0;10.3276;-11.76258;-189.8109;-191.5097;0.02097108;0.2390243;0;
106.9829;0;0;0;3.350996;-12.55444;179.0695;178.0595;0.08591735;0.04388207;0;
657.4736;0;0;0;1.806411;-14.88622;720.8671;718.9211;-0.2390057;-0.3459661;0;
466.0339;0;0;0;-3.352968;-18.62219;529.4886;524.4836;0.02110384;-0.02078174;0;
140.8538;0;0;0;-1.138796;-10.4318;203.1829;200.994;-0.04388471;0.3690432;0;
183.0035;0;0;0;-2.677893;-8.947698;241.147;243.3332;-0.1737753;-0.08609901;0;
-153.5738;0;0;0;0.4052803;-19.05289;-89.80406;-88.93195;0.151236;-0.3458819;0;
-668.0358;0;0;0;1.677671;-18.89978;-598.4581;-597.8992;0.4109534;-0.02069762;0;
-523.3744;0;0;0;3.75209;-24.57421;-457.9271;-455.6821;0.4105405;0.04429052;0;
-235.9927;0;0;0;7.499364;-27.83156;-173.5472;-174.178;-0.1096108;-0.08568867;0;
-253.4342;0;0;0;-0.8135669;-11.39327;-191.926;-195.4297;-0.174468;-0.02063522;0;
133.626;0;0;0;-0.7454005;-8.635518;187.0764;185.013;0.08557672;0.1742876;0;
664.3499;0;0;0;1.934666;-7.287182;711.3748;709.1885;0.08549073;0.04417773;0;
467.5934;0;0;0;0.7936459;-3.997818;518.4442;514.386;0.6701108;-0.1507687;0;
152.6567;0;0;0;12.84929;-9.553263;203.9561;202.7755;0.6044703;0.04428483;0;
191.796;0;0;0;15.98518;-9.275732;239.3582;241.6771;-0.04581056;-0.2805964;0;
-151.5992;0;0;0;14.62898;-13.35225;-97.71298;-95.33396;0.01920281;-0.5401838;0;
-671.6229;0;0;0;18.03053;-14.74547;-610.3571;-606.9185;-0.04578383;0.04506506;0;
-517.3378;0;0;0;8.165798;-16.94109;-459.3194;-455.322;-0.2406399;0.3698565;0;
-219.9047;0;0;0;6.952145;-19.8712;-163.3189;-163.386;-0.1104634;0.1096155;0;
-254.9785;0;0;0;7.614745;-9.268172;-196.2007;-199.0164;0.2794517;-0.2153314;0;
126.5861;0;0;0;4.124469;-6.71363;179.6826;178.0567;0.2791709;-0.1501477;0;
671.6848;0;0;0;19.99516;-11.19462;719.2932;717.0443;-0.04594634;0.2398073;0;
463.2393;0;0;0;24.0609;-10.11164;516.2971;511.5517;0.1490019;0.6293704;0;
135.9382;0;0;0;13.98904;-9.632603;192.9406;190.1989;0.1488521;0.04403188;0;
180.779;0;0;0;14.91299;-9.28801;236.6622;237.5464;-0.04619946;-0.2808491;0;
-159.7316;0;0;0;11.41441;-9.211694;-97.65767;-97.33655;0.08378165;0.2391719;0;
-670.3769;0;0;0;10.06377;-9.403386;-603.3678;-602.4223;0.2136322;0.3688662;0;
-516.5927;0;0;0;13.33521;-9.059023;-453.8989;-451.0178;0.1484502;0.4334629;0;
-229.4677;0;0;0;12.71957;-9.451818;-167.8363;-167.6443;-0.1115684;0.2381254;0;
-250.0392;0;0;0;17.99808;-9.308355;-186.0959;-188.5903;-0.04648893;-0.151918;0;
141.6403;0;0;0;20.12345;-9.365985;199.3974;197.8426;0.08349246;-0.02183063;0;
667.9833;0;0;0;15.81632;-11.96891;720.6224;717.1951;-0.2414281;0.04315864;0;
461.728;0;0;0;15.53298;-13.3634;519.749;513.9513;-0.1762182;0.04311528;0;
150.2953;0;0;0;15.24896;-11.74251;210.5694;207.9634;0.4086649;0.6277781;0;
181.0663;0;0;0;12.55432;-12.66835;240.0304;240.6129;0.4082543;0.8220493;0;
-167.3781;0;0;0;17.96768;-13.32545;-101.9141;-101.6444;0.2129421;-0.2182542;0;
-670.3945;0;0;0;18.016;-13.71395;-599.3116;-598.1052;0.2127281;-0.5428716;0;
-520.296;0;0;0;8.688128;-17.11618;-453.22;-450.5156;0.08257966;0.04237995;0;
-232.6675;0;0;0;7.4066;-17.76881;-167.8454;-167.2051;0.08249668;-0.1525647;0;
-258.4831;0;0;0;-0.4377233;-20.63122;-192.4143;-194.4608;0.1473811;-0.282346;0;
120.7736;0;0;0;-2.513388;-21.81619;180.4667;178.8596;0.0822657;0.3026437;0;
660.7557;0;0;0;-4.386873;-19.24891;714.4544;711.9743;0.0172157;0.367307;0;
456.5691;0;0;0;-8.33458;-19.29656;514.8365;510.7347;-0.1127363;-0.02286615;0;
127.5255;0;0;0;13.84527;-14.32055;188.4205;187.6961;-0.1775903;-0.1527779;0;
177.4348;0;0;0;19.72585;-12.02874;236.3945;238.9192;-0.2423792;0.2371797;0;
-158.3873;0;0;0;13.81153;-14.69597;-93.6148;-92.21707;-0.3720704;0.1719741;0;
-677.5921;0;0;0;18.21829;-14.34629;-607.325;-605.1166;-0.1767945;-0.2829702;0;
-520.4899;0;0;0;7.482711;-12.72429;-454.5412;-450.9607;-0.1116495;-0.3476532;0;
-224.9902;0;0;0;4.393734;-12.57754;-160.5445;-160.5284;0.0833647;-0.2823365;0;
-250.876;0;0;0;12.3609;-15.17723;-184.621;-187.8532;0.278183;-0.2820528;0;
136.3691;0;0;0;10.67354;-16.90342;195.6234;193.2066;0.01803407;-0.1518347;0;
663.9043;0;0;0;9.457365;-15.07801;717.9142;715.3749;-0.1768861;0.3030893;0;
451.7185;0;0;0;7.170686;-15.39778;510.5468;506.6981;-0.111741;0.17285;0;
142.2325;0;0;0;8.570001;-21.07573;202.6882;201.2797;0.01830596;0.04274165;0;
184.2559;0;0;0;9.90056;-22.72901;243.7138;244.6806;0.1482223;0.6274048;0;
-173.8119;0;0;0;-5.112589;-21.43362;-108.2917;-107.8882;-0.04682871;0.366905;0;
-679.4455;0;0;0;-7.117184;-21.14415;-608.8688;-608.0283;-0.2416837;0.106667;0;
-517.0941;0;0;0;-12.13387;-20.85497;-450.3363;-448.2474;-0.2414408;0.3664292;0;
-233.904;0;0;0;-18.55204;-19.02548;-169.7122;-169.3745;-0.2411982;0.04122425;0;
-256.9698;0;0;0;9.465219;-18.80541;-191.8429;-195.4411;0.01891349;0.1711175;0;
129.2819;0;0;0;15.35021;-17.98272;188.4713;184.1896;0.08386183;0.6906843;0;
658.5109;0;0;0;5.68924;-9.525044;712.0186;708.1161;-0.04615712;0.4950883;0;
450.9532;0;0;0;8.697634;-7.907884;508.3427;503.1322;0.08382394;-0.2200499;0;
131.6604;0;0;0;0.04870619;-3.144271;191.0537;188.5346;-0.241097;-0.3497635;0;
181.3156;0;0;0;-1.358838;-0.9307973;239.7746;240.6938;-0.3707894;-0.2194774;0;
-161.0072;0;0;0;-5.979173;-7.761877;-95.79777;-96.12887;-0.1105475;-0.02435484;0;
-675.3992;0;0;0;-10.99603;-7.821061;-604.8831;-605.0264;-0.3053384;0.1705717;0;
-517.9869;0;0;0;1.205179;-20.2048;-451.8519;-450.1835;-0.4999337;-0.1544364;0;
-232.5471;0;0;0;2.409417;-25.00715;-167.9778;-169.2472;-0.434464;-0.284216;0;
-257.3634;0;0;0;-3.286431;-21.2311;-191.5471;-195.6887;-0.1091907;0.04090634;0;
131.325;0;0;0;-2.94736;-24.02293;190.5784;187.9402;-0.1740483;0.4306693;0;
656.8663;0;0;0;-5.557343;-15.62617;711.3126;707.9898;-0.4337428;0.7550732;0;
450.6221;0;0;0;-6.757208;-13.19908;509.0741;504.2555;-0.1734376;0.4944452;0;
135.9523;0;0;0;-3.736308;-15.26229;196.2196;194.4668;-0.04332867;0.234079;0;
175.7956;0;0;0;-3.196691;-13.17048;234.8154;236.0004;-0.04328514;0.03894177;0;
-171.5191;0;0;0;-4.197856;-14.36294;-107.2487;-106.4397;0.3465624;0.2338047;0;
-679.9036;0;0;0;-2.385953;-13.94661;-610.7003;-608.3929;0.3462142;0.3635044;0;
-517.1769;0;0;0;-7.205351;-12.65992;-451.4164;-447.6746;-0.04393775;-0.02666487;0;
-229.0518;0;0;0;-8.068768;-12.37927;-164.7942;-164.9292;0.1510084;-0.09160542;0;
-255.3083;0;0;0;2.924053;-13.30459;-189.741;-193.4365;0.6056281;0.1033887;0;
133.8152;0;0;0;5.801503;-13.62614;193.1323;190.3775;0.2801828;0.4930888;0;
662.54;0;0;0;8.675086;-13.74641;716.1127;713.0484;-0.2398374;0.6225281;0;
447.4195;0;0;0;12.75221;-14.33545;505.7486;501.438;-0.4344985;0.03719644;0;
126.7559;0;0;0;8.788254;-12.24457;187.5876;186.2173;-0.3690945;0.03715907;0;
177.7903;0;0;0;10.05124;-11.62942;236.8742;238.5663;0.2159824;0.03712173;0;
-166.0905;0;0;0;10.97915;-14.69895;-101.3814;-100.1908;0.4106674;0.1020518;0;
-680.54;0;0;0;10.4996;-15.75591;-610.5236;-607.8349;0.2153527;0.4267859;0;
-514.002;0;0;0;15.5129;-12.52489;-448.2414;-443.9312;0.4100384;0.3613898;0;
-222.7567;0;0;0;15.56368;-12.11041;-159.4984;-159.0656;0.2147243;0.2960593;0;
-254.0795;0;0;0;18.29471;-15.17946;-189.2606;-192.389;-0.04536077;0.2307945;0;
139.1657;0;0;0;19.81657;-15.63309;197.9226;195.6719;-0.04531519;0.1655952;0;
666.6357;0;0;0;9.950043;-15.88531;719.4615;717.213;-0.4350737;0.1004615;0;
447.3882;0;0;0;7.127006;-16.0703;505.0334;501.413;-0.1747672;-0.02957414;0;
137.1569;0;0;0;8.125198;-16.52291;197.1805;196.1249;0.5400492;0.1003903;0;
175.7496;0;0;0;5.838883;-16.97519;233.9638;235.5954;0.4745392;0.2302241;0;
-182.2471;0;0;0;5.097058;-14.61385;-117.7821;-116.8393;0.2791604;0.5548295;0;
-682.5624;0;0;0;3.751789;-13.99632;-612.9149;-610.6611;0.4088145;0.6842067;0;
-516.772;0;0;0;4.283883;-11.97277;-451.5673;-447.8791;0.08356705;0.5535845;0;
-234.0821;0;0;0;4.748093;-9.616456;-170.4421;-170.8806;-0.501223;0.4230936;0;
-267.3926;0;0;0;2.265076;-14.83134;-201.5052;-205.5663;-0.1758827;0.03286436;0;
123.055;0;0;0;2.933361;-14.88342;182.2545;179.0095;-0.2406733;-0.2920054;0;
659.5991;0;0;0;5.542382;-11.1844;712.055;708.251;-0.5652682;-0.3566793;0;
448.667;0;0;0;8.148782;-11.17317;505.8178;500.1436;-0.1748961;-0.0314842;0;
137.6223;0;0;0;4.992762;-5.066736;196.5273;194.1696;0.08514899;0.3583515;0;
181.5869;0;0;0;3.848669;-3.186123;238.746;239.8889;0.2799655;0.2930241;0;
-170.6062;0;0;0;20.92508;-5.996083;-106.5704;-106.6155;0.4096188;0.2277623;0;
-674.8062;0;0;0;25.72683;-6.25799;-604.8378;-605.3826;0.2792726;0.3574681;0;
-512.1471;0;0;0;18.26624;-5.448029;-445.5599;-444.9172;0.3439593;0.03227223;0;
-228.4623;0;0;0;19.31961;-4.839708;-164.1284;-164.9232;0.408581;-0.09769488;0;
-257.0933;0;0;0;12.06653;-13.34143;-191.5746;-195.3046;0.08333377;-0.2275314;0;
137.5293;0;0;0;7.365357;-15.67243;195.9232;193.3839;-0.306554;-0.2922701;0;
671.3103;0;0;0;12.58287;-13.17831;723.3361;721.2366;-0.1763113;-0.2270091;0;
453.6198;0;0;0;10.15835;-14.43775;511.9652;506.6819;0.08373522;-0.09684632;0;
136.2608;0;0;0;3.249269;-8.997746;197.1712;194.0172;0.08365108;0.03318567;0;
182.2882;0;0;0;-0.03652549;-7.649046;240.951;241.2984;0.3434364;-0.226717;0;
-173.4662;0;0;0;-3.720184;-5.966787;-107.3036;-107.8312;-0.04671274;-0.2914566;0;
-681.5989;0;0;0;-5.658829;-3.750477;-610.0056;-609.4082;-0.1116331;0.03367299;0;
-509.5002;0;0;0;-11.68136;-9.172204;-443.2886;-441.0677;0.5381525;-0.2262302;0;
-230.4408;0;0;0;-13.88043;-10.56963;-166.1698;-166.5123;0.2777423;-0.3559376;0;
-259.632;0;0;0;-7.502492;-7.410811;-193.8014;-197.2044;0.01759389;0.2940935;0;
147.4245;0;0;0;-5.217778;-8.140177;205.9425;202.2305;0.2124782;0.3587653;0;
668.1395;0;0;0;-2.332147;-11.21309;720.9766;716.3938;0.01736271;-0.1613339;0;
442.7686;0;0;0;2.224547;-12.40752;501.1123;495.4721;-0.3074915;0.1636649;0;
141.1001;0;0;0;3.628832;-15.20833;201.8215;198.5608;-0.3721498;0.03356579;0;
178.3146;0;0;0;6.438225;-16.39862;236.851;236.3422;-0.1119065;-0.4212393;0;
-190.2419;0;0;0;15.40771;-18.72655;-125.8923;-126.9628;0.1480753;-0.225914;0;
-684.3024;0;0;0;18.60741;-20.7842;-615.3322;-615.2772;0.2778612;-0.1607197;0;
-507.016;0;0;0;20.73217;-15.67274;-442.8628;-440.9338;0.2126147;-0.09559087;0;
-226.3974;0;0;0;22.58637;-15.38906;-163.4955;-164.567;-0.177403;0.2943092;0;
-249.7206;0;0;0;18.0757;-15.70851;-185.4451;-189.389;-0.1122574;0.3589809;0;
146.144;0;0;0;17.52167;-15.08988;203.5458;201.0426;-0.04717729;0.3586202;0;
661.7379;0;0;0;5.917116;-18.75865;714.0221;712.4584;0.01783746;0.4232272;0;
435.3115;0;0;0;-0.9886813;-19.40964;494.727;492.103;0.2776889;0.1629325;0;
125.592;0;0;0;10.33279;-20.93062;190.4451;188.9481;0.1474752;-0.1620679;0;
176.7526;0;0;0;10.05399;-21.51243;239.5415;240.7946;0.01739233;-0.09693772;0;
-179.1837;0;0;0;2.34073;-21.75875;-114.5839;-113.2695;0.01737485;0.3579311;0;
-681.3762;0;0;0;2.674147;-21.53594;-616.2165;-615.7156;-0.04760995;0.4225388;0;
-502.9683;0;0;0;-5.23277;-19.70588;-444.4334;-443.5581;-0.3074315;-0.2275592;0;
-222.4787;0;0;0;-8.308971;-18.68134;-166.0015;-167.376;-0.4370573;-0.7470693;0;
-249.1791;0;0;0;-1.936634;-15.84928;-190.6348;-195.5686;-0.2417161;-0.5514166;0;
155.493;0;0;0;-6.155222;-15.23063;208.044;203.6773;-0.1765058;0.03384352;0;
671.14;0;0;0;7.984483;-8.852071;717.079;712.8416;-0.1113612;0.09877687;0;
445.3913;0;0;0;8.512323;-6.364808;494.9697;489.05;0.08365276;-0.03125708;0;
145.4693;0;0;0;0.0636768;-14.26228;197.3092;193.7693;0.1485361;0.2286437;0;
183.0541;0;0;0;3.077723;-16.19033;233.3428;233.492;-0.3063846;0.3583486;0;
-186.0694;0;0;0;-42.40544;-15.90613;-129.2096;-129.0605;-0.4360114;0.2930212;0;
-679.3843;0;0;0;-57.83552;-17.43075;-617.7716;-616.7481;-0.04576926;-0.09707725;0;
-503.9146;0;0;0;-32.72652;-23.70951;-447.1738;-445.1518;-0.175658;-0.4867837;0;
-228.6713;0;0;0;-35.57403;-26.83377;-172.7372;-174.9651;0.01942057;-0.2264253;0;
-255.8652;0;0;0;-27.96885;-24.86442;-197.3012;-202.338;0.2143031;0.3585083;0;
145.8151;0;0;0;-22.18094;-26.11199;198.0734;195.8528;0.01918573;0.4880828;0;
669.5302;0;0;0;-27.71738;-24.74622;716.7386;714.7076;0.2790358;0.0977883;0;
441.2844;0;0;0;-24.87649;-24.18549;493.1304;489.4148;0.2137881;-0.1621793;0;
129.0602;0;0;0;-15.87652;-26.30452;182.5408;181.5776;-0.04629608;0.4226897;0;
182.0913;0;0;0;-11.90845;-26.88093;234.2063;235.8053;0.3435545;0.4872323;0;
-171.8514;0;0;0;-14.64217;-23.70585;-113.1045;-112.5067;0.08333991;-0.09796333;0;
-676.7998;0;0;0;-14.76216;-23.14616;-612.2399;-611.2054;-0.3715152;-0.3577343;0;
-502.3321;0;0;0;-12.93866;-25.19938;-442.3349;-439.2399;-0.1762399;-0.2274401;0;
-221.7806;0;0;0;-13.39418;-24.83914;-163.9676;-163.8118;-0.04612812;0.1625925;0;
-251.7301;0;0;0;-19.61001;-29.10097;-192.1636;-196.0684;-0.1110491;0.2923638;0;
152.3199;0;0;0;-21.66641;-29.87552;205.1424;202.3035;-0.5007416;0.09716799;0;
666.4708;0;0;0;-22.78372;-27.83602;714.1803;710.5946;-0.3703038;0.227005;0;
438.4154;0;0;0;-22.96189;-27.33917;490.2624;485.3684;0.01987238;0.2267769;0;
143.5604;0;0;0;-26.08665;-25.23522;195.9799;194.964;-0.04511493;0.03164704;0;
178.8358;0;0;0;-26.66365;-24.20525;230.2032;231.9993;-0.1750043;-0.0333521;0;
-191.158;0;0;0;-17.92933;-20.7648;-132.7833;-132.3632;-0.3697305;0.2265508;0;
-673.9106;0;0;0;-16.50479;-20.54298;-609.91;-609.9276;0.08541244;0.4861925;0;
-494.3234;0;0;0;-4.565488;-15.23081;-434.0727;-433.1533;0.4751307;0.290802;0;
-226.0238;0;0;0;1.267225;-13.80899;-167.7702;-169.0381;0.2147839;-0.1642616;0;
-250.0345;0;0;0;-6.772001;-21.56489;-190.5276;-194.4804;0.01966604;-0.09912925;0;
158.3865;0;0;0;-4.890162;-22.61495;211.5869;208.2002;-0.1102884;0.2907744;0;
668.0336;0;0;0;-12.31999;-31.96959;716.4329;711.9877;-0.2401123;0.615319;0;
431.481;0;0;0;-15.79023;-35.95638;485.2039;478.7017;-0.1749037;0.484766;0;
123.9518;0;0;0;-7.737391;-35.7193;179.3073;176.4349;0.1501088;0.09447485;0;
174.6142;0;0;0;-7.863338;-38.83155;227.9776;228.7937;0.08499062;0.09437992;0;
-180.5703;0;0;0;-8.793443;-30.82168;-120.9512;-120.8856;0.1498726;-0.03564961;0;
-684.5105;0;0;0;-7.846601;-29.38419;-619.3291;-618.7013;0.4745587;0.02935356;0;
-503.7257;0;0;0;-9.177888;-29.82355;-443.4823;-441.2935;0.2791798;0.1592588;0;
-219.1749;0;0;0;-8.29801;-28.38694;-161.1159;-161.1157;0.2139319;0.02916404;0;
-251.3134;0;0;0;-6.615709;-28.49238;-191.0014;-193.5;0.1487496;0.1590694;0;
159.0455;0;0;0;-5.067844;-27.25806;212.3628;209.9293;-0.4361059;0.0289749;0;
673.627;0;0;0;-4.460515;-32.79013;721.0187;717.2133;-0.04586364;0.09391315;0;
432.6334;0;0;0;-4.589755;-34.36472;485.3498;480.8611;0.2140518;0.2237535;0;
136.0351;0;0;0;4.189743;-33.25852;190.1977;189.7115;0.01893471;-0.1662754;0;
178.9392;0;0;0;6.864851;-34.83263;230.9235;233.2489;0.1488504;-0.101141;0;
-196.6768;0;0;0;2.101554;-32.38631;-138.4979;-137.7991;-0.1761359;0.15883;0;
-679.3615;0;0;0;2.836377;-32.28678;-616.306;-615.0457;-0.1109916;-0.101199;0;
-487.8997;0;0;0;-5.137076;-32.65624;-428.4059;-425.5851;0.1489893;-0.425934;0;
-222.1054;0;0;0;-9.753614;-31.28377;-163.6708;-164.0387;-0.1759971;-0.5554407;0;
-247.3694;0;0;0;-1.705862;-35.13728;-187.3069;-190.9228;-0.1108529;-0.1650786;0;
163.2354;0;0;0;-2.775875;-34.70008;216.2411;213.1285;0.01919315;-0.1649127;0;
664.5068;0;0;0;-6.657852;-33.12466;711.0875;707.7906;-0.04579348;-0.4246163;0;
434.392;0;0;0;-7.120653;-32.42155;485.6109;482.4424;-0.3705842;-0.03438563;0;
139.9783;0;0;0;-14.54824;-25.89175;194.1442;194.602;-0.2402771;0.2904857;0;
179.5052;0;0;0;-16.40865;-23.52145;232.4923;235.0111;0.08480102;0.09529173;0;
-191.6138;0;0;0;-18.20083;-19.27789;-131.9957;-131.1036;-0.4999903;-0.2946081;0;
-689.5458;0;0;0;-20.9292;-16.24441;-624.303;-623.7242;-0.7593572;-0.2293447;0;
-505.8824;0;0;0;-11.93222;-17.3668;-445.3279;-443.3129;-0.4337575;0.1606898;0;
-226.1395;0;0;0;-10.37999;-15.94271;-167.2075;-167.7557;-0.303387;0.3554304;0;
-245.4025;0;0;0;-9.498901;-19.20873;-185.1554;-189.7635;0.1516892;0.2251385;0;
164.5757;0;0;0;-6.140454;-20.26116;217.141;212.9748;0.02160213;-0.1648917;0;
664.7213;0;0;0;-15.17661;-18.63333;711.7366;706.8875;-0.3032563;-0.03479138;0;
432.17;0;0;0;-16.50054;-19.28432;483.6982;477.1048;0.2167872;0.3550476;0;
141.6315;0;0;0;-14.87636;-18.59523;194.1075;191.4563;0.151602;0.1597889;0;
177.7835;0;0;0;-18.94725;-18.44258;229.5196;230.6816;0.1514497;0.02969361;0;
-198.3312;0;0;0;-3.589246;-19.22772;-139.7131;-139.052;0.3461995;-0.03530357;0;
-683.1381;0;0;0;0.5665701;-19.27538;-619.7688;-618.5462;0.02101494;-0.1002354;0;
-495.3582;0;0;0;-16.58065;-17.17967;-436.3629;-433.9547;0.1509285;-0.1651021;0;
-226.1206;0;0;0;-16.3639;-16.09068;-168.309;-168.5268;0.4756136;-0.09996882;0;
-245.0088;0;0;0;-24.45178;-16.47641;-185.2563;-188.2225;0.345201;0.2899357;0;
170.2788;0;0;0;-27.10653;-15.18718;222.9748;220.6362;-0.3048193;0.224677;0;
670.9185;0;0;0;-19.84562;-16.71252;718.5015;715.0409;-0.4344477;-0.1003855;0;
434.0505;0;0;0;-22.10286;-16.69573;487.3329;481.8768;0.08572757;0.02965009;0;
143.1979;0;0;0;0.6266868;-11.45441;198.3633;196.5358;0.1506088;-0.03534704;0;
186.1573;0;0;0;6.921721;-10.03626;239.3307;240.6285;-0.2393466;-0.03531152;0;
-194.2136;0;0;0;2.828929;-8.150774;-135.0966;-135.1745;-0.1741388;0.0296913;0;
-686.396;0;0;0;9.189099;-5.731199;-621.9036;-621.3567;0.1508729;-0.03530588;0;
-490.1796;0;0;0;-15.6026;-8.270791;-429.1878;-427.0172;0.2156887;0.1596316;0;
-214.5753;0;0;0;-22.01728;-7.056788;-155.6438;-156.9112;0.1505046;0.09450389;0;
-241.2837;0;0;0;-12.34962;-7.652544;-182.5363;-187.1758;0.2153207;0.1593763;0;
171.5014;0;0;0;-16.89254;-8.046752;222.2562;219.1831;-0.3696017;0.02928144;0;
675.0759;0;0;0;-7.02895;-1.206529;720.9695;717.15;-0.4341977;-0.16565;0;
436.5796;0;0;0;-5.816438;0.4022733;488.5491;482.7344;0.410814;0.02941846;0;
145.537;0;0;0;-9.025774;1.540579;199.7031;197.9547;0.3454339;-0.1655131;0;
186.2452;0;0;0;-5.600454;3.280465;238.1705;240.3594;-0.3045866;-0.2952815;0;
-193.4387;0;0;0;-22.40767;-1.0766;-135.4436;-134.3189;-0.2393132;-0.1650501;0;
-679.9372;0;0;0;-26.73843;-2.214228;-616.8155;-615.5045;0.1507313;-0.09991693;0;
-488.6623;0;0;0;-15.86057;-1.542174;-430.1017;-427.7926;0.02064516;-0.03484919;0;
-220.6182;0;0;0;-17.78702;-3.28218;-162.9286;-163.7453;-0.434147;0.03015317;0;
-242.0732;0;0;0;-6.583362;-3.94859;-182.5675;-186.3193;-0.6935801;-0.09981181;0;
174.7732;0;0;0;-2.49091;-6.222042;226.8478;224.2866;-0.2381118;-0.03474418;0;
670.2234;0;0;0;-14.1427;-6.617687;716.9984;714.0025;0.3468335;0.03025807;0;
433.1688;0;0;0;-13.99477;-7.749748;485.7063;480.5895;0.151583;-0.3595764;0;
153.4364;0;0;0;-18.66976;-15.51174;207.9826;205.3073;-0.368308;-0.2292804;0;
191.8254;0;0;0;-20.72711;-18.30943;243.5681;244.5811;-0.3029706;0.2906887;0;
-193.7362;0;0;0;-16.88886;-16.68345;-136.3607;-134.9115;0.02217051;0.03052727;0;
-681.6711;0;0;0;-16.80454;-15.7959;-619.3559;-616.7837;-0.3026885;0.09546395;0;
-495.0796;0;0;0;-13.97462;-21.74139;-437.6371;-434.7551;-0.237417;0.2253027;0;
-225.9672;0;0;0;-12.35299;-22.25541;-170.7063;-171.5129;0.2825603;-0.5545318;0;
-245.98;0;0;0;-7.316732;-14.6641;-189.3378;-193.3919;0.1523417;-0.6189419;0;
168.6214;0;0;0;-3.759407;-14.44841;219.3346;215.347;0.217156;0.0313534;0;
673.1983;0;0;0;-3.68828;1.239744;718.8005;714.3797;0.08700309;0.1612566;0;
433.4545;0;0;0;-0.7378131;7.601633;483.5712;478.0303;-0.04301902;-0.2287095;0;
138.8543;0;0;0;-2.880526;-4.864465;190.7322;188.4453;0.2818609;-0.1635123;0;
186.5033;0;0;0;-2.94498;-4.725611;236.8923;238.4807;0.151643;-0.09838071;0;
-193.6181;0;0;0;1.545957;-9.27558;-136.908;-136.0083;0.2814253;-0.2282165;0;
-692.6102;0;0;0;1.008541;-12.61541;-630.7097;-629.6235;0.6059793;-0.1630199;0;
-498.1991;0;0;0;5.96402;-11.19609;-440.2338;-437.5245;0.2155663;-0.3577581;0;
-221.8372;0;0;0;7.364547;-13.26131;-165.117;-165.6588;-0.109487;-0.422366;0;
-246.6017;0;0;0;-0.6134558;-13.38195;-187.7522;-192.0415;-0.3692463;0.1627645;0;
179.1822;0;0;0;-1.750939;-14.23916;231.101;227.1283;-0.6287447;0.2925357;0;
682.9363;0;0;0;-10.39034;-11.41169;728.6187;723.8378;-0.2383089;0.09733968;0;
431.9384;0;0;0;-16.54185;-9.055822;482.26;475.9847;-0.1081347;-0.09766016;0;
149.896;0;0;0;-4.870926;-15.54395;202.2284;199.3328;-0.3029281;-0.4223987;0;
188.7882;0;0;0;-4.798683;-16.60005;239.6313;240.4867;-0.3026237;-0.2270723;0;
-209.5138;0;0;0;-12.83181;-7.339974;-152.2251;-151.3081;0.02251706;-0.09690944;0;
-686.7509;0;0;0;-13.62223;-5.457077;-624.3348;-622.9189;0.2173965;-0.2267468;0;
-486.9109;0;0;0;-19.30197;-5.786508;-427.8059;-426.5165;0.1522107;0.03335045;0;
-231.2999;0;0;0;-22.02924;-4.307069;-173.8785;-175.4639;0.0870904;0.1632516;0;
-250.1829;0;0;0;-17.78754;-7.116024;-192.2569;-195.1526;-0.0429318;0.2280549;0;
181.6641;0;0;0;-17.70232;-7.979652;232.223;230.5171;-0.107856;0.3577605;0;
676.5452;0;0;0;-16.61281;-6.765942;720.9938;718.4152;0.02218706;0.2924336;0;
424.9915;0;0;0;-13.98415;-7.027075;474.6429;470.3176;0.1520994;0.0972378;0;
137.0215;0;0;0;-19.06031;-9.766192;188.6219;188.2991;0.216914;-0.2276966;0;
179.0501;0;0;0;-19.37595;-10.09129;227.6002;230.9633;0.1517287;0.1623362;0;
-205.624;0;0;0;-8.773911;-11.28685;-150.3136;-149.4526;0.2815109;0.7468792;0;
-689.9863;0;0;0;-5.884706;-11.40947;-628.7345;-628.4366;0.2162607;0.5512267;0;
-491.2051;0;0;0;-5.878794;-9.120587;-435.3247;-433.278;0.0861087;0.4207381;0;
-222.0341;0;0;0;-4.466367;-8.642543;-166.9594;-168.5379;0.6057609;0.2254133;0;
-244.3621;0;0;0;-2.251076;-3.275346;-186.2819;-192.1691;0.4102502;-0.03468253;0;
175.0477;0;0;0;-0.5748512;-1.329672;225.5734;220.0044;0.02003394;-0.294517;0;
669.1859;0;0;0;-7.272079;0.3462376;713.5388;707.788;0.3448505;-0.3591885;0;
424.8234;0;0;0;-8.470221;2.824136;474.6916;468.0095;0.149602;-0.2938602;0;
141.1639;0;0;0;-10.00293;-3.273904;192.4812;189.1792;-0.2403524;-0.2285976;0;
180.5022;0;0;0;-12.73857;-4.409325;229.4566;229.0939;0.3445952;0.3563382;0;
-206.922;0;0;0;-4.956234;-1.993631;-151.1452;-152.3197;0.8639877;0.7457842;0;
-686.348;0;0;0;-3.544735;-2.393525;-625.8172;-625.866;0.4733155;0.5501328;0;
-487.6328;0;0;0;-7.425939;-2.726035;-431.2234;-430.585;0.08303585;0.354678;0;
-224.7123;0;0;0;-6.748892;-2.790278;-170.1086;-173.5938;-0.371819;0.4842563;0;
-241.353;0;0;0;-7.411696;-1.648765;-186.8042;-192.3474;-0.5663474;0.158933;0;
185.0503;0;0;0;-7.203178;-0.6423641;232.9226;229.5714;-0.2409416;-0.2310307;0;
674.993;0;0;0;-5.052486;-2.785172;718.9442;714.2845;0.1491045;-0.1008639;0;
425.6272;0;0;0;-3.908334;-3.452081;474.4068;468.1901;0.01902003;0.0291721;0;
140.5302;0;0;0;-3.368543;2.110727;190.3851;188.0478;-0.3058358;0.2890122;0;
184.8666;0;0;0;-2.15971;3.247316;232.8599;233.6483;-0.3055285;0.5485911;0;
-203.0618;0;0;0;0.4544287;1.30167;-148.6824;-148.5195;-0.04535212;-0.03666618;0;
-693.2987;0;0;0;1.994214;1.434328;-633.7891;-632.6268;0.1495955;-0.4264334;0;
-487.6426;0;0;0;6.212745;-0.7105673;-432.2532;-429.8428;0.2144125;-0.1011682;0;
-216.726;0;0;0;9.689126;-1.848563;-162.6417;-163.4196;0.08426237;0.1588028;0;
-245.6186;0;0;0;3.249029;-1.243859;-189.902;-192.9904;-0.04575698;0.2885779;0;
183.0378;0;0;0;1.705523;-1.175627;230.9523;230.1784;-0.1756457;0.3532553;0;
678.9795;0;0;0;13.69388;-6.198043;721.0363;720.2006;-0.04553451;-0.03690368;0;
422.8007;0;0;0;16.22474;-8.268165;470.1251;466.6666;0.08444592;-0.1668013;0;
141.8919;0;0;0;10.71608;-0.9589608;190.8553;189.7741;-0.04557361;0.2881377;0;
180.2299;0;0;0;11.10745;0.9845078;227.8324;230.5628;-0.1754625;0.2878482;0;
-217.4389;0;0;0;14.1104;-2.097696;-162.388;-159.348;-0.1103189;0.02768959;0;
-690.42;0;0;0;18.31578;-1.023862;-630.3021;-626.1406;0.3445634;-0.03730557;0;
-485.2665;0;0;0;4.432276;-1.42473;-429.4569;-424.7374;0.2142825;-0.1022354;0;
-233.3428;0;0;0;2.016925;-2.160111;-179.4008;-178.4967;-0.3706389;0.02780198;0;
-249.1003;0;0;0;20.90286;4.875145;-194.4629;-195.996;-0.04542977;0.3526108;0;
190.6166;0;0;0;22.89159;6.343871;239.0147;238.1079;0.2144852;0.2223218;0;
671.9955;0;0;0;37.13583;2.98835;715.7223;713.7544;-0.110567;-0.03777099;0;
416.8232;0;0;0;43.39516;3.320262;465.0663;461.5386;-0.4352926;0.0272343;0;
141.8548;0;0;0;32.50056;-1.170808;191.6112;190.4609;-0.1749858;-0.03776041;0;
177.6318;0;0;0;31.59628;-2.442308;225.4641;228.188;-0.04487533;0.4170489;0;
-210.6017;0;0;0;25.80473;-3.511459;-157.1328;-153.662;-0.1747649;0.6764992;0;
-685.4637;0;0;0;21.89403;-5.048538;-626.9886;-623.4589;0.1502474;0.1560808;0;
-483.4387;0;0;0;13.90046;-2.900133;-428.4581;-425.0568;-0.1747403;-0.0389781;0;
-218.4609;0;0;0;10.27014;-3.700892;-164.66;-164.6979;-0.2395321;0.02602841;0;
-248.4137;0;0;0;3.963182;1.929271;-193.5424;-196.5788;-0.04438934;0.2858716;0;
177.2471;0;0;0;1.414581;4.338596;225.3166;223.0954;-0.3691815;0.3505517;0;
676.6304;0;0;0;7.909894;-1.962037;719.6541;716.6855;-0.1739085;0.02536278;0;
420.0791;0;0;0;7.969295;-2.161015;468.182;463.03;0.08613564;0.155272;0;
134.8002;0;0;0;25.17529;0.6544399;184.9787;183.0802;-0.1088529;0.350018;0;
179.9545;0;0;0;30.30756;2.395216;227.3964;230.1226;-0.04377621;0.2197316;0;
-208.2188;0;0;0;35.09988;-4.506188;-156.2019;-154.2281;0.02123511;0.2844782;0;
-682.5211;0;0;0;41.69506;-6.77908;-625.2466;-624.2743;-0.1087209;0.5440617;0;
-480.499;0;0;0;22.43041;4.279671;-426.343;-424.8094;-0.173579;0.4135803;0;
-229.5171;0;0;0;20.26442;4.9452;-176.5399;-178.2563;-0.1084372;-0.106574;0;
-247.0276;0;0;0;10.33009;8.557188;-192.8543;-198.6294;-0.3681976;-0.04149956;0;
195.2485;0;0;0;0.6751476;11.22791;241.7462;236.664;-0.4977624;0.3483462;0;
675.1859;0;0;0;20.63416;0.8345146;716.0148;711.5624;-0.1074582;0.2830288;0;
409.953;0;0;0;20.88185;-0.9748632;456.6753;450.9156;0.2174865;0.08784243;0;
138.9895;0;0;0;11.14798;-5.327652;188.2886;184.6586;0.08733329;0.08775417;0;
179.7668;0;0;0;9.931326;-9.676067;227.4546;226.8892;-0.1076565;0.282568;0;
-218.5887;0;0;0;4.42899;-5.17861;-164.5145;-165.0169;-0.237483;0.4122188;0;
-688.2578;0;0;0;1.611501;-6.914963;-627.4914;-626.7439;-0.1073097;0.2169026;0;
-478.109;0;0;0;-1.80637;-7.24293;-419.9649;-418.2187;-0.04223452;0.2166846;0;
-217.322;0;0;0;-5.019736;-6.967721;-162.2348;-164.3008;0.02277526;0.0865322;0;
-248.5253;0;0;0;-6.622282;-13.5248;-194.8053;-200.3051;0.2176544;-0.1734241;0;
182.0706;0;0;0;-9.093875;-15.05182;226.7411;222.2464;-0.107401;-0.2382172;0;
691.1317;0;0;0;-6.472769;-13.831;729.6979;724.9578;-0.5620645;-0.1730105;0;
426.3824;0;0;0;-5.327189;-14.68788;470.3447;464.6098;-0.1067283;0.08703271;0;
130.1652;0;0;0;-12.28806;-12.06091;175.52;173.2892;0.283183;0.2168799;0;
177.5105;0;0;0;-13.54851;-11.11103;221.1956;222.2779;0.1529637;0.02175998;0;
-219.2185;0;0;0;-7.975193;-10.16211;-167.8312;-167.5621;-0.236994;-0.04322923;0;
-691.4482;0;0;0;-7.69876;-7.606668;-634.7403;-633.7219;-0.4316579;0.2166836;0;
-475.0494;0;0;0;-1.662804;-12.08676;-422.9586;-419.7549;-0.3012895;0.2814332;0;
-223.011;0;0;0;2.625775;-11.87366;-171.035;-170.9579;-0.1060847;0.1512157;0;
-245.1507;0;0;0;-7.156128;-4.828648;-190.9156;-193.962;0.02395655;-0.1737729;0;
193.1254;0;0;0;-6.881494;-2.948274;239.4975;238.0783;-0.3009042;-0.303533;0;
673.19;0;0;0;-3.926842;-0.5340484;714.6429;712.2256;-0.6254386;0.1515434;0;
411.3323;0;0;0;-4.325038;0.672181;458.3033;453.7021;-0.2350061;0.3462932;0;
138.8058;0;0;0;3.046698;2.88182;186.1044;185.4433;0.2200014;0.02110847;0;
173.9611;0;0;0;3.714198;3.079874;219.463;222.8631;0.154813;-0.04388008;0;
-228.0117;0;0;0;11.14521;2.40695;-174.9968;-172.5372;0.08969013;0.2810007;0;
-689.2382;0;0;0;15.62199;2.940394;-630.9667;-628.697;0.02463267;0.4756204;0;
-473.4662;0;0;0;0.9369044;-9.521019;-419.9385;-416.9214;-0.3002288;0.1503058;0;
-225.6773;0;0;0;-0.6716274;-13.86522;-173.8275;-173.8744;-0.3648944;-0.174682;0;
-248.439;0;0;0;-3.886133;-9.832436;-195.6418;-198.9995;0.1552109;-0.2394738;0;
196.4621;0;0;0;-9.8431;-11.09523;242.2098;237.9809;0.2849897;-0.1092985;0;
684.3943;0;0;0;2.02216;-11.0171;724.7238;718.8749;-0.4949048;0.08571339;0;
417.9653;0;0;0;-0.3243966;-10.67111;462.6894;457.2838;-0.3644728;0.02065991;0;
142.1212;0;0;0;-0.5251415;-8.048059;188.1747;187.5221;0.2855668;-0.04432819;0;
185.8314;0;0;0;-0.256194;-6.834401;230.8391;233.1857;0.02541049;0.08565105;0;
-218.1524;0;0;0;-12.246;-4.282183;-166.1309;-165.161;-0.1045497;0.08556499;0;
-689.7585;0;0;0;-9.420659;-3.675033;-633.1666;-632.5101;0.02549001;0.02051165;0;
-471.3624;0;0;0;-36.53818;-3.269443;-420.0123;-418.4193;-0.03950294;-0.1094436;0;
-221.4516;0;0;0;-42.79811;-3.668056;-171.7148;-172.7472;0.09047144;-0.04436633;0;
-243.4054;0;0;0;-16.29672;-9.156848;-191.4073;-195.1872;-0.2994235;0.02064559;0;
201.7405;0;0;0;-13.9368;-11.89395;247.9393;244.6629;-0.4290573;-0.2392445;0;
676.1742;0;0;0;14.07582;-16.70465;718.0162;712.994;-0.03882217;-0.0441021;0;
410.6904;0;0;0;23.63987;-19.568;457.4879;450.7216;-0.3636199;0.2158116;0;
146.6602;0;0;0;37.3475;-26.38048;194.4727;191.7112;-0.6880912;0.08566006;0;
180.4958;0;0;0;51.3088;-30.30584;226.636;227.7503;-0.4924978;0.4104107;0;
-225.9189;0;0;0;12.00646;-27.52921;-173.0784;-172.9647;-0.2971009;-0.1097404;0;
-686.2729;0;0;0;5.898829;-29.77885;-628.0507;-627.8122;0.02803434;-0.7593036;0;
-474.6893;0;0;0;4.218938;-23.05076;-419.9615;-418.5987;0.3528429;0.02106747;0;
-227.149;0;0;0;-5.297121;-21.68806;-173.5381;-175.1752;0.287521;0.4108504;0;
-235.9162;0;0;0;4.018951;-24.74736;-182.6716;-186.431;-0.4274087;0.02063348;0;
210.7839;0;0;0;1.000803;-23.78473;256.2914;253.7227;-0.6218812;-0.1093219;0;
682.9597;0;0;0;3.343346;-32.6024;724.361;720.0457;-0.166485;-0.1741794;0;
412.5964;0;0;0;4.144269;-35.65079;459.0786;453.4559;-0.1663177;-0.1090371;0;
138.3195;0;0;0;2.599864;-33.47158;185.7545;184.9475;-0.2311179;-0.3687969;0;
181.5962;0;0;0;3.467908;-34.91151;227.6717;229.9889;-0.03598366;-0.303459;0;
-217.5732;0;0;0;0.7851058;-36.08212;-164.2977;-163.9818;-0.0359475;0.281552;0;
-690.0544;0;0;0;0.5158972;-36.71569;-632.2723;-631.0822;-0.3607481;0.02139975;0;
-471.5956;0;0;0;-2.833524;-34.60233;-419.5561;-416.1183;-0.3603856;0.08634561;0;
-213.6261;0;0;0;-3.36654;-33.094;-163.9503;-163.0771;-0.2300888;0.4760629;0;
-237.4619;0;0;0;-7.582716;-35.20414;-187.0238;-188.5879;-0.2298576;-0.0441542;0;
203.805;0;0;0;-9.451107;-35.10178;246.8211;245.9458;-0.03472462;-0.3689466;0;
683.1717;0;0;0;-0.5330026;-30.84671;721.0846;719.3981;-0.03468973;-0.3036085;0;
411.0592;0;0;0;2.281548;-30.94968;454.806;452.1217;-0.2295569;-0.3682708;0;
138.1581;0;0;0;-0.5347595;-25.49309;183.4852;183.0524;-0.3592609;0.02190333;0;
177.2496;0;0;0;-0.8016659;-23.05609;220.3447;222.1612;-0.03406323;0.08684868;0;
-231.7855;0;0;0;4.423076;-33.21414;-181.5498;-180.2973;0.3557751;-0.4329773;0;
-692.8208;0;0;0;1.874013;-34.31942;-638.3877;-636.012;-0.2292885;-0.3675749;0;
-468.2372;0;0;0;4.685169;-36.76324;-419.0436;-415.7958;-0.4889275;0.02259846;0;
-227.5749;0;0;0;1.7337;-38.60182;-179.118;-178.8094;0.2911719;0.08754311;0;
-246.9614;0;0;0;-7.511443;-32.26676;-196.4917;-199.2444;0.225912;-0.04247956;0;
209.9947;0;0;0;-8.174457;-29.42112;254.729;250.8547;-0.4889558;-0.1723716;0;
680.0473;0;0;0;-48.48875;-32.13779;720.239;714.9942;-0.2935624;-0.3671004;0;
409.9994;0;0;0;-63.17579;-31.1678;454.2736;448.6593;0.2914386;-0.1718295;0;
154.2158;0;0;0;-42.88419;-18.61092;198.8203;197.6469;0.03127639;0.2181472;0;
186.607;0;0;0;-47.12801;-14.4394;230.2921;232.5557;-0.2286244;0.2828954;0;
-231.8703;0;0;0;-31.74168;-12.88428;-180.233;-179.6584;0.09644203;0.3475785;0;
-693.7175;0;0;0;-25.01198;-10.19214;-637.3221;-636.4357;0.1613125;0.2822619;0;
-472.0066;0;0;0;-30.54558;-11.58854;-420.1031;-417.281;-0.293621;0.08707622;0;
-224.0942;0;0;0;-25.2236;-10.70612;-173.3048;-174.4211;-0.1633913;0.02202138;0;
-243.4217;0;0;0;-29.68624;-18.59911;-191.5589;-196.797;0.421479;-0.04296809;0;
206.9092;0;0;0;-28.45096;-21.59465;250.9738;246.6154;-0.09868328;0.1519771;0;
682.0248;0;0;0;-26.27892;-21.23804;720.7353;716.194;-0.7482575;0.6715631;0;
405.1034;0;0;0;-26.45358;-24.56572;449.647;444.548;-0.3577016;0.5409537;0;
137.2058;0;0;0;-20.46516;-17.50795;183.7661;182.7952;-0.03250551;0.02067138;0;
180.0464;0;0;0;-18.56956;-15.61496;225.1856;227.4015;0.03249449;-0.04431674;0;
-226.8051;0;0;0;-20.82808;-24.84267;-174.6523;-174.0004;-0.09747284;-0.1092395;0;
-687.5955;0;0;0;-20.67343;-26.49228;-630.3102;-629.8463;-0.2922769;-0.3040318;0;
-468.2021;0;0;0;-19.91572;-20.57129;-415.2846;-414.3214;0.2927228;-0.04385695;0;
-226.9151;0;0;0;-21.63702;-19.94777;-175.6126;-177.4615;0.357396;0.3459912;0;
-241.1799;0;0;0;-14.78277;-22.74089;-188.9919;-193.3376;-0.4225712;0.3456435;0;
218.8938;0;0;0;-11.95488;-23.85675;263.4707;259.879;-0.8119506;0.2153615;0;
687.001;0;0;0;-28.01877;-21.22056;726.7855;721.8855;-0.6812001;0.0202431;0;
405.0771;0;0;0;-30.53622;-21.26622;449.819;443.7371;0.3589619;-0.1097119;0;
142.9266;0;0;0;-29.23273;-24.59388;188.9979;187.045;0.8133725;-0.4994057;0;
179.6395;0;0;0;-31.94905;-24.70313;224.3526;225.6501;0.2928165;-0.2390346;0;
-233.0212;0;0;0;-20.5301;-30.03682;-181.9812;-181.1848;0.227555;0.2809444;0;
-685.4346;0;0;0;-18.03122;-31.27926;-629.3234;-628.4653;0.357261;-0.2390767;0;
-461.2332;0;0;0;-18.88376;-27.69779;-408.864;-407.9444;0.2269673;-0.3038038;0;
-219.0162;0;0;0;-17.25719;-26.39741;-167.7617;-169.654;-0.2929994;0.02133819;0;
-242.9715;0;0;0;-16.30282;-24.56235;-190.4566;-195.0957;-0.4876071;-0.4334546;0;
209.4203;0;0;0;-14.20936;-23.26499;254.9485;250.6889;-0.2922151;-0.04321506;0;
688.469;0;0;0;-22.70155;-13.06045;729.0164;723.6991;-0.2919215;0.6714692;0;
403.67;0;0;0;-24.28633;-8.559593;448.8618;442.363;0.2281106;0.5408598;0;
135.0243;0;0;0;-21.44889;-9.555737;181.9198;178.3634;0.09794671;0.08554491;0;
184.0514;0;0;0;-21.69576;-6.19711;229.9627;228.7213;-0.4218904;0.02049159;0;
-230.8001;0;0;0;-16.78384;-12.621;-177.9384;-179.3035;0.2282069;0.215373;0;
-690.8993;0;0;0;-14.22235;-14.28289;-633.0308;-633.2701;0.2929449;0.3450913;0;
-461.3826;0;0;0;-10.12222;-10.04874;-408.2574;-406.6848;-0.1621208;0.2148099;0;
-219.9776;0;0;0;-5.355656;-12.31594;-168.3425;-169.3328;0.03294411;-0.3051447;0;
-231.1259;0;0;0;-8.499083;-7.547897;-179.4177;-183.5304;0.03291101;-0.3698054;0;
223.7528;0;0;0;-8.154774;-7.406347;267.3506;263.7418;0.09784528;0.1503049;0;
678.4868;0;0;0;5.918616;-16.03958;718.1677;713.2507;0.03277962;0.08518653;0;
407.8782;0;0;0;10.26693;-18.09981;453.3913;446.7301;-0.1621553;-0.1098011;0;
160.2802;0;0;0;3.95997;-23.77505;206.6845;203.1534;0.03290962;-0.1096908;0;
187.9801;0;0;0;4.358132;-26.76527;232.0265;231.9972;-0.2919602;-0.3044826;0;
-238.3696;0;0;0;2.947234;-28.07804;-187.5584;-187.2753;-0.1617321;-0.04430727;0;
-687.5916;0;0;0;1.605102;-30.46115;-631.2718;-630.5517;0.3581691;0.3455413;0;
-453.7054;0;0;0;0.5317621;-24.53623;-401.6901;-399.3465;0.1629072;-0.239512;0;
-210.8089;0;0;0;-1.076363;-23.10493;-160.5325;-159.9404;0.09777619;-0.369206;0;
-229.0253;0;0;0;-3.085013;-21.94301;-177.7999;-181.5188;0.1626453;0.1509037;0;
218.8548;0;0;0;-5.493787;-18.90685;262.4076;258.1927;-0.2273222;-0.1091173;0;
683.6511;0;0;0;-2.339459;-22.77274;722.4125;717.4523;-0.5519305;-0.563779;0;
403.1049;0;0;0;-2.94032;-22.68287;448.1367;441.3698;-0.3564739;-0.1084412;0;
133.71;0;0;0;-3.272159;-16.49777;180.5082;177.6836;0.163623;0.1515372;0;
176.1793;0;0;0;-1.996073;-15.34261;221.1813;222.2326;-0.09641074;-0.1734518;0;
-235.291;0;0;0;-10.63523;-15.39418;-184.4622;-183.7867;-0.4211506;-0.04334283;0;
-695.3232;0;0;0;-12.23116;-14.90983;-641.547;-638.7482;-0.09589069;0.4114721;0;
-460.7422;0;0;0;-10.81235;-15.89959;-411.705;-407.5348;-0.09579434;0.476026;0;
-216.5267;0;0;0;-13.14601;-15.9506;-168.5384;-168.5578;0.09920394;0.5405151;0;
-237.1737;0;0;0;-0.2730545;-19.41756;-188.4215;-191.3768;0.4889083;0.4100372;0;
219.6476;0;0;0;4.014128;-20.67072;260.9171;259.5889;0.2285477;0.5395599;0;
675.1354;0;0;0;-3.692089;-20.78392;712.3654;709.2894;-0.09651867;0.6039851;0;
394.0355;0;0;0;-1.210133;-21.76766;437.1001;431.5284;0.09848034;0.0836395;0;
145.3893;0;0;0;-8.643656;-19.13358;189.785;187.967;0.1633487;-0.04637924;0;
173.479;0;0;0;-12.05122;-18.31055;216.8306;218.2004;-0.09668477;-0.04633264;0;
-249.8576;0;0;0;2.629295;-18.69405;-199.7405;-200.3086;0.0983144;0.01868126;0;
-687.5739;0;0;0;3.564658;-18.07242;-633.6966;-633.8268;0.163183;0.1485972;0;
-455.5618;0;0;0;3.963218;-16.91555;-406.861;-405.4919;0.03308431;-0.1114215;0;
-227.4684;0;0;0;5.767897;-16.63062;-180.3784;-183.196;0.09801841;-0.1762769;0;
-237.7971;0;0;0;-5.022517;-14.8055;-190.0672;-195.7555;-0.03201476;0.2137043;0;
230.4566;0;0;0;-7.294646;-13.78588;271.6418;266.9587;0.1629194;0.2784569;0;
686.3083;0;0;0;-11.17208;-17.45596;724.3912;717.7762;0.2926904;-0.1765943;0;
399.0128;0;0;0;-14.9119;-17.77334;441.1803;433.3851;-0.0324404;-0.3063515;0;
139.2422;0;0;0;-10.40894;-17.88945;180.8676;177.2032;-0.09737514;-0.371011;0;
174.2721;0;0;0;-10.59955;-18.20638;214.9812;214.4438;-0.03230996;-0.3056709;0;
-239.6325;0;0;0;-12.93342;-16.31257;-190.7185;-192.2549;-0.1622122;-0.6302004;0;
-687.1042;0;0;0;-13.72374;-15.69345;-633.4293;-634.9016;-0.09708184;-0.3047305;0;
-452.2815;0;0;0;-8.486011;-13.33328;-404.4076;-404.4417;0.03295039;0.4102164;0;
-212.7597;0;0;0;-7.606827;-12.18118;-166.3082;-169.4032;0.162852;0.3448369;0;
-235.7842;0;0;0;-9.139425;-11.09721;-187.0681;-193.2834;0.09772099;0.4744251;0;
218.2246;0;0;0;-8.862799;-10.2154;260.2076;255.4978;-0.09727923;0.3440137;0;
679.3984;0;0;0;-13.54197;-9.334359;716.9664;711.3243;0.1626879;-0.04613604;0;
400.4181;0;0;0;-14.86851;-7.985322;443.5706;436.31;0.2274918;0.08384501;0;
147.7051;0;0;0;-16.59488;-11.72822;191.8137;188.8707;0.03236115;-0.1761086;0;
180.79;0;0;0;-16.913;-11.51549;222.4805;222.6639;0.03232863;0.01897036;0;
-240.555;0;0;0;-23.66116;-10.83409;-192.4721;-193.101;-0.03267119;0.53869;0;
-685.9642;0;0;0;-28.05801;-10.48841;-632.6199;-632.561;0.1622637;0.01841003;0;
-456.0777;0;0;0;-11.75382;-6.257944;-406.8474;-405.789;0.227068;-0.3064452;0;
-225.6725;0;0;0;-9.732277;-4.979103;-178.1158;-179.4948;0.1618725;-0.1112352;0;
-241.6251;0;0;0;-12.20074;-0.2854161;-193.7414;-197.6803;0.5515139;0.01881121;0;
222.5719;0;0;0;-9.308097;1.054529;262.0367;259.726;0.226123;-0.04617503;0;
675.7454;0;0;0;-19.94866;1.388384;711.8597;708.4894;-0.1639083;-0.2410307;0;
379.3401;0;0;0;-19.86225;0.8511258;422.8518;416.299;-0.09877624;0.0190809;0;
128.5847;0;0;0;-27.81289;-2.297805;172.8024;169.7544;-0.03370965;0.4738331;0;
177.0561;0;0;0;-32.3393;-4.639899;218.2934;219.4963;-0.09864312;0.3434224;0;
-245.8468;0;0;0;-11.20803;-12.0701;-198.9664;-198.5768;-0.03357666;-0.0467268;0;
-697.8724;0;0;0;-6.507722;-15.27315;-646.8537;-646.4645;-0.03354292;0.1482222;0;
-455.3553;0;0;0;-8.443565;-25.57293;-408.8855;-406.6851;-0.2284112;0.47291;0;
-216.4551;0;0;0;-4.684038;-31.30758;-170.6567;-171.3321;-0.1632144;0.08263074;0;
-239.5384;0;0;0;-3.742302;-23.77422;-192.1619;-196.1474;-0.03311571;-0.1773217;0;
224.9065;0;0;0;-2.130951;-23.95128;265.3638;262.007;0.03188491;0.01775852;0;
683.5748;0;0;0;-0.9897342;-22.65454;720.3059;714.7036;0.09682021;-0.04722666;0;
393.4709;0;0;0;0.01563825;-20.48845;435.1626;427.5045;-0.03321176;-0.3070486;0;
144.2632;0;0;0;-7.150697;-16.85078;186.2877;182.5728;-0.4229824;-0.2417727;0;
179.6004;0;0;0;-10.69446;-12.27913;219.1464;219.7456;-0.4225574;0.01833959;0;
-249.8643;0;0;0;-5.257732;-17.62531;-203.7363;-203.9499;-0.2272308;0.08328852;0;
-695.0768;0;0;0;-6.324176;-17.87553;-643.8103;-643.7113;-0.03210046;-0.2416319;0;
-456.6229;0;0;0;-7.590619;-6.671659;-410.6553;-408.4949;0.2278012;-0.04648707;0;
-225.5925;0;0;0;-6.577638;-4.588607;-181.1703;-183.0101;0.1626049;0.08349434;0;
-237.5472;0;0;0;-17.02085;-5.253704;-191.5454;-197.069;-0.09742783;0.1483778;0;
229.4569;0;0;0;-20.68745;-4.310786;268.9157;265.2092;0.03260475;0.408098;0;
676.0017;0;0;0;-11.42326;-8.325308;711.9851;707.3453;-0.09736269;0.3427207;0;
393.2767;0;0;0;-12.01499;-8.718841;434.2215;428.337;-0.2921669;0.2124416;0;
150.316;0;0;0;-11.13129;-15.07334;190.5949;189.2141;0.1628981;0.2771955;0;
172.2164;0;0;0;-11.79067;-17.73739;210.9556;212.4497;0.1627344;0.4068516;0;
-261.6761;0;0;0;-13.05162;-14.70545;-214.5426;-215.049;0.2275382;0.7312796;0;
-700.3176;0;0;0;-12.97115;-15.49435;-648.6713;-648.6149;0.03240756;0.5356427;0;
-458.3602;0;0;0;-23.80911;-11.45993;-411.1385;-410.0827;-0.4223964;0.2102678;0;
-221.8932;0;0;0;-25.59385;-10.04189;-175.0314;-177.4749;0.03279943;0.2100565;0;
-237.7872;0;0;0;-33.00287;-7.955332;-190.7225;-195.2875;-0.09716821;0.2748128;0;
224.9693;0;0;0;-36.72075;-5.870868;263.3035;259.93;-0.6817766;0.07963464;0;
683.7;0;0;0;-26.70352;-8.678251;716.9358;713.0659;-0.3562549;0.01458727;0;
394.3456;0;0;0;-26.27455;-9.54031;432.6704;427.6176;0.4237112;0.4043767;0;
140.3269;0;0;0;-10.17322;-5.779679;180.5497;178.0006;0.5532201;0.339003;0;
178.4166;0;0;0;-0.3837331;-5.438957;218.1618;217.8017;-0.03204184;0.01382566;0;
-252.5461;0;0;0;-16.3919;-11.86373;-206.0943;-207.516;-0.3568464;0.1437465;0;
-698.0682;0;0;0;-15.3037;-13.32544;-647.915;-648.4608;-0.4214551;0.01366733;0;
-455.1761;0;0;0;-4.302639;-15.72331;-409.9458;-409.8038;-0.2261296;0.1435883;0;
-226.9582;0;0;0;-3.226588;-17.51605;-182.3356;-185.6295;0.09893429;0.4033134;0;
-235.2883;0;0;0;3.67553;-13.34563;-189.0239;-194.6259;0.03386754;0.3379408;0;
238.8973;0;0;0;5.3458;-11.79161;278.4936;273.8968;-0.09610117;0.4025686;0;
679.6232;0;0;0;1.455662;-14.45908;715.1191;709.2151;-0.2259393;0.4671314;0;
387.7741;0;0;0;0.5161946;-14.6455;427.5448;421.1469;-0.09577759;0.466662;0;
153.0648;0;0;0;-6.717993;-5.521229;192.2333;190.2771;-0.03071401;0.07638907;0;
180.2097;0;0;0;-10.26122;-3.037435;218.2144;217.8844;0.0342842;0.01134496;0;
-261.6868;0;0;0;-17.14978;-2.9674;-214.9122;-217.1784;0.2291518;0.2062356;0;
-693.5192;0;0;0;-22.62491;-0.8209646;-641.8566;-642.059;-0.1608825;0.2060284;0;
-451.9434;0;0;0;-19.25327;-7.183396;-405.1428;-404.0332;-0.03078619;0.2707887;0;
-227.8517;0;0;0;-20.64044;-8.58282;-181.9727;-184.7372;0.5539508;-0.05432011;0;
-233.5573;0;0;0;-23.50009;-8.373247;-186.6624;-191.5481;0.2285575;-0.05426553;0;
237.1909;0;0;0;-24.14606;-10.24023;276.5425;272.9735;0.2932952;0.140691;0;
683.3532;0;0;0;-21.50983;-8.890408;717.98;713.1028;0.1630658;-0.2492544;0;
386.8152;0;0;0;-20.0817;-9.685269;426.4673;420.2206;-0.2918694;-0.3139713;0;
135.1779;0;0;0;-20.46367;-8.402863;175.3523;173.2348;0.3580973;-0.3136558;0;
175.4592;0;0;0;-19.03561;-7.188726;213.2195;213.6029;0.7475415;-0.3133406;0;
-257.0623;0;0;0;-18.68169;-11.73622;-211.9062;-212.9599;0.6168557;0.01181091;0;
-704.7038;0;0;0;-18.06068;-11.59046;-654.0334;-654.7113;0.4863012;0.2067011;0;
-455.4332;0;0;0;-16.23387;-11.51183;-410.3109;-409.7387;0.1609758;0.2064934;0;
-223.4669;0;0;0;-16.28393;-12.57199;-179.8268;-181.8164;0.2907487;0.07635122;0;
-237.985;0;0;0;-12.78494;-3.650874;-192.7645;-197.1259;0.1605219;0.2711765;0;
238.14;0;0;0;-11.36558;-1.771684;275.0067;272.5862;0.03042594;0.4008387;0;
682.5522;0;0;0;-16.64544;-3.51146;715.1964;712.4036;0.09536271;0.1405666;0;
385.078;0;0;0;-16.62872;-2.369221;423.9988;419.5846;-0.2295698;-0.314346;0;
145.8112;0;0;0;-18.68909;-6.988541;185.0052;184.0936;-0.2943065;-0.7038342;0;
175.7745;0;0;0;-19.00511;-7.91928;213.7423;215.3303;-0.09910874;-0.3782903;0;
-262.9317;0;0;0;-18.45015;-10.38957;-216.7562;-216.4816;-0.03404182;0.1418285;0;
-694.5129;0;0;0;-19.56971;-12.38862;-643.9486;-642.7997;0.03095973;-0.05321601;0;
-451.312;0;0;0;-8.699052;-11.77332;-405.9833;-403.8361;-0.03403872;-0.3130319;0;
-231.8436;0;0;0;-6.480484;-13.77098;-188.497;-189.1005;0.1608975;0.3369561;0;
-237.5451;0;0;0;-6.675043;-8.264666;-193.3676;-196.7816;0.03080115;0.4665522;0;
239.8287;0;0;0;-4.658604;-7.117651;277.2153;273.9297;-0.4240012;0.07627933;0;
681.3657;0;0;0;-15.70599;-11.46427;714.5917;710.4973;-0.3586078;0.14117;0;
383.4554;0;0;0;-20.04348;-10.71594;422.6451;417.8052;-0.2283128;0.01109347;0;
138.1932;0;0;0;-14.53099;-16.46558;178.2805;177.381;-0.4879527;-0.1188524;0;
179.9084;0;0;0;-14.78481;-18.05663;217.3317;219.3691;-0.0976584;0.0761691;0;
-254.7415;0;0;0;-24.14707;-13.95265;-210.5467;-209.6358;0.03237441;0.2060273;0;
-701.8857;0;0;0;-24.39025;-14.00561;-652.238;-650.7658;-0.2275275;0.0109182;0;
-446.8083;0;0;0;-28.11679;-10.9773;-401.1461;-399.4879;-0.09736419;-0.1839948;0;
-216.5374;0;0;0;-29.49506;-10.0955;-171.1709;-173.3874;0.03266833;-0.05387523;0;
-234.2483;0;0;0;-13.39049;-7.74107;-188.1777;-192.8908;0.1625702;0.2060483;0;
244.4966;0;0;0;-9.492273;-6.125702;281.9626;278.691;0.0974395;0.07590656;0;
681.9059;0;0;0;-0.707849;-10.47332;715.3988;711.006;-0.3574298;0.4656343;0;
378.9352;0;0;0;4.718846;-11.1996;418.204;412.3789;-0.4870054;0.7900032;0;
143.3602;0;0;0;1.096782;-12.52801;183.5265;181.6428;-0.4215487;-0.2502681;0;
168.8907;0;0;0;1.898987;-14.25698;207.9547;209.0089;-0.2262231;-0.6398207;0;
-269.3088;0;0;0;-0.1790259;-13.84075;-224.4745;-223.8586;0.09884097;-0.05447172;0;
-690.4514;0;0;0;0.6918101;-14.63064;-641.6641;-639.9869;0.163709;0.07551771;0;
-444.4434;0;0;0;-21.27831;-15.28565;-398.7661;-397.0281;-0.03135753;0.4002785;0;
-228.4177;0;0;0;-30.63503;-14.86839;-183.0362;-184.5483;-0.226228;0.07503963;0;
-240.0572;0;0;0;-9.103335;-17.53277;-193.9092;-197.1689;0.09883597;-0.3148398;0;
238.6935;0;0;0;-7.3519;-18.05102;276.7991;273.7301;-0.03119802;0.01031323;0;
684.3545;0;0;0;-16.38684;-11.87057;717.7368;712.1721;-0.5509054;0.1402376;0;
387.5657;0;0;0;-17.24201;-9.648206;425.9119;419.0409;-0.09558046;0.07512932;0;
143.7361;0;0;0;-11.53126;-9.906443;183.2307;180.552;0.4242543;0.1400212;0;
174.6386;0;0;0;-11.78711;-8.222037;214.2184;213.8538;0.2938933;0.07491313;0;
-266.0655;0;0;0;-6.416636;-5.936357;-219.4665;-221.7048;0.4235327;0.009870498;0;
-705.0773;0;0;0;-1.92221;-4.054991;-655.4642;-657.138;0.5530418;0.1397953;0;
-443.375;0;0;0;-23.15375;-4.1179;-400.0586;-400.0441;0.4225515;0.4644915;0;
-205.4239;0;0;0;-26.7478;-3.176001;-163.9001;-166.8841;0.09729016;0.3340901;0;
-226.7692;0;0;0;-23.84054;-2.235049;-182.7259;-189.3926;-0.162677;0.07388505;0;
246.4709;0;0;0;-28.97415;-1.629957;284.2231;278.1878;-0.1625135;0.008843455;0;
689.0632;0;0;0;-9.721299;0.7160838;722.7169;715.8756;-0.3572522;0.1387693;0;
378.4641;0;0;0;-6.964864;2.25585;416.3944;409.0602;-0.1619912;0.2685645;0;
139.9535;0;0;0;-9.503462;0.1102512;175.7842;174.142;0.3579102;0.008425278;0;
175.1076;0;0;0;-5.140632;0.1101404;209.9653;210.886;0.422518;0.07338417;0;
-270.9067;0;0;0;-25.36358;2.320344;-226.5888;-228.2928;0.2921588;0.5930492;0;
-692.9222;0;0;0;-29.49128;1.715167;-644.7134;-644.9788;0.03199581;0.3975512;0;
-435.9798;0;0;0;-25.10739;5.598454;-392.7544;-391.4578;-0.03300368;-0.05761963;0;
-222.8362;0;0;0;-27.35934;5.92762;-179.1544;-181.9196;0.03199682;-0.1225291;0;
-227.7971;0;0;0;-20.76777;3.242469;-182.9099;-188.9832;-0.1629374;-0.2523406;0;
252.3155;0;0;0;-19.40773;3.373177;289.4116;284.9061;-0.227741;0.007782283;0;
677.4107;0;0;0;-14.43173;-6.342494;710.0966;705.2834;-0.3574468;0.2676438;0;
379.317;0;0;0;-11.53684;-10.08704;416.2805;409.8478;-0.2921203;0.2024076;0;
146.7401;0;0;0;-8.242722;-5.321241;183.354;180.8634;0.2928793;0.4620736;0;
172.2673;0;0;0;-4.483395;-5.851758;207.8449;208.7926;0.03271563;0.3316746;0;
-269.4964;0;0;0;-12.58419;-9.730766;-226.1459;-226.6984;-0.1622193;0.006504592;0;
-694.9491;0;0;0;-13.50857;-12.06539;-648.6437;-648.3211;-0.03212159;0.2014001;0;
-438.0671;0;0;0;-12.22318;-3.278748;-396.5558;-394.7968;-0.09705665;0.3311324;0;
-217.1127;0;0;0;-13.81849;-1.667863;-174.5187;-176.6345;-0.09695913;0.395767;0;
-229.8256;0;0;0;-10.38835;-6.82375;-186.7122;-191.3246;-0.09686171;0.2654347;0;
249.5395;0;0;0;-9.507257;-6.013099;283.3018;281.0053;0.03317031;-0.2545708;0;
682.6334;0;0;0;-13.71726;-12.30333;712.6761;709.0702;0.09810432;-0.3842497;0;
376.726;0;0;0;-14.97628;-13.56364;412.548;407.259;0.0330384;0.07090783;0;
135.2186;0;0;0;-10.47325;-13.75096;171.6919;170.5311;0.2279072;0.3956733;0;
163.1312;0;0;0;-10.93124;-15.27763;199.4428;200.9069;0.1627109;0.3303084;0;
-275.1875;0;0;0;-9.848531;-8.765181;-231.2287;-230.8905;0.2275147;0.005139757;0;
-698.5731;0;0;0;-9.637565;-8.555425;-649.7858;-649.5105;0.4871555;-0.1897674;0;
-441.2501;0;0;0;-17.12997;-3.121333;-396.8223;-396.4847;0.03189461;-0.05964207;0;
-220.2301;0;0;0;-19.79207;-0.9077594;-177.4086;-179.82;-0.09807213;0.07035255;0;
-224.5066;0;0;0;-19.97326;-7.002172;-180.8535;-185.2615;0.3567978;-0.2545549;0;
258.2889;0;0;0;-20.69012;-7.263068;294.0895;290.748;0.291472;-0.3842338;0;
679.0678;0;0;0;-26.96597;-12.61428;710.2722;705.3098;-0.03365763;0.2658257;0;
371.4772;0;0;0;-28.54647;-14.07523;408.1475;401.0662;0.2912129;0.3954933;0;
146.217;0;0;0;-27.24499;-19.35262;183.2877;179.5868;0.5507897;0.1352266;0;
175.9925;0;0;0;-30.03065;-22.6822;212.5263;211.3903;0.1604322;0.2650254;0;
-275.1451;0;0;0;-12.45168;-12.74618;-230.2773;-232.9114;-0.03463106;0.1348244;0;
-700.5922;0;0;0;-7.415325;-11.52768;-651.709;-653.2784;0.09533842;-0.1901478;0;
-438.9568;0;0;0;-18.25887;-8.970864;-395.4326;-395.2514;0.2251773;0.004945286;0;
-219.0011;0;0;0;-16.29814;-6.21555;-177.5821;-179.4625;0.3548857;0.134875;0;
-226.7771;0;0;0;-28.74034;-7.147066;-184.5876;-189.4021;-0.03527491;-0.1900972;0;
264.1417;0;0;0;-34.00275;-4.99643;299.4172;294.4201;-0.2301415;-0.3848082;0;
693.0355;0;0;0;-20.30455;-8.005642;724.2776;718.4734;0.4197632;-0.1895196;0;
374.9987;0;0;0;-18.74293;-7.12682;412.1439;405.0337;0.159472;0.07054025;0;
142.1137;0;0;0;-25.42288;-8.995181;179.7839;176.7413;-0.3604269;0.005502012;0;
173.5801;0;0;0;-26.06692;-10.05775;210.2129;211.1088;-0.03522807;-0.1894055;0;
-276.1809;0;0;0;-17.13212;-2.344848;-231.339;-231.5059;-0.03519268;0.0056868;0;
-697.6289;0;0;0;-13.63228;-2.007577;-648.7092;-648.6885;-0.2300593;-0.05928626;0;
-438.3079;0;0;0;-19.9816;4.625628;-394.4973;-393.5396;-0.2947955;0.07070801;0;
-224.1624;0;0;0;-20.16259;7.434142;-181.3953;-183.4371;-0.229532;0.460441;0;
-226.6858;0;0;0;-13.84569;-0.4100874;-182.8997;-188.8125;0.03056804;-0.1896951;0;
262.2339;0;0;0;-12.29154;-0.6776071;298.3548;293.5099;0.03053732;-0.4493738;0;
681.7593;0;0;0;-14.75743;-7.977944;713.6586;708.8186;0.03050664;0.07081645;0;
370.7303;0;0;0;-14.47418;-11.72085;408.532;401.8853;-0.164426;0.005777938;0;
144.3464;0;0;0;-13.99113;-8.494014;182.36;179.1557;-0.1642608;0.005772132;0;
172.687;0;0;0;-13.84335;-10.2939;208.4136;207.8362;0.03080625;0.135701;0;
-277.6977;0;0;0;-18.51751;-7.939272;-235.6353;-236.6493;-0.2290941;0.200532;0;
-697.0202;0;0;0;-22.92051;-7.261466;-650.9396;-650.1411;-0.03396185;-0.1245062;0;
-434.7014;0;0;0;-10.90741;-9.062708;-392.5401;-391.555;0.09600696;-0.1243811;0;
-221.2466;0;0;0;-10.49431;-8.651705;-179.69;-183.7033;-0.2938935;0.46045;0;
-225.2722;0;0;0;-20.19666;-7.23637;-183.6323;-191.3898;-0.2286309;0.3300526;0;
266.8319;0;0;0;-20.7786;-6.224354;301.1211;295.0581;-0.03349916;-0.1900178;0;
687.9145;0;0;0;-38.24014;-7.088878;718.7335;712.3018;0.03150184;-0.1248595;0;
368.3835;0;0;0;-45.36901;-6.411926;403.2945;396.3695;-0.09846449;-0.2546687;0;
136.942;0;0;0;-37.62027;-6.204535;171.0058;169.3976;-0.03339821;-0.3193802;0;
174.0357;0;0;0;-40.52923;-5.796402;206.3161;208.2078;0.3564394;-0.05918988;0;
-275.3508;0;0;0;-34.05814;-2.508537;-235.8565;-234.9662;0.2911139;-0.1240977;0;
-700.5478;0;0;0;-30.94344;-0.8984257;-657.0327;-655.3312;0.1608867;0.005961632;0;
-429.9795;0;0;0;-36.80685;-0.9645059;-391.6306;-389.0563;0.160725;-0.0590117;0;
-208.2212;0;0;0;-34.69278;-0.02577568;-170.5355;-171.7744;-0.09930582;-0.1888871;0;
-218.5692;0;0;0;-33.98833;1.11296;-179.9843;-184.0955;-0.4890101;0.1361394;0;
270.4672;0;0;0;-32.48032;1.245686;301.4546;298.8468;-0.163682;0.006067938;0;
689.9844;0;0;0;-28.29547;4.057717;718.1296;714.8373;0.3562212;-0.3187749;0;
371.326;0;0;0;-27.32903;4.991401;405.5023;400.9015;0.6806999;-0.05858519;0;
146.6281;0;0;0;-18.39297;1.838188;181.02;179.8595;0.5500813;0.1363757;0;
172.6551;0;0;0;-14.75716;2.171255;205.8256;206.7902;-0.03517749;0.006303983;0;
-283.3517;0;0;0;-18.15858;-3.658319;-243.593;-243.6913;0.0298252;-0.05866969;0;
-692.861;0;0;0;-15.99688;-6.735736;-649.7064;-648.9301;0.2896646;0.0063566;0;
-426.4234;0;0;0;-23.4829;2.380466;-386.6855;-385.1603;-0.1653979;0.07131757;0;
-222.972;0;0;0;-25.93755;3.047904;-182.3994;-183.8743;-0.2951663;0.006278553;0;
-223.3727;0;0;0;-21.28979;0.5665949;-182.466;-186.1882;-0.0350004;-0.3835318;0;
275.6011;0;0;0;-23.61292;0.6999914;307.6585;305.2519;0.03000212;-0.5130811;0;
685.8678;0;0;0;-13.54151;-3.252705;713.3953;709.6168;0.224874;-0.2526962;0;
370.5243;0;0;0;-9.375693;-5.459751;403.0841;397.3104;0.2896154;0.007427075;0;
150.2625;0;0;0;-23.3651;-5.052368;183.1644;180.5824;0.1593897;0.3322563;0;
172.9126;0;0;0;-23.40897;-6.788847;205.2817;205.2634;0.02929485;0.1370205;0;
-283.8441;0;0;0;-22.78223;-9.260272;-244.0738;-244.6543;0.09423276;-0.05801926;0;
-701.9736;0;0;0;-23.2952;-9.786831;-658.9949;-658.1379;0.2240728;0.007006379;0;
-436.0891;0;0;0;-15.36854;-17.01103;-398.151;-396.108;-0.1009891;-0.057968;0;
-220.2592;0;0;0;-14.21403;-19.47219;-183.4837;-183.8165;-0.2308223;0.1369923;0;
-227.9714;0;0;0;-3.21503;-13.62535;-190.1084;-194.0016;-0.2955577;0.07188729;0;
265.01;0;0;0;2.080462;-13.00881;296.6506;291.3869;-0.1003587;-0.123087;0;
691.9665;0;0;0;-3.950825;-10.58435;720.077;713.7567;0.2245788;-0.252898;0;
373.4934;0;0;0;-1.803401;-8.765303;406.3233;399.8844;0.2893205;-0.05774185;0;
140.3602;0;0;0;-9.704843;-6.747007;172.8447;170.3478;0.4189645;0.5270222;0;
165.4564;0;0;0;-13.57986;-4.596774;196.9713;196.1635;-0.1011952;0.201656;0;
-287.5447;0;0;0;-4.523883;-6.936557;-248.3154;-249.9969;-0.4908976;-0.3182854;0;
-698.0493;0;0;0;-5.188922;-6.862605;-654.9863;-654.0425;-0.1655676;0.006871148;0;
-435.8543;0;0;0;-7.863026;-4.57829;-396.3954;-394.1406;-0.03546658;0.1367989;0;
-228.333;0;0;0;-8.324615;-3.770016;-189.1011;-190.9715;-0.03543094;-0.05824056;0;
-219.6703;0;0;0;-13.20539;-9.39255;-180.7277;-185.2199;0.1595067;-0.2530841;0;
282.7355;0;0;0;-15.00079;-11.72752;312.8309;310.3422;0.2892811;-0.1228951;0;
690.9961;0;0;0;-18.53569;-5.821355;716.501;713.5775;0.1590557;-0.1227716;0;
369.463;0;0;0;-22.40183;-6.351369;400.1897;396.8319;-0.2958755;-0.2525829;0;
145.7041;0;0;0;-13.60541;-6.010073;176.8997;178.2303;-0.4255129;-0.05742709;0;
160.3003;0;0;0;-11.78308;-5.200239;191.1521;194.8553;0.02968609;0.1375327;0;
-296.3813;0;0;0;-21.88529;-14.70635;-258.0017;-255.9265;0.1595909;0.3972638;0;
-701.3798;0;0;0;-22.06437;-18.30865;-659.7904;-657.0926;0.09446324;0.007060589;0;
-432.0601;0;0;0;-25.85962;-14.00334;-394.5729;-391.9403;0.3542377;0.007053494;0;
-218.2332;0;0;0;-28.51295;-15.32893;-180.4714;-181.2771;0.6787184;0.6567199;0;
-224.5107;0;0;0;-16.16042;-17.39;-186.287;-188.8411;0.4831344;0.2662559;0;
275.4637;0;0;0;-13.66496;-17.17158;304.7159;303.3513;-0.03708973;-0.05884834;0;
694.6636;0;0;0;-14.25444;-23.24965;720.1383;717.1509;-0.2969218;0.1361128;0;
360.6956;0;0;0;-11.5608;-24.76677;392.2666;387.7205;-0.3615908;-0.1238933;0;
136.9455;0;0;0;-15.56865;-18.11082;168.6097;167.379;-0.1013581;0.1361005;0;
170.0412;0;0;0;-15.48566;-16.35106;200.4242;200.7564;0.1586131;0.2009311;0;
-292.085;0;0;0;-14.93423;-15.79877;-254.6111;-255.1537;0.1584537;0.07079455;0;
-698.1498;0;0;0;-16.0583;-14.44324;-656.778;-655.7584;0.1582945;0.005756064;0;
-421.7743;0;0;0;-12.22378;-7.663694;-383.9423;-382.2366;-0.03676658;-0.2541191;0;
-219.5145;0;0;0;-11.74298;-3.436191;-181.7205;-183.6396;-0.2316317;-0.3188311;0;
-217.2949;0;0;0;-13.27142;-9.126043;-179.7263;-184.642;-0.0364969;-0.2535434;0;
282.235;0;0;0;-12.38743;-7.777337;312.3945;308.3583;-0.1663949;-0.0583866;0;
676.0657;0;0;0;-16.66189;-5.626069;703.9462;698.9769;-0.1012604;0.2665088;0;
355.4847;0;0;0;-17.24739;-4.81662;389.459;382.8082;0.3536128;0.1363063;0;
145.9202;0;0;0;-15.48874;-0.1900802;179.9228;175.6525;0.2233228;0.006234661;0;
162.89;0;0;0;-16.34384;0.9488207;195.4217;193.5919;0.158131;-0.1237063;0;
-297.2924;0;0;0;-7.352432;4.162926;-257.4222;-259.0003;0.02803746;-0.318484;0;
-697.6674;0;0;0;-3.996141;4.493658;-654.0266;-653.8539;-0.3617948;-0.2531967;0;
-425.6652;0;0;0;-9.685554;8.307048;-387.0032;-385.394;-0.2964639;-0.1879749;0;
-218.4039;0;0;0;-9.00526;10.6431;-180.6554;-182.1088;-0.101264;0.07208336;0;
-224.0565;0;0;0;-6.920106;-2.027121;-187.0331;-190.9837;-0.2310969;0.2019456;0;
275.605;0;0;0;-5.841426;-4.302382;304.283;301.5857;-0.5557014;0.1367754;0;
693.4305;0;0;0;-7.710591;-6.575479;719.1436;714.7623;-0.4252084;0.2016053;0;
360.963;0;0;0;-7.903914;-10.11884;392.5222;386.0215;0.2248923;0.07146801;0;
131.0282;0;0;0;-3.341621;-3.276662;162.2434;159.9346;0.2896337;-0.1884732;0;
163.2552;0;0;0;-1.999092;-4.211009;192.5026;193.4444;0.159408;-0.1882838;0;
-294.179;0;0;0;-1.594942;2.826186;-257.5897;-257.9606;0.4840845;-0.1231273;0;
-697.1182;0;0;0;-0.6553344;6.172493;-656.9425;-656.501;0.5485654;0.006931126;0;
-418.0576;0;0;0;0.01490937;-2.34042;-382.7949;-381.2294;0.4180796;-0.05804318;0;
-218.3002;0;0;0;-0.1861764;-1.333324;-183.3228;-184.1951;0.1577901;-0.3178542;0;
-217.5812;0;0;0;2.560677;-9.369692;-181.8892;-184.5098;-0.3621072;-0.1876002;0;
283.4482;0;0;0;3.361411;-13.11132;312.3577;310.9891;-0.6865801;0.07245772;0;
677.965;0;0;0;-3.20605;-2.850003;703.9718;701.5427;-0.4909881;-0.05754978;0;
360.568;0;0;0;-5.011489;-2.981105;391.4837;387.1204;-0.1656581;-0.252394;0;
152.56;0;0;0;-5.60869;2.715318;182.9449;181.9594;-0.1005243;-0.2521404;0;
162.1518;0;0;0;-7.479065;7.133341;191.5067;193.833;0.0295114;-0.1219523;0;
-302.7775;0;0;0;-5.79661;-5.734183;-265.581;-263.9443;0.09444909;-0.4466665;0;
-695.7756;0;0;0;-5.388644;-7.536961;-655.5555;-653.1708;-0.03558049;-0.121381;0;
-423.2131;0;0;0;-7.460311;-0.7642336;-388.6556;-386.5856;-0.2304468;0.5284144;0;
-222.3886;0;0;0;-7.050673;-1.433295;-188.8654;-190.2957;-0.1652479;0.1380794;0;
-218.5419;0;0;0;-5.167578;2.720965;-185.927;-188.043;0.4196242;-0.05696138;0;
288.5479;0;0;0;-4.225357;4.191855;313.259;312.5194;0.2892679;-0.1218715;0;
693.1794;0;0;0;-0.2689963;-2.175613;716.429;712.5042;-0.2957288;-0.2516837;0;
358.0885;0;0;0;1.338864;-3.312137;387.3741;380.9546;0.09437238;0.3982426;0;
138.4014;0;0;0;1.136448;-2.170099;167.0954;164.9302;0.2891796;0.07300575;0;
165.7485;0;0;0;0.8005137;-1.833004;194.0389;194.8743;0.02901965;-0.7066757;0;
-298.6222;0;0;0;3.144234;-7.859504;-261.9894;-262.3418;-0.03597685;-0.6409983;0;
-699.5579;0;0;0;3.342145;-10.32985;-658.5892;-657.5044;-0.0359407;-0.3804848;0;
-417.9337;0;0;0;-2.689433;-2.616681;-382.0037;-379.9204;-0.1658393;0.07466885;0;
-215.0531;0;0;0;-3.959528;-2.212154;-179.9087;-181.9505;-0.425542;0.2694958;0;
-212.9629;0;0;0;-10.92177;-1.540102;-176.9169;-180.8307;-0.165245;-0.1855463;0;
291.1853;0;0;0;-14.66184;-0.600793;318.8868;316.851;0.09479036;-0.2503273;0;
684.8821;0;0;0;-9.021034;-5.556804;708.6828;705.5246;0.02972777;-0.1851084;0;
358.1079;0;0;0;-9.212064;-7.35976;387.6942;383.2273;-0.1002368;-0.1849224;0;
148.1034;0;0;0;-9.538576;-7.486331;177.7225;177.3205;-0.03516872;0.01016546;0;
161.8226;0;0;0;-9.193223;-8.751362;190.7248;192.6971;0.2897033;-0.1847468;0;
-304.6056;0;0;0;-2.418832;-14.30203;-267.1743;-266.9531;0.4843143;-0.05462646;0;
-694.7283;0;0;0;2.673813;-16.76603;-653.4615;-652.491;0.2889256;0.2052978;0;
-413.7961;0;0;0;-11.46239;-16.95013;-379.0051;-377.0984;0.09373325;-0.05477786;0;
-218.6656;0;0;0;-14.19657;-18.8085;-184.5968;-186.2528;0.4184758;0.07521188;0;
-220.0076;0;0;0;-0.1161302;-16.17739;-185.036;-188.3145;0.54799;0.3350057;0;
289.8947;0;0;0;0.01770835;-16.09415;316.4604;314.622;-0.03726673;0.2047344;0;
686.9037;0;0;0;4.572042;-16.27893;710.4443;706.1714;-0.03722928;0.1395613;0;
352.069;0;0;0;6.710902;-15.72671;381.1456;375.4402;0.1577101;0.2693558;0;
139.2595;0;0;0;-3.007756;-17.78737;168.2444;166.6678;-0.2322524;0.1391504;0;
163.3574;0;0;0;-4.009112;-17.7695;191.8134;192.4872;-0.4918884;-0.1858261;0;
-300.0114;0;0;0;-11.77559;-19.0242;-264.1502;-264.1642;-0.5563614;-0.05570471;0;
-693.5745;0;0;0;-14.64415;-19.54095;-654.5634;-653.3905;-0.2309657;0.269188;0;
-410.9568;0;0;0;-16.83926;-17.64591;-377.4196;-375.4359;-0.03583161;0.1389828;0;
-215.8917;0;0;0;-20.70711;-16.7574;-183.4502;-184.9667;-0.1007629;-0.2509609;0;
-217.7362;0;0;0;-4.677745;-16.94151;-185.015;-189.7783;-0.03569436;-0.120774;0;
292.3513;0;0;0;-0.6545566;-16.05371;317.9807;313.472;-0.2305605;0.009281996;0;
690.982;0;0;0;-2.730004;-12.21968;714.0244;708.3959;-0.1003942;-0.2505967;0;
360.4535;0;0;0;1.424949;-9.796015;388.5327;383.0347;0.2245434;0.1394592;0;
146.1988;0;0;0;-5.67643;-11.52773;174.1249;174.1921;0.09438311;0.0743517;0;
163.5431;0;0;0;-7.077245;-11.44916;191.4411;194.4443;-0.1655811;-0.4454618;0;
-302.512;0;0;0;1.168889;-5.677248;-266.5211;-265.0202;-0.2953494;-0.3150795;0;
-694.8857;0;0;0;1.837299;-5.001714;-655.9949;-653.2461;0.02978408;-0.1198609;0;
-414.4531;0;0;0;0.2278628;-4.728756;-380.8488;-377.3531;0.4845255;-0.2496751;0;
-219.4469;0;0;0;1.299361;-4.255124;-186.8134;-187.2568;0.354104;-0.2494242;0;
-212.0425;0;0;0;2.168711;-10.54712;-178.7547;-181.9462;-0.1010232;-0.1842063;0;
298.9138;0;0;0;7.658889;-11.74222;325.7339;323.795;-0.3607911;-0.05408649;0;
683.1077;0;0;0;-8.357362;-17.49083;706.59;704.4656;0.02937552;0.3357719;0;
353.7115;0;0;0;-11.63052;-20.48736;382.6051;378.9211;0.02934601;0.2704672;0;
153.9563;0;0;0;16.44616;-14.84033;182.9458;182.0141;-0.3604875;-0.0546413;0;
167.6072;0;0;0;19.3764;-14.49051;195.8804;197.5108;-0.0352886;-0.3794231;0;
-306.6979;0;0;0;41.32733;-13.13641;-270.2697;-268.9532;0.4844856;-0.5089765;0;
-697.8179;0;0;0;53.87811;-12.25243;-658.1156;-655.3011;0.09419473;-0.4434978;0;
-411.4479;0;0;0;22.67752;-8.890975;-377.3451;-373.7839;-0.3606713;0.1416539;0;
-213.3838;0;0;0;19.5069;-7.542505;-179.815;-180.3179;0.1594298;0.2714463;0;
-212.7946;0;0;0;20.22423;-7.735875;-178.8223;-182.9478;0.6790083;-0.05366318;0;
304.0345;0;0;0;14.64421;-6.455426;329.8518;326.6675;0.2235547;0.01135808;0;
702.3412;0;0;0;16.97402;-12.27633;724.9466;720.8285;-0.166474;-0.1835553;0;
360.7443;0;0;0;14.34499;-12.66589;389.5739;383.7108;0.15853;-0.378273;0;
148.5508;0;0;0;10.44484;-15.93521;178.3509;176.5542;0.2233381;-0.05305614;0;
170.2656;0;0;0;7.085439;-17.72774;199.2861;200.4272;0.1581463;0.07693186;0;
-304.0422;0;0;0;17.19238;-10.14097;-268.679;-268.4761;0.2879221;0.01188721;0;
-693.4783;0;0;0;20.59135;-8.791126;-655.6519;-654.1998;0.1576981;0.07684262;0;
-404.9261;0;0;0;7.91101;-4.696456;-372.4476;-369.4353;0.02760495;0.2067001;0;
-216.114;0;0;0;7.032405;-1.811593;-183.793;-183.0951;-0.2322922;0.01159036;0;
-208.588;0;0;0;10.77638;-2.479602;-175.9247;-176.4768;-0.1670914;-0.118356;0;
311.7976;0;0;0;11.56984;-1.003486;336.1822;336.9425;0.2228805;-0.2481717;0;
693.9171;0;0;0;11.95938;-2.877878;715.0913;713.7269;-0.03721278;-0.3128897;0;
357.0138;0;0;0;12.75165;-3.745764;383.0393;379.9896;-0.03717539;0.07722875;0;
157.5677;0;0;0;20.44199;-3.407086;183.692;184.5184;0.352666;-0.05278355;0;
167.9041;0;0;0;24.57366;-4.475389;193.8772;196.7642;0.1574096;-0.1176978;0;
-310.3368;0;0;0;21.937;-6.748312;-277.5183;-276.3833;0.2871861;0.01235509;0;
-690.8336;0;0;0;23.38883;-8.349;-654.6122;-653.291;0.4168323;-0.05262466;0;
-405.5325;0;0;0;24.97292;-10.88596;-373.5954;-371.4634;0.09157673;0.3372323;0;
-213.8462;0;0;0;22.93809;-13.48724;-181.9412;-183.0596;-0.1683847;0.5317954;0;
-205.9476;0;0;0;29.47913;-10.32561;-174.1997;-177.6908;-0.03828078;0.2713917;0;
303.7532;0;0;0;27.3734;-10.4492;326.1615;324.1106;0.3515617;-0.1836524;0;
693.3145;0;0;0;26.81003;-14.92643;712.5143;709.8409;0.4811432;-0.3134025;0;
358.161;0;0;0;28.8592;-15.11238;384.5254;380.8551;0.2207903;-0.05321824;0;
148.9686;0;0;0;-7.541166;-18.71416;176.4934;176.1376;-0.2991703;-0.1181321;0;
169.3086;0;0;0;-19.99119;-20.10199;195.8688;197.5123;-0.2339023;0.01192128;0;
-305.9977;0;0;0;-0.81472;-15.25915;-272.2179;-271.4505;0.2860715;0.0119093;0;
-695.6193;0;0;0;-2.756284;-14.37304;-657.6879;-656.2342;0.1558493;-0.1830047;0;
-405.2534;0;0;0;-4.830596;-12.55018;-372.3577;-370.4056;-0.03920928;-0.05288613;0;
-217.9401;0;0;0;-4.691044;-11.19791;-185.5772;-187.6876;0.02579745;0.01213435;0;
-221.969;0;0;0;-0.1993281;-10.51683;-188.0145;-192.7464;0.4155756;-0.1827799;0;
298.4301;0;0;0;1.676882;-9.83643;323.6049;320.9392;0.6750273;-0.1825962;0;
694.8683;0;0;0;3.684929;-10.96526;714.6455;712.5447;0.02467569;0.2073913;0;
356.7147;0;0;0;6.829059;-11.892;382.594;379.5582;-0.3651532;0.2071829;0;
154.4577;0;0;0;-3.492931;-12.88467;181.9977;181.7136;-0.1698842;-0.312764;0;
167.9832;0;0;0;-4.895941;-14.01044;195.3705;197.3981;-0.03977884;-0.3774171;0;
-316.1923;0;0;0;-4.355158;-18.55107;-281.3987;-279.9355;0.2850978;0.01276623;0;
-698.2449;0;0;0;-6.226792;-20.60891;-660.3629;-657.6517;0.3497787;0.1426881;0;
-412.2492;0;0;0;-0.1249664;-22.06182;-379.4027;-376.257;0.2844599;-0.05235732;0;
-227.9899;0;0;0;0.5447445;-23.71411;-195.3013;-196.4066;0.1542394;0.01266263;0;
-216.0792;0;0;0;3.625656;-21.88186;-182.5489;-186.4017;-0.1707523;0.1425846;0;
307.7497;0;0;0;5.966537;-21.79289;332.5632;329.5263;0.08928865;0.2074087;0;
691.6849;0;0;0;2.276847;-20.90022;713.1625;708.9418;0.1541663;0.07726559;0;
348.1622;0;0;0;2.675725;-20.20938;376.115;370.9615;-0.2357927;-0.05274674;0;
145.664;0;0;0;2.471966;-19.78718;173.8386;172.3135;-0.2355558;-0.1826284;0;
165.5075;0;0;0;2.403109;-19.43238;192.4669;193.2547;0.154485;-0.4423143;0;
-311.4816;0;0;0;0.9268256;-18.00622;-276.7407;-277.2031;0.1543298;-0.3119352;0;
-695.2256;0;0;0;-0.4806252;-17.05048;-657.5211;-657.3583;-0.04072734;-0.2466544;0;
-402.7986;0;0;0;6.486083;-20.11444;-370.5043;-369.5297;0.219183;-0.4413086;0;
-209.9906;0;0;0;8.890463;-20.16122;-177.354;-179.7536;0.5437994;-0.2459631;0;
-200.6592;0;0;0;-0.8977343;-21.68157;-167.8679;-171.9518;0.08848162;-0.1157813;0;
317.532;0;0;0;-4.112013;-22.46358;342.0445;339.6514;-0.1714766;-0.1806323;0;
693.0865;0;0;0;9.690846;-18.95789;715.5754;711.623;0.3484344;0.2743206;0;
354.4975;0;0;0;13.03001;-18.40298;382.9607;377.638;0.0882149;0.468947;0;
163.3622;0;0;0;-1.517767;-16.50909;191.4845;190.2275;-0.4316125;0.4684758;0;
168.8827;0;0;0;-3.928115;-15.55474;196.2271;197.9074;-0.2362768;0.5979397;0;
-319.9164;0;0;0;0.4964611;-14.4004;-284.666;-284.0493;-0.04113732;0.2725022;0;
-694.7814;0;0;0;-0.5084158;-13.18024;-656.7552;-656.0142;0.02387136;-0.3124777;0;
-406.9776;0;0;0;2.97472;-15.71234;-374.9866;-373.0595;-0.04111997;0.01267302;0;
-223.6606;0;0;0;5.249882;-15.42862;-191.7018;-192.9;0.08885603;0.5323991;0;
-206.0695;0;0;0;-1.320452;-16.75278;-174.6427;-178.7132;0.2187014;0.2719947;0;
315.8128;0;0;0;-1.988711;-16.80293;337.2131;334.8333;-0.04138769;0.1417867;0;
690.432;0;0;0;7.256688;-16.5851;708.0002;704.4984;-0.1712808;0.07667691;0;
346.7231;0;0;0;10.46458;-17.37211;370.0209;365.0858;-0.041174;-0.1832695;0;
143.9765;0;0;0;7.172509;-10.38867;168.0004;167.3182;-0.1061;-0.2480527;0;
