Fp1;Fp2;O1;O2;POLY3;POLY4;A1;A2;Video;Audio;event;
164.7687;0;0;201.4747;-3.093256;-18.10159;198.2361;201.0704;-0.09082434;-0.3705737;0;12:33:32 Рука;
197.1493;0;0;232.1318;-2.28684;-17.6815;228.3967;234.9138;-0.3506024;-0.4351687;0;
-78.59783;0;0;-23.2857;0.5958455;-16.52502;-43.00903;-37.12314;-0.02541345;-0.5646661;0;
-643.2975;0;0;-570.2374;1.666974;-15.0348;-600.5605;-595.6801;0.03957942;-0.1742947;0;
-575.6223;0;0;-540.6165;0.5935718;-18.97168;-535.0522;-529.5519;-0.2852971;0.4105865;0;
-241.0243;0;0;-238.5373;1.128839;-18.88564;-204.0557;-200.435;0.03982632;0.2152719;0;
-253.7131;0;0;-247.8554;-2.35492;-20.27318;-215.6572;-215.9132;0.364623;-0.04481376;0;
60.50902;0;0;42.4354;-2.955766;-21.39152;92.842;92.77365;-0.2204494;-0.2396708;0;
646.6536;0;0;609.4202;-4.090896;-17.01626;671.4578;672.7014;-0.2851953;-0.3693646;0;
530.312;0;0;534.8451;-5.829073;-16.53028;559.1517;558.7699;-0.02503934;-0.04415677;0;
155.3423;0;0;192.7918;0.5407721;-12.36085;188.9632;190.2684;-0.08998152;0.215757;0;
190.9807;0;0;221.2087;1.343536;-8.530522;222.8812;228.2455;-0.02492377;0.1505729;0;
-67.33143;0;0;-15.2698;1.878049;-16.15776;-31.21515;-26.35598;0.04006862;-0.1094478;0;
-644.1613;0;0;-569.1635;3.885894;-15.13678;-601.647;-598.3545;0.04002836;-0.1093379;0;
-581.795;0;0;-547.1024;-2.950513;-14.98761;-543.384;-539.0328;-0.08994655;0.4105107;0;
-228.4503;0;0;-227.0258;-4.019276;-17.5179;-194.0758;-191.1032;-0.2197908;0.3451309;0;
-250.522;0;0;-244.9136;-2.809788;1.522369;-213.8707;-214.1495;0.1052667;0.2798168;0;
52.14019;0;0;32.63062;-4.213485;5.472832;84.31938;85.16529;0.1051609;0.4094703;0;
652.9108;0;0;613.3059;-1.195141;-0.2930772;677.3115;679.1561;-0.2197814;0.2791242;0;
538.7493;0;0;539.5389;-2.130969;2.185464;565.7492;566.0927;-0.08962592;0.3438111;0;
162.8341;0;0;197.9183;0.4831405;-12.68658;193.1802;195.8347;-0.02456852;-0.1113058;0;
195.0293;0;0;226.7673;1.085867;-17.22855;223.5333;229.5584;-0.1544785;-0.6959;0;
-82.96457;0;0;-30.20651;-7.891181;-13.92919;-48.61715;-43.41021;0.2354808;0.08440733;0;
-649.4714;0;0;-577.9633;-11.03108;-16.92931;-608.2245;-603.585;0.4951135;0.3441919;0;
-573.794;0;0;-541.4006;-12.2928;-12.42456;-536.2117;-530.5774;0.104812;-0.04595802;0;
-242.946;0;0;-240.3202;-15.09348;-11.5413;-208.275;-204.8952;-0.6099341;0.08402285;0;
-259.5684;0;0;-253.0098;-17.62391;-13.87411;-222.9333;-223.9921;-0.4793866;0.01897108;0;
70.90144;0;0;51.46656;-19.48124;-13.59223;101.003;99.63288;0.1058012;-0.17595;0;
663.3448;0;0;624.6892;-20.1986;-8.153081;685.4827;684.3638;-0.2841091;-0.3057079;0;
536.6167;0;0;539.9788;-19.97723;-5.867469;563.4799;559.8634;-0.5436931;-0.1104987;0;
164.3269;0;0;201.3561;-19.89079;-8.473907;195.6608;193.6096;-0.02340801;0.2794164;0;
198.2696;0;0;229.9518;-17.99479;-7.192717;227.5731;229.2721;0.1715175;0.1492009;0;
-71.23175;0;0;-19.15413;-17.64192;-8.659114;-36.33555;-36.26244;0.04141051;-0.1108183;0;
-643.1851;0;0;-571.7321;-17.69154;-8.315499;-600.3905;-602.0666;0.1063362;0.08419504;0;
-578.6335;0;0;-545.9828;-3.004377;-7.034468;-538.8179;-538.7432;-0.08867263;0.1490778;0;
-231.2889;0;0;-228.9683;1.485644;-6.960416;-194.8241;-195.9364;-0.2185182;0.2138953;0;
-246.4862;0;0;-239.0455;-2.400615;-1.728876;-208.6213;-212.4811;-0.08836396;0.08374573;0;
63.85557;0;0;47.05099;0.2147418;-0.6554119;95.24818;91.95453;-0.4780792;-0.2411751;0;
658.1177;0;0;623.0892;-9.431016;0.7518883;681.7326;678.6921;-0.5425662;-0.1759655;0;
536.8295;0;0;544.1899;-12.23458;1.42084;564.2313;559.3823;-0.152217;-0.04585398;0;
162.1657;0;0;200.628;-9.007105;-0.9918512;192.8508;189.7558;-0.3469661;-0.2407099;0;
201.8577;0;0;232.098;-10.53927;-1.861633;231.1377;232.1687;-0.2816501;-0.4353701;0;
-70.64576;0;0;-19.0091;-8.987465;-6.414479;-35.27328;-34.4307;0.303339;-0.5648673;0;
-643.3494;0;0;-570.4628;-8.509919;-8.618471;-602.0154;-601.7359;0.4329689;-0.4993324;0;
-572.1759;0;0;-537.7183;-10.97962;-11.89185;-534.944;-533.5403;0.2376318;-0.368896;0;
-238.4559;0;0;-234.8924;-12.50882;-14.22431;-203.4478;-205.4813;-0.02247632;-0.1086559;0;
-257.1443;0;0;-249.0242;-3.521274;-13.27225;-219.2978;-225.8895;-0.1523884;0.02138794;0;
68.63795;0;0;51.45014;-1.508004;-13.59383;100.5744;95.55104;-0.2172026;0.3462031;0;
658.0851;0;0;621.6743;-8.874856;-12.77638;682.3683;679.0992;-0.5418211;0.670692;0;
530.8625;0;0;536.4672;-9.669245;-12.16069;558.9943;553.8544;-0.2814073;0.08531201;0;
167.7614;0;0;203.4077;-14.14751;-8.5985;199.0508;196.04;0.04371216;-0.3695451;0;
205.6362;0;0;233.3757;-17.28112;-7.049253;234.208;235.9478;-0.08626645;-0.04433709;0;
-76.36629;0;0;-26.66571;-16.66152;-5.434579;-42.82566;-41.46243;0.1087223;0.2155768;0;
-645.9407;0;0;-575.8629;-19.1894;-3.955616;-604.8126;-604.95;0.303515;0.3452949;0;
-571.3914;0;0;-538.5527;-18.36681;-6.027991;-533.6779;-532.4408;-0.08659399;0.02011125;0;
-232.05;0;0;-229.8539;-18.95157;-5.754002;-198.8721;-199.1356;-0.08650698;-0.2397783;0;
-254.7428;0;0;-249.8628;-20.00426;-8.092623;-219.5993;-223.9229;0.1734493;-0.1096027;0;
61.85417;0;0;42.24156;-18.10814;-8.754321;91.9024;87.89546;-0.216529;-0.04452525;0;
662.0528;0;0;625.7183;-24.78775;-9.61618;684.5121;681.821;-0.2812788;0.08545418;0;
534.7637;0;0;543.8179;-24.36168;-11.01316;562.5728;558.1353;0.1737752;-0.04456638;0;
157.5407;0;0;200.3814;-17.83949;-6.380393;190.2569;187.3231;0.1086333;0.0854131;0;
196.8001;0;0;233.2259;-15.41067;-5.972085;226.7972;227.3646;-0.2812799;0.1502946;0;
-76.8227;0;0;-20.00627;-6.620299;-4.827374;-42.29551;-42.79064;-0.1510626;-0.1746931;0;
-643.3357;0;0;-567.5234;-3.398466;-3.081089;-601.4719;-603.6532;0.4337952;0.02038445;0;
-570.7255;0;0;-534.3446;6.450586;-9.910008;-532.4644;-533.1443;-0.1513467;0.3452007;0;
-237.1944;0;0;-234.0833;11.13315;-11.77557;-202.9073;-205.4605;-0.605966;0.2149191;0;
-256.1964;0;0;-248.8406;5.227469;-7.209023;-220.6319;-225.9937;0.174251;0.0847685;0;
69.52249;0;0;53.38266;6.092872;-7.536695;98.55445;95.13463;0.1091085;0.1496507;0;
661.4051;0;0;625.6663;-6.505553;-7.663087;682.9741;680.4948;-0.1508705;0.01956561;0;
531.6179;0;0;540.2053;-12.92938;-6.851592;557.2257;552.9998;-0.02078419;-0.3052908;0;
166.4545;0;0;209.3285;-6.820817;-12.20322;195.7847;193.562;-0.2156653;-0.2400167;0;
202.7689;0;0;238.6658;-9.425932;-13.79855;230.8828;231.7232;-0.02054661;0.02009388;0;
-81.47955;0;0;-23.06752;-14.30658;-9.296827;-47.89673;-46.86972;0.1094087;-0.1748284;0;
-646.9259;0;0;-568.1453;-15.69873;-9.555418;-606.6302;-605.4793;0.2392335;-0.3695547;0;
-566.2536;0;0;-528.4067;-18.49599;-5.92886;-528.9344;-527.4724;0.2389931;-0.04434667;0;
-228.7915;0;0;-223.6536;-19.54913;-3.511639;-194.6332;-196.1086;0.04385092;0.2805346;0;
-254.0488;0;0;-244.4808;-13.63499;-10.34013;-218.3007;-223.5852;0.1737415;0.2802527;0;
63.29712;0;0;48.86751;-11.14304;-9.994822;92.88737;88.17041;0.04363228;0.2150038;0;
661.6827;0;0;625.6534;-9.926399;-9.448915;682.8724;679.4096;-0.3462156;0.08485307;0;
536.1431;0;0;537.8186;-6.232729;-9.372437;561.3096;555.7887;-0.02103102;-0.1751016;0;
158.1066;0;0;193.451;-9.173228;-2.397039;187.9329;184.4166;0.1089248;-0.1099583;0;
193.8672;0;0;226.365;-9.297732;0.4856354;221.727;222.8994;-0.151054;0.1500216;0;
-79.31535;0;0;-24.79878;2.835399;3.030377;-46.73594;-45.50227;-0.3458043;0.08490349;0;
-649.1992;0;0;-573.3731;5.84666;6.108547;-608.9064;-608.4236;-0.2804894;0.08481818;0;
-574.9589;0;0;-538.6266;5.237573;8.379706;-536.768;-535.9109;-0.08530559;0.3446023;0;
-235.4265;0;0;-231.0523;8.514839;10.91664;-200.1476;-202.2898;-0.4100566;0.4741907;0;
-259.4902;0;0;-249.9355;-2.210985;10.30282;-223.0599;-229.1979;-0.5395793;0.1488776;0;
63.4833;0;0;48.66566;-4.285845;10.22549;94.005;88.56028;-0.2791677;0.2786627;0;
663.3055;0;0;631.1365;-1.534872;14.23407;686.1754;683.4847;-0.4088219;0.2783827;0;
534.9532;0;0;544.608;-4.882233;14.88959;561.6107;558.1106;-0.2135091;-0.3066031;0;
167.1628;0;0;205.8557;5.772593;10.52086;197.6665;195.6068;-0.08335985;-0.3712624;0;
204.0387;0;0;237.0706;6.771171;9.505548;232.4503;234.4531;-0.3431455;-0.04605266;0;
-83.45945;0;0;-26.84757;1.405733;6.213955;-50.26629;-48.89019;-0.0829313;-0.1109737;0;
-650.4031;0;0;-575.7946;1.337947;3.66236;-610.0594;-610.1839;0.2419887;-0.2407969;0;
-568.9777;0;0;-533.8619;-6.634;5.400237;-532.7974;-531.5475;0.1118109;-0.1755876;0;
-237.8846;0;0;-229.0409;-7.76641;3.854203;-205.6137;-205.9268;-0.08320346;-0.1104438;0;
-254.1997;0;0;-239.8052;-15.39442;5.189989;-220.2747;-224.7104;-0.01815252;-0.04536552;0;
76.20226;0;0;62.90869;-18.19199;5.921586;104.471;99.35265;-0.4079383;0.01964742;0;
659.0826;0;0;624.7505;-10.06938;-0.5815864;681.2636;676.6501;-0.4724958;-0.1752744;0;
525.3623;0;0;531.4819;-8.987538;-1.920661;552.0811;546.5977;0.1776524;-0.04516356;0;
158.7684;0;0;198.0526;-2.079632;2.836936;189.0211;186.9165;-0.08239546;0.01984918;0;
197.4643;0;0;232.8985;-0.7373953;4.441675;225.6252;227.5207;-0.537084;-0.1101055;0;
-76.78381;0;0;-17.02249;14.26752;-0.3184539;-43.4039;-42.94707;0.04816167;0.1498746;0;
-644.8586;0;0;-565.1049;21.48685;-1.724776;-604.016;-604.2468;0.4379173;0.2146913;0;
-569.5607;0;0;-531.1788;2.241529;7.185443;-532.8195;-531.4884;0.1126406;0.2794429;0;
-227.9098;0;0;-218.427;1.569692;7.78107;-195.391;-196.0602;-0.01740726;0.1492274;0;
-248.4204;0;0;-233.6373;-6.938352;9.313859;-213.4355;-217.8521;-0.2122918;-0.1757592;0;
71.35614;0;0;59.01298;-12.75951;11.31387;100.6212;97.20853;-0.1471111;-0.1106153;0;
666.4228;0;0;636.2885;-0.2207541;-0.6200979;687.6625;685.3776;0.3727754;0.2143326;0;
536.6931;0;0;549.1926;0.449053;-2.695946;562.0968;557.378;0.3074335;0.2790846;0;
163.5286;0;0;204.8761;-1.360059;-5.908296;192.7174;190.1897;-0.4075162;0.3437715;0;
198.3467;0;0;233.9055;-1.291344;-9.117417;225.8195;227.2924;-0.3421394;0.5383281;0;
-85.08526;0;0;-26.44878;4.871895;-1.874344;-51.70553;-51.1087;0.1129758;0.3428852;0;
-646.1552;0;0;-570.7111;5.603934;-1.001682;-605.9374;-605.7161;0.242797;0.01770391;0;
-560.5486;0;0;-523.9734;4.593925;0.8748464;-524.4943;-523.5859;0.3075204;-0.2421833;0;
-232.0253;0;0;-221.2238;4.455588;2.615402;-198.6308;-200.4095;0.1123093;-0.3069073;0;
-255.2178;0;0;-239.3048;-5.060709;5.560023;-219.6705;-224.0711;0.2421312;-0.04672951;0;
74.74788;0;0;61.65949;-7.868664;7.76475;103.263;99.86633;0.2418879;-0.1116499;0;
661.4403;0;0;627.3757;-15.83136;5.01077;682.1807;679.0998;-0.3430612;0.01839699;0;
528.967;0;0;537.4152;-19.03063;5.206684;553.622;549.3573;-0.2777492;-0.1115562;0;
168.304;0;0;205.979;-20.6191;2.790067;195.8078;193.7962;-0.01760074;-0.4362808;0;
203.9294;0;0;236.6315;-23.14398;0.9788464;229.9063;231.395;-0.0825504;0.1488637;0;
-82.06938;0;0;-20.47714;-6.375235;0.9778629;-49.18451;-48.75929;-0.1474348;0.4085834;0;
-647.2653;0;0;-565.9324;0.06153247;-1.434505;-607.6044;-608.429;-0.212254;0.08333619;0;
-565.2183;0;0;-527.8201;-3.689574;2.652773;-530.2824;-530.6064;-0.2120407;-0.04668224;0;
-223.8842;0;0;-218.7573;-0.2696147;3.989766;-192.1068;-194.9292;-0.276795;-0.1116027;0;
-248.7091;0;0;-238.59;8.036052;-5.19066;-214.0901;-219.9082;-0.2115495;-0.1114905;0;
69.25609;0;0;57.37614;11.71167;-5.855274;98.40553;93.09305;-0.211337;-0.3062805;0;
667.8856;0;0;639.5883;10.09231;-6.51922;689.1346;684.827;-0.3410593;-0.04610342;0;
534.2188;0;0;548.1163;10.61804;-7.450431;559.7569;554.3292;-0.1458146;0.1488449;0;
156.3092;0;0;201.6769;7.526885;0.6618684;186.5068;182.6462;0.04923396;-0.111174;0;
198.0061;0;0;237.3937;5.24117;2.46962;225.9245;225.4411;-0.01578285;0.2137744;0;
-81.61488;0;0;-21.83963;4.566319;7.289788;-49.1019;-50.33444;0.04920035;0.3434943;0;
-643.313;0;0;-568.4804;2.95414;10.16273;-604.9606;-606.0045;-0.01581643;0.01831246;0;
-557.397;0;0;-521.9948;-4.952083;8.81286;-523.4559;-522.1249;-0.1457352;-0.04667329;0;
-230.5009;0;0;-221.6835;-9.435085;9.875731;-199.7799;-201.0115;-0.0156541;0.0833083;0;
-254.0698;0;0;-241.0759;-1.789794;5.177125;-220.8185;-225.7969;-0.01563837;0.343094;0;
77.08162;0;0;64.70031;-1.520552;3.2964;104.8648;101.8279;-0.08058999;0.4077166;0;
665.0836;0;0;635.3484;-6.006027;2.154378;684.7804;683.6205;-0.08050902;0.08247018;0;
531.9819;0;0;543.256;-5.598826;0.008881719;554.9697;551.8745;-0.2753302;0.01741997;0;
169.6917;0;0;213.3132;-8.942103;-1.866649;196.467;195.4364;-0.08015148;0.01740246;0;
201.4426;0;0;242.709;-9.803775;-3.874262;227.5039;229.7852;0.1148311;-0.3724191;0;
-86.55264;0;0;-21.58967;-3.899426;-2.597693;-54.14574;-53.86577;0.04974836;-0.6319142;0;
-647.1213;0;0;-563.8579;-1.752053;-3.264912;-608.5626;-608.7827;0.1796331;-0.4363773;0;
-565.137;0;0;-522.6243;-3.826398;-2.122922;-530.6775;-528.7734;0.1144852;-0.1111021;0;
-225.1148;0;0;-214.8786;-3.086595;-1.183028;-193.5634;-194.0975;0.1793375;0.08391159;0;
-251.8126;0;0;-237.5262;0.7348996;-4.530863;-217.5443;-221.9509;0.2441247;-0.04610742;0;
62.47012;0;0;52.44188;1.202676;-4.593294;90.89437;87.0544;-0.01598999;-0.1759958;0;
666.1039;0;0;636.783;5.555724;-3.249142;686.5036;683.1672;0.3088628;-0.04588426;0;
534.8127;0;0;547.8749;7.425176;-2.375099;559.9396;555.0449;0.4384871;0.01912921;0;
151.2804;0;0;197.8126;0.3177679;-4.449061;180.0676;177.8015;0.1132098;-0.04585737;0;
197.2927;0;0;239.0306;-0.7542783;-6.052181;223.1774;224.5367;0.04812872;0.2140581;0;
-78.32963;0;0;-14.14498;-4.102423;4.135062;-47.09859;-46.11544;-0.2767563;0.08390832;0;
-648.4019;0;0;-565.2288;-6.978689;6.475187;-610.8304;-609.9731;-0.4713803;-0.2410127;0;
-559.1699;0;0;-513.5615;-3.555425;-1.702993;-526.009;-523.8408;-0.2110373;-0.04586852;0;
-228.274;0;0;-211.0723;-4.221438;-3.04094;-197.7701;-198.1028;-0.2108252;0.2790143;0;
-251.0956;0;0;-233.4738;-3.815055;-2.903919;-218.2485;-221.7668;-0.145646;0.08383191;0;
88.48617;0;0;79.47861;-2.874192;-3.771779;115.5531;113.4751;-0.210467;-0.04618702;0;
667.2313;0;0;643.6151;-5.14848;-7.853826;687.2745;685.8858;-0.1452882;0.2786961;0;
523.8826;0;0;539.3955;-4.473722;-8.64973;548.1536;544.3925;0.5045312;0.2134487;0;
167.535;0;0;208.0198;-4.067085;-12.19101;194.8426;193.2716;0.3091222;0.2782016;0;
199.663;0;0;236.9836;-3.929276;-14.65701;224.4443;226.9354;-0.3408618;0.5377914;0;
-94.45242;0;0;-31.2448;1.567028;-4.126205;-64.26118;-63.14691;-0.2105846;0.342349;0;
-652.8268;0;0;-574.3779;3.909979;-2.782522;-615.2946;-615.993;0.3093657;0.2770377;0;
-568.213;0;0;-528.1987;0.5571471;1.507059;-533.9669;-532.9155;0.5689242;0.2767593;0;
-238.5575;0;0;-225.3824;0.02072387;5.993402;-207.1569;-207.9806;0.3084832;0.08157921;0;
-258.6201;0;0;-247.4572;6.584786;-6.270253;-225.4394;-230.5102;-0.1465982;-0.04843746;0;
72.22359;0;0;56.01403;8.788973;-7.000765;98.74924;95.12035;-0.4063202;-0.3082581;0;
670.6002;0;0;642.7253;-1.333915;-6.457867;690.0403;687.5394;-0.2110099;-0.1130464;0;
540.5539;0;0;559.8708;-4.481383;-8.460866;565.2218;559.9124;0.1140388;-0.04796546;0;
162.8878;0;0;216.2932;2.824138;1.728797;191.404;187.974;-0.1459452;-0.1778519;0;
196.7695;0;0;242.1877;2.620229;4.540343;222.5709;222.705;-0.01586383;0.08219614;0;
-78.72729;0;0;-17.23786;-2.204199;0.9188246;-47.07983;-48.32011;0.6987929;-0.04782115;0;
-645.7382;0;0;-567.0067;-3.34106;1.520626;-606.3763;-607.4905;0.6331234;0.01719426;0;
-566.129;0;0;-526.1447;-6.887676;4.801261;-531.4919;-530.2311;-0.01718621;0.08214433;0;
-229.9164;0;0;-219.9572;-9.157931;5.064369;-199.1871;-200.1764;-0.2770383;0.01709444;0;
-254.4229;0;0;-239.039;-7.072624;6.331834;-221.1009;-226.462;0.1780114;0.147012;0;
78.41558;0;0;68.42181;-7.735103;7.330215;105.0824;100.5388;0.3727346;0.08189689;0;
666.9784;0;0;638.6289;-8.196821;-1.585636;685.9973;682.895;0.2424254;0.0818146;0;
527.2531;0;0;543.3473;-7.786443;-4.062289;551.2504;547.2142;-0.08265489;0.08173239;0;
173.4634;0;0;220.151;-11.93083;-4.594071;200.8723;199.6513;-0.4723759;0.1466176;0;
205.0856;0;0;245.3545;-13.46006;-7.938601;230.2806;232.7464;-0.3419666;-0.04843175;0;
-100.4045;0;0;-37.00022;-8.891207;-0.4286581;-68.92549;-68.64856;0.2430831;-0.5681218;0;
-658.0858;0;0;-581.0646;-8.8159;0.5095337;-620.6414;-621.6766;0.3727736;-0.6325183;0;
-559.3488;0;0;-523.4468;-6.931031;-5.05044;-527.5018;-527.0367;-0.1473397;-0.3070461;0;
-230.077;0;0;-218.0741;-4.24475;-5.179331;-201.2604;-202.7948;-0.08222435;-0.2417702;0;
-260.9552;0;0;-244.3417;-13.61858;-8.054393;-229.8562;-234.7624;0.5025643;-0.2415272;0;
72.45209;0;0;60.56318;-14.743;-8.850095;97.2729;94.05836;0.1772227;-0.1113499;0;
670.1413;0;0;636.5253;-8.030379;-10.44867;687.5659;685.9163;-0.1477921;0.08366404;0;
531.5997;0;0;538.9969;-6.950584;-12.71559;553.3171;548.9206;0.3071278;-0.1113221;0;
161.9386;0;0;203.4362;-3.594697;-5.669729;186.8826;184.4895;0.3068192;-0.2411449;0;
202.2556;0;0;239.5885;-2.184566;-4.860237;225.113;226.9077;-0.1482605;0.1489015;0;
-87.92688;0;0;-26.51857;1.233881;-6.663892;-59.34531;-59.42652;-0.1481116;0.2137192;0;
-655.9905;0;0;-575.5284;2.237019;-5.585469;-620.691;-621.6467;0.5017107;0.08356977;0;
-562.9402;0;0;-522.6014;1.698908;-12.74691;-531.2369;-530.63;0.3712719;0.0834858;0;
-224.4819;0;0;-212.6069;1.497106;-14.47553;-194.9344;-197.0767;-0.7985133;0.2133366;0;
-246.3703;0;0;-230.1968;-4.197825;-12.18369;-215.0409;-220.3044;-0.797711;0.2780896;0;
83.58656;0;0;73.63187;-5.801198;-12.50636;108.2628;104.1915;-0.2771707;0.08290813;0;
664.8353;0;0;637.9617;-13.76695;-12.69475;682.3654;679.1102;-0.3418595;-0.2420119;0;
524.8624;0;0;541.8062;-17.36946;-13.28484;545.5607;541.7466;-0.08164667;-0.3717034;0;
169.7632;0;0;215.4255;-12.52924;-7.845994;192.877;190.8783;0.3082394;-0.1114606;0;
204.2002;0;0;243.6948;-11.77971;-6.498451;225.3542;225.2317;0.177995;0.01858614;0;
-96.85374;0;0;-31.84923;-12.0363;-6.625887;-69.97385;-70.78349;-0.2769552;0.1485022;0;
-658.1617;0;0;-577.9177;-11.35462;-5.078622;-623.8126;-624.1217;-0.2117096;0.4731897;0;
-562.1108;0;0;-524.7385;-2.568322;-11.10186;-530.7323;-529.4169;-0.01659484;0.2778122;0;
-226.3395;0;0;-216.6783;-0.5560093;-12.49735;-198.4907;-199.363;-0.08154551;0.08263098;0;
-250.0376;0;0;-233.2022;4.467415;-10.8772;-220.2802;-224.2126;0.3083405;-0.1773214;0;
82.48414;0;0;77.1263;7.008522;-11.67006;106.6519;103.598;0.2430633;-0.3070779;0;
671.3552;0;0;648.1992;-0.1658161;-9.8498;687.8151;686.201;-0.2769197;0.01806734;0;
533.4371;0;0;549.9095;0.03542128;-8.902142;554.1907;550.8917;-0.01677204;0.08301653;0;
167.4598;0;0;211.6517;-14.96782;-9.630009;191.9407;189.3321;-0.08172252;-0.04700159;0;
199.8377;0;0;234.9272;-21.38314;-8.481745;221.5453;222.0004;-0.4064771;-0.04695436;0;
-89.65519;0;0;-30.73794;-11.98453;-8.272274;-63.09679;-63.45435;0.11367;0.08302752;0;
-653.6566;0;0;-573.8091;-13.24528;-8.129996;-619.5037;-620.4855;-0.01637885;0.0829441;0;
-558.9221;0;0;-522.1957;-11.35596;-2.830297;-527.9894;-527.3461;-0.5361011;-0.241976;0;
-218.1564;0;0;-213.1385;-9.26845;-1.688743;-191.3778;-192.6092;-0.3406604;0.01813655;0;
-248.1096;0;0;-237.9743;-10.12979;-2.490842;-220.2959;-225.3366;-0.01548142;0.2130204;0;
81.84899;0;0;66.17458;-7.976161;-2.555322;103.138;98.53961;0.3093708;-0.1120304;0;
672.4698;0;0;640.132;-5.087758;-3.222584;686.8659;683.7714;0.503962;0.01801685;0;
526.4922;0;0;538.2272;-2.470677;-2.884431;546.9332;542.2801;0.3085536;0.4078028;0;
161.209;0;0;203.4794;-3.808342;-12.05795;185.3152;182.2284;-0.01659314;0.2774583;0;
202.0889;0;0;238.1324;-4.942615;-14.99296;222.6101;224.1492;0.3082602;0.2122122;0;
-89.28033;0;0;-30.84675;5.377479;-12.43267;-63.28245;-61.18276;0.5028525;0.1470316;0;
-644.8488;0;0;-568.2332;6.778595;-14.16161;-611.006;-609.5956;-0.01739148;0.2118512;0;
-544.5635;0;0;-506.0056;1.145706;-7.918211;-514.3778;-511.4696;0.04759334;0.146671;0;
-217.1806;0;0;-206.1477;1.479347;-5.967749;-190.8983;-189.9295;0.1125129;0.01658898;0;
-249.5085;0;0;-234.5512;-10.71328;-8.574087;-221.5035;-223.7216;0.04743246;0.08153965;0;
87.69786;0;0;73.09249;-14.38621;-7.560728;110.115;109.1485;0.1773195;0.4062944;0;
678.4377;0;0;640.6712;-13.83589;-8.088994;694.523;693.62;-0.1476954;0.2109842;0;
534.578;0;0;539.5779;-16.43395;-8.080867;555.3947;553.0558;-0.4723837;-0.3739339;0;
174.0343;0;0;212.8872;-8.781631;-6.264207;197.8911;198.9278;-0.471909;-0.3735582;0;
207.4051;0;0;241.2839;-7.299915;-5.454118;229.114;232.6484;0.04830386;-0.2432482;0;
-93.27725;0;0;-34.94478;-3.273116;-6.788296;-65.90559;-63.43665;0.4380594;0.08183298;0;
-651.2155;0;0;-574.9507;-0.389439;-5.709749;-617.687;-613.7213;0.1777498;0.3416201;0;
-551.8608;0;0;-516.3397;0.6826793;-8.852087;-522.364;-516.2158;-0.2122328;0.01644015;0;
-217.0993;0;0;-207.7257;3.495033;-10.51777;-190.0058;-186.8624;-0.5368562;-0.04854373;0;
-240.994;0;0;-225.5079;-1.59967;0.008878818;-212.0538;-212.9115;-0.1465128;-0.04849495;0;
91.95589;0;0;81.12712;-1.128572;1.951253;114.3704;115.0128;0.04853646;-0.1134136;0;
675.8199;0;0;645.6368;-4.611039;0.5427727;690.7781;692.1696;-0.276349;-0.1132996;0;
530.9009;0;0;542.727;-6.548789;2.01573;550.0294;548.4834;-0.1461367;-0.3080878;0;
166.3629;0;0;210.8482;1.362022;-4.818311;189.5952;190.4245;0.04891221;0.0170585;0;
205.1762;0;0;242.9951;1.962889;-6.88994;226.0737;230.7128;-0.08107162;0.7316821;0;
-85.50898;0;0;-26.86358;5.77931;-5.677324;-60.57196;-57.37432;0.04894453;0.6659796;0;
-651.3261;0;0;-573.062;7.715886;-6.944295;-619.9174;-616.5356;0.17883;0.2755063;0;
-557.7808;0;0;-517.9511;4.359231;-6.937318;-529.902;-524.1497;-0.01625169;0.1452948;0;
-220.702;0;0;-209.7104;3.886336;-6.52845;-194.9751;-192.1647;-0.08120269;0.2101162;0;
-242.2818;0;0;-227.3657;3.145497;-10.00488;-213.7696;-214.8351;0.1137809;0.1449377;0;
97.66588;0;0;85.95542;2.807544;-11.06655;119.8401;119.7752;0.04869925;0.2747268;0;
679.2753;0;0;649.6482;-3.82671;-5.562956;694.1185;694.3035;0.2435523;-0.050386;0;
524.9825;0;0;539.6129;-6.033668;-5.892281;543.2465;541.7447;0.1783403;-0.3102047;0;
164.6359;0;0;213.047;-3.41466;0.008015724;186.3173;188.1903;-0.211643;-0.1799584;0;
198.7657;0;0;240.7564;-3.076437;2.352288;220.3628;226.4819;-0.146463;-0.3746796;0;
-105.2188;0;0;-42.78057;-0.3276554;-6.558561;-77.39652;-72.47055;-0.01638112;-0.6991398;0;
-657.0856;0;0;-574.9076;2.218269;-7.087835;-623.0444;-620.1849;0.11357;-0.2436659;0;
-550.5411;0;0;-506.4265;4.225772;-14.71652;-522.0314;-518.0502;-0.01647877;0.146383;0;
-222.1527;0;0;-208.0049;6.230282;-18.45278;-197.5447;-195.5665;-0.08142956;-0.1136335;0;
-251.727;0;0;-236.4066;15.3337;-11.46814;-224.7074;-227.4789;0.3084563;0.01641541;0;
86.54351;0;0;71.80119;19.6052;-11.32265;107.4765;104.9577;0.1782117;0.3412356;0;
674.3486;0;0;638.6316;16.37032;-10.37351;688.2015;686.4974;-0.08183674;0.4058601;0;
525.4954;0;0;531.2311;17.76039;-8.889461;543.5824;540.1308;0.1131475;0.3404849;0;
162.8369;0;0;199.0515;17.87627;-6.13435;183.7793;182.9548;0.04806648;0.2102081;0;
202.5283;0;0;233.4591;18.39417;-3.984733;221.1382;223.6255;-0.0819165;0.2099969;0;
-93.3391;0;0;-35.7653;15.02678;-4.047711;-69.06319;-68.26514;0.2430025;-0.1800182;0;
-655.5251;0;0;-575.8329;13.53879;-3.039022;-623.9648;-623.9797;0.1128237;-0.504674;0;
-554.7293;0;0;-515.8466;16.06981;-1.428378;-528.0108;-526.5889;-0.1471591;-0.1793302;0;
-215.3423;0;0;-208.1702;14.51342;-0.02030162;-193.0234;-193.7268;0.2427928;-0.374052;0;
-243.4866;0;0;-233.3233;19.52268;-4.307067;-218.8163;-222.7049;0.4374509;-0.6335455;0;
86.96706;0;0;71.3831;20.30637;-5.2405;105.4906;103.2301;0.3070767;-0.3730396;0;
670.5862;0;0;637.9641;16.46855;-0.814483;682.0947;680.8984;0.3067681;-0.1127954;0;
527.6714;0;0;538.8725;17.12159;0.1910794;544.9155;541.7214;0.1765252;0.01725267;0;
171.9448;0;0;215.4308;7.592561;-1.483686;192.6697;192.0401;-0.1484889;-0.242634;0;
199.1333;0;0;236.5162;4.303379;-1.81711;217.526;219.5832;-0.08337234;-0.2423902;0;
-109.9116;0;0;-51.82666;8.384892;2.20357;-86.28993;-85.85905;0.2415482;-0.04724467;0;
-655.8392;0;0;-581.4459;6.165663;2.536271;-626.5566;-625.6264;-0.08353128;-0.3070666;0;
-548.2964;0;0;-512.7084;12.72355;3.203551;-522.9163;-520.3004;-0.4732514;-0.3717254;0;
-231.9667;0;0;-222.1515;14.11729;4.071111;-209.0484;-208.9339;0.1768976;0.08341955;0;
-254.4097;0;0;-240.8562;10.28568;-1.626407;-230.2026;-233.4615;0.5665238;0.2782378;0;
95.79501;0;0;82.47337;11.07866;-2.6965;113.7934;111.8496;-0.1486862;0.3429255;0;
675.22;0;0;644.5454;5.708889;-4.636174;686.4537;684.8867;-0.4733734;0.2126463;0;
525.1791;0;0;534.8901;4.698775;-6.239106;540.8992;536.96;0.04684092;-0.3073061;0;
163.208;0;0;201.7698;2.952742;-4.156365;182.3482;180.5993;0.5015652;-0.8267361;0;
201.0874;0;0;235.7999;0.806321;-5.08995;217.772;219.7106;0.1112572;-0.371134;0;
-90.90546;0;0;-32.92713;9.245605;0.6755743;-68.92776;-68.11561;0.1111454;0.213945;0;
-653.9061;0;0;-579.8066;11.1787;2.550296;-624.3918;-624.33;1.020576;0.1487627;0;
-553.1119;0;0;-519.6915;11.23384;-0.6003428;-527.3129;-526.1268;0.8896164;-0.2411909;0;
-213.539;0;0;-208.8877;14.97359;0.2040557;-191.8264;-192.7029;0.04414704;-0.3059158;0;
-243.5592;0;0;-233.9776;7.189016;-3.881986;-220.6191;-224.3058;0.2390047;-0.04573909;0;
92.07941;0;0;76.539;5.976344;-5.418693;108.9995;106.7533;0.1737972;0.08424157;0;
679.754;0;0;648.1747;17.69199;-0.2556846;689.5981;688.4161;0.1086552;0.1491243;0;
528.3967;0;0;540.8895;19.95139;1.887904;542.6038;539.8611;0.2384807;0.08400708;0;
169.3584;0;0;214.0101;19.66292;-4.812042;187.4243;186.4961;0.1083064;0.4737267;0;
203.4211;0;0;244.9044;20.71489;-5.410053;219.1574;221.9158;0.1731649;0.343316;0;
-104.6911;0;0;-42.25996;20.89514;2.231193;-83.59821;-82.34189;0.1080236;-0.436637;0;
-652.3105;0;0;-575.9492;21.07522;3.099729;-623.9301;-623.8619;0.04294772;-0.3062636;0;
-542.8348;0;0;-506.5301;15.89648;10.73255;-518.231;-516.2888;-0.08703011;-0.04608653;0;
-224.0743;0;0;-216.0419;13.53598;14.27174;-202.7435;-203.3021;-0.02197532;0.01892714;0;
-247.3998;0;0;-235.6898;10.4419;10.90837;-224.0915;-228.4601;0.4328181;0.2787775;0;
106.1711;0;0;91.38271;6.144498;13.50962;123.3341;119.9695;0.3674159;-0.04633935;0;
682.7121;0;0;651.2594;9.554575;4.654545;693.1113;689.9998;-0.08772466;-0.1112601;0;
523.9181;0;0;534.2885;8.071106;2.64038;538.3047;533.8221;-0.1526038;0.08375371;0;
170.4441;0;0;209.4147;2.971806;8.197188;188.0647;186.71;-0.1524505;0.08366954;0;
207.0668;0;0;242.4375;2.432956;6.983259;222.5458;225.3154;-0.2172647;0.2135202;0;
-99.61221;0;0;-40.47647;-6.74554;15.61692;-79.9634;-78.13361;0.3026924;0.3432403;0;
-660.1678;0;0;-584.3499;-9.820221;17.47663;-634.2919;-634.213;0.2374209;0.2779281;0;
-556.2438;0;0;-519.8574;-3.982229;16.58841;-534.5793;-532.3766;-0.02268705;0.1477141;0;
-216.0432;0;0;-209.9905;-4.313996;18.44714;-197.8987;-196.7601;0.4321071;-0.1123037;0;
-242.9375;0;0;-234.0173;2.791262;9.520121;-222.25;-226.235;0.3667056;-0.2421255;0;
92.51315;0;0;74.00061;6.806945;7.233135;107.2453;103.1394;0.1714351;-0.1769149;0;
684.2477;0;0;645.389;1.977334;7.493799;691.0316;688.429;0.3011975;-0.2417045;0;
531.0118;0;0;536.9822;3.515589;5.610869;541.662;537.6876;0.1059929;-0.2414616;0;
168.5352;0;0;207.9827;4.04792;5.538248;182.423;180.2643;-0.02404831;-0.1762516;0;
206.7841;0;0;241.3194;2.905752;4.527939;218.0967;219.5633;0.1059105;-0.1760745;0;
-104.8922;0;0;-48.46506;10.94078;9.011124;-87.65639;-86.56606;0.3656735;-0.435767;0;
-654.3855;0;0;-583.21;12.26896;11.27949;-629.296;-628.5191;0.3003387;-0.3703618;0;
-542.3464;0;0;-510.5353;6.094692;7.048231;-521.9673;-519.4421;0.1051349;-0.04515294;0;
-226.7724;0;0;-221.2299;5.217912;7.242097;-210.849;-210.6376;0.3648986;-0.1100749;0;
-248.6584;0;0;-241.31;-0.5481071;11.99049;-230.5646;-234.7262;0.4294993;-0.1099643;0;
106.9129;0;0;83.39443;-3.294223;12.78223;119.9285;116.0209;0.104231;-0.1748212;0;
681.0793;0;0;640.718;-3.424634;15.98457;686.4607;684.2437;-0.2207104;-0.1096782;0;
521.4124;0;0;527.7556;-4.760364;18.04486;530.0367;527.0723;-0.3504233;0.1503014;0;
174.0003;0;0;210.4471;-3.282688;12.13235;186.0518;185.6515;0.2346349;-0.04475163;0;
216.0542;0;0;246.7797;-2.475106;11.04856;225.22;229.0681;0.3643338;0.1501954;0;
-98.69226;0;0;-43.57242;-0.3965147;11.03745;-84.47571;-81.56857;-0.02583634;0.2799791;0;
-657.7495;0;0;-586.3808;1.479894;8.681961;-636.051;-634.771;-0.1557451;0.01982845;0;
-540.7721;0;0;-511.5164;3.287068;14.03175;-524.7176;-522.9391;-0.1555886;-0.04515883;0;
-204.8973;0;0;-205.0937;3.75228;15.22334;-194.2312;-195.2031;0.1694045;-0.1100808;0;
-237.9247;0;0;-233.061;11.51804;5.696714;-225.4577;-229.9894;0.2991689;0.2798339;0;
97.8957;0;0;75.95551;14.58793;3.413571;103.9159;100.4508;0.1689337;0.2145854;0;
683.4404;0;0;642.3445;7.13853;6.826148;681.3337;678.934;-0.02613812;-0.04549964;0;
529.8931;0;0;533.4409;7.733593;6.551357;531.4116;527.0153;-0.0910792;0.08448078;0;
175.3511;0;0;206.8813;1.831324;5.406187;178.1174;175.2873;0.038947;0.01942855;0;
223.3382;0;0;244.9667;0.2218938;4.998857;221.1042;222.0876;0.1688426;-0.1105257;0;
-85.29372;0;0;-41.44811;0.8922322;7.472081;-82.77778;-82.42015;0.2336402;0.01952008;0;
-643.4274;0;0;-586.0077;-2.592265;7.86647;-633.9175;-633.7477;0.1684381;0.2144025;0;
-535.8972;0;0;-521.0138;16.433;8.19348;-531.2693;-529.2881;0.1033015;0.4090891;0;
-214.395;0;0;-229.1992;21.50768;8.654128;-215.7064;-217.5377;0.1681651;0.3437107;0;
-228.1101;0;0;-243.2117;8.357905;7.372757;-230.7944;-236.6843;-0.1568406;0.01852862;0;
127.3781;0;0;85.67998;7.678946;7.968195;117.45;113.7524;-0.4815197;-0.176392;0;
693.0282;0;0;635.3176;6.533131;3.338488;675.3016;672.2949;-0.2861339;-0.1112475;0;
529.7885;0;0;512.7405;4.985349;1.794526;513.9538;509.5133;-0.220879;0.01879902;0;
184.1797;0;0;193.8853;-0.7794607;6.481407;168.9855;167.7978;-0.2856244;0.1487148;0;
226.3483;0;0;227.2361;-4.529722;6.742826;207.4837;209.7331;0.03949931;-0.1762713;0;
-83.47351;0;0;-60.2853;-0.3729604;7.539845;-98.50852;-97.26096;0.3642963;-0.6308656;0;
-634.2377;0;0;-594.8935;-0.8411002;7.800201;-644.8848;-643.8884;0.493865;-0.110493;0;
-523.5933;0;0;-527.5793;-2.113053;11.40944;-540.8513;-538.1068;0.2984667;0.2144548;0;
-196.044;0;0;-227.0125;-1.708788;13.94321;-217.3452;-217.477;0.03829743;-0.1755648;0;
-226.2068;0;0;-248.8982;-1.840793;5.824506;-244.4256;-248.5552;0.1032263;0.2144157;0;
113.4749;0;0;64.0072;-1.370429;5.081841;88.65269;86.52621;0.2330573;0.1492329;0;
706.4377;0;0;635.0308;0.5069585;6.349411;670.5836;668.4592;0.1028884;-0.3056884;0;
548.7443;0;0;515.5775;1.242407;4.534492;511.7393;506.5561;-0.09211701;0.2793248;0;
180.3154;0;0;171.9819;2.045442;13.97429;141.9107;140.106;-0.02705711;0.4089788;0;
229.3594;0;0;212.8509;2.445529;16.23766;187.1203;190.5024;-0.02702992;0.01876382;0;
-75.5304;0;0;-69.78349;1.907208;10.19301;-113.2918;-110.1006;-0.09197011;0.2786143;0;
-632.7369;0;0;-614.0023;1.770593;9.445951;-665.4004;-663.2119;0.1679917;0.3433017;0;
-516.2843;0;0;-539.0477;1.56872;9.101545;-552.7881;-550.1644;0.2977576;0.0830874;0;
-191.8034;0;0;-241.6553;2.303102;7.685759;-231.5813;-231.7089;-0.2222804;0.01803657;0;
-214.5367;0;0;-263.4014;-3.191569;6.003584;-255.3365;-259.0872;-0.3519917;0.2129205;0;
140.1258;0;0;60.57555;-4.795952;4.992808;90.05903;87.99877;-0.02680131;0.3426412;0;
712.5721;0;0;612.5497;1.237086;-2.380209;653.1854;652.3766;0.1031603;-0.1124745;0;
545.3773;0;0;487.934;1.771707;-6.463655;489.1737;486.2418;0.1030566;-0.2422961;0;
196.1296;0;0;172.7269;4.382871;0.04006266;142.7936;142.5507;-0.02698158;0.08278403;0;
241.2847;0;0;218.6552;5.784986;-0.7637728;185.1287;189.6962;-0.2218565;0.01773351;0;
-69.23924;0;0;-66.04649;5.912896;0.3087216;-121.0285;-116.7779;-0.09169889;0.01771569;0;
-615.1452;0;0;-604.272;7.581894;2.920624;-661.8849;-659.0754;0.03832793;0.3425346;0;
-503.7703;0;0;-541.5711;0.2732578;-8.536148;-553.8989;-550.6548;-0.09164526;0.08232106;0;
-188.0476;0;0;-251.0477;-2.607405;-9.666159;-239.7499;-238.6331;-0.02658584;-0.1126637;0;
-210.5347;0;0;-268.0992;4.829955;-5.57061;-260.5609;-261.8191;-0.09152646;0.2122862;0;
140.1257;0;0;57.44416;5.227243;-6.43579;85.33965;86.26917;-0.0914345;0.1471056;0;
716.9449;0;0;620.3535;1.873088;6.498016;655.5922;656.9581;-0.02637528;-0.3078136;0;
557.8041;0;0;499.8529;2.808235;10.97934;495.9509;494.192;-0.09131613;-0.242537;0;
200.6729;0;0;167.9547;-3.021736;8.155028;138.7569;138.4989;0.4934817;0.08254342;0;
245.3862;0;0;207.5784;-4.692663;10.96012;181.9082;184.9613;0.4280185;0.08246048;0;
-57.02103;0;0;-70.05318;1.876136;9.140565;-114.1884;-111.638;-0.222085;-0.04755707;0;
-615.2456;0;0;-609.7115;2.209043;9.935176;-664.6719;-662.249;-0.09192715;-0.2424113;0;
-502.8711;0;0;-540.071;6.02424;9.255363;-557.62;-553.8253;0.1680346;-0.1122331;0;
-168.5961;0;0;-237.3678;7.157263;8.911149;-229.4119;-227.2451;0.2978004;0.4725858;0;
-197.7244;0;0;-259.7429;7.552213;10.77772;-257.1048;-257.8763;0.2975012;0.2772089;0;
145.3019;0;0;58.54574;9.218588;10.23102;80.17161;79.2135;-0.1575691;-0.2428084;0;
723.1154;0;0;615.7068;0.2343442;14.84244;650.3044;648.0355;-0.1574108;-0.177597;0;
559.908;0;0;491.2754;-1.574552;16.03322;489.9813;486.0279;-0.02731794;0.3423201;0;
208.8341;0;0;166.5697;-2.377254;15.54823;140.2895;140.7753;-0.0272905;0.4069435;0;
251.3528;0;0;205.2578;-4.249899;17.0731;181.7526;186.9231;0.1026716;-0.1781715;0;
-63.42921;0;0;-81.49188;1.113006;11.36251;-124.6511;-121.0475;0.3624378;-0.1779924;0;
-615.0881;0;0;-619.2021;2.183614;10.41346;-671.251;-668.3382;0.2971063;-0.0478789;0;
-498.6533;0;0;-547.5532;3.855384;12.94822;-562.5059;-557.7219;0.1668731;-0.2427328;0;
-177.1886;0;0;-251.9014;5.4591;12.86823;-245.5997;-242.1324;0.2966401;-0.2424889;0;
-196.6257;0;0;-267.2654;5.989478;16.0035;-263.6562;-264.1279;0.10144;-0.1772779;0;
162.2666;0;0;65.83586;6.118158;17.59488;91.86762;91.08408;-0.09356396;-0.04716511;0;
728.5063;0;0;620.9906;10.93381;18.381;655.6169;655.6462;0.03646474;-0.2420197;0;
555.7358;0;0;493.368;13.60214;19.70219;488.3544;487.1343;-0.09350659;0.01809282;0;
204.1039;0;0;169.3474;2.268963;20.8211;138.4143;140.0066;-0.2233473;0.4078787;0;
252.4993;0;0;210.0317;0.860164;21.20208;181.7534;187.9667;-0.1581555;-0.1122699;0;
-53.72558;0;0;-72.47498;2.46689;23.72601;-122.1516;-116.2568;0.1018727;-0.1771244;0;
-609.892;0;0;-612.4432;1.526406;24.50596;-673.1268;-667.7377;0.1017704;-0.1119791;0;
-497.3354;0;0;-546.2358;5.81178;20.73042;-564.942;-558.5588;-0.2881359;-0.2418013;0;
-173.1234;0;0;-253.7711;5.538497;20.10674;-244.9099;-241.7815;-0.2878464;-0.176591;0;
-193.9389;0;0;-266.1973;17.58937;16.87135;-263.8417;-264.2147;-0.3525245;-0.04647885;0;
159.9531;0;0;71.02582;23.1314;14.84504;87.74682;89.74799;-0.482105;0.3433719;0;
726.5076;0;0;624.4887;9.777946;18.38009;651.6876;653.9991;-0.2867185;0.2780595;0;
554.1763;0;0;491.6777;8.831093;19.16542;484.9913;483.24;-0.09152843;-0.04705657;0;
203.4205;0;0;168.221;10.49618;14.79239;135.5544;135.8038;-0.02646912;-0.1119766;0;
256.3144;0;0;210.6555;8.208461;13.7058;182.9568;187.3914;-0.09140987;-0.3717335;0;
-54.09973;0;0;-80.34748;12.62084;21.8637;-123.3232;-119.8301;0.03861666;-0.3063926;0;
-610.5157;0;0;-621.8071;12.74286;24.38709;-674.5472;-670.9951;0.2984472;-0.04621539;0;
-494.7101;0;0;-550.093;7.236722;17.59743;-566.1735;-560.8134;-0.0916567;0.08376575;0;
-177.9345;0;0;-259.9983;5.756558;15.77133;-254.386;-251.0928;-0.351434;0.538453;0;
-198.7452;0;0;-277.6031;3.272527;21.38181;-272.6836;-272.2047;0.1036905;0.6028793;0;
164.7719;0;0;57.25771;0.05405819;20.02078;86.53496;88.01284;0.1685537;0.08253477;0;
731.6339;0;0;611.3591;6.349668;20.13463;647.541;648.5176;-0.3513544;-0.4372869;0;
562.6083;0;0;486.6197;7.415014;20.65026;482.7228;481.1373;-0.3510014;-0.04704347;0;
219.715;0;0;173.4129;-4.849947;5.357773;142.7834;143.5108;0.2990247;0.6026772;0;
259.849;0;0;208.471;-8.46142;1.601345;180.5584;183.0966;0.6885284;0.2122676;0;
-57.94001;0;0;-89.15148;-1.755113;-0.4766126;-133.0905;-132.3664;0.2980324;-0.1127824;0;
-607.7928;0;0;-622.2939;-1.083764;-4.361144;-676.7459;-674.8981;0.03786362;0.08223296;0;
-491.7402;0;0;-545.0196;-5.905446;6.226297;-563.435;-559.715;0.1027929;-0.1777191;0;
-169.2205;0;0;-251.2444;-4.694064;8.296513;-244.4039;-242.999;0.1026896;-0.1775405;0;
-197.4112;0;0;-277.666;-6.698103;7.685329;-274.4557;-275.4884;0.1675538;0.4723113;0;
158.0461;0;0;49.63611;-6.892443;9.486146;71.45889;71.9889;0.03745074;0.4068694;0;
744.53;0;0;620.1744;5.304644;11.8209;650.9083;652;-0.02755423;0.2115586;0;
570.1816;0;0;493.1148;9.185056;12.88074;483.713;483.2419;0.1673755;0.406248;0;
205.2293;0;0;162.7851;9.845412;11.52814;124.907;126.8102;0.2321746;0.08100311;0;
257.934;0;0;212.534;11.44311;11.31561;178.5045;182.8421;0.166974;-0.1789477;0;
-53.48125;0;0;-76.28451;16.05331;5.543953;-124.5226;-122.1884;0.3617083;-0.1138005;0;
-613.3336;0;0;-624.4323;17.91222;3.461911;-678.4315;-676.0997;0.1664428;-0.3085882;0;
-497.0255;0;0;-554.777;8.985609;-1.23025;-568.7421;-564.1638;-0.2235285;-0.3732454;0;
-178.6858;0;0;-269.925;6.833127;-4.979937;-257.2644;-254.5647;-0.02840188;-0.3079031;0;
-198.1839;0;0;-288.8941;0.06110648;1.187253;-278.1828;-278.2344;0.426398;-0.2426264;0;
175.8274;0;0;59.72107;-5.497684;1.119077;89.91188;91.60941;0.03616556;-0.1774152;0;
745.4268;0;0;617.6931;-0.9378088;1.05097;655.5372;657.7952;-0.4186422;0.01766509;0;
563.3939;0;0;481.8279;-3.415113;2.724487;481.4657;480.2857;-0.02841747;-0.04732002;0;
227.309;0;0;174.4355;-1.200879;-1.632019;149.3361;149.7814;-0.02838892;-0.1122398;0;
272.995;0;0;214.6774;1.344947;-1.831328;190.6652;194.296;-0.1582951;0.277677;0;
-63.67273;0;0;-97.13166;-11.98564;1.519537;-141.547;-140.0438;0.03676601;0.01752865;0;
-615.0191;0;0;-632.9521;-13.44747;2.053873;-686.3184;-684.5043;-0.02823828;-0.1124237;0;
-492.3999;0;0;-552.1689;-5.998239;4.865093;-567.8754;-563.2521;0.1666921;-0.177278;0;
-176.7511;0;0;-263.8838;-5.188905;6.601638;-256.2112;-254.3411;0.231492;-0.3070346;0;
-199.437;0;0;-283.4836;4.930366;3.379946;-277.9427;-279.6977;0.1013247;-0.1118241;0;
165.2677;0;0;54.38152;9.41339;2.438789;80.21916;80.1526;0.1661902;-0.4365484;0;
743.311;0;0;619.5428;11.07887;6.656141;651.5388;652.9716;-0.1588135;-0.5660444;0;
565.0283;0;0;488.4233;15.15358;6.448504;480.5948;480.3394;-0.2885886;-0.1107043;0;
201.2682;0;0;156.849;11.38731;4.097744;123.4162;125.8472;-0.02842925;-0.2405277;0;
248.8544;0;0;200.232;11.77703;3.155866;169.9562;177.5072;-0.1583354;-0.5001554;0;
-58.80363;0;0;-84.13885;12.03361;-0.6652102;-131.813;-124.7068;0.03672576;-0.1748161;0;
-613.0909;0;0;-622.2838;10.07914;-1.870235;-679.6551;-673.6805;-0.02827849;0.2151636;0;
-491.9105;0;0;-546.0715;16.36468;-7.159885;-564.9045;-558.0613;-0.1581848;0.5397841;0;
-168.4535;0;0;-256.0433;18.22424;-9.764903;-247.0589;-242.0966;0.1668109;0.409307;0;
-193.3966;0;0;-278.3997;5.680001;-4.262735;-270.986;-268.1527;-0.1581934;0.08405904;0;
172.3639;0;0;62.27148;2.459113;-3.320691;87.98101;92.81047;-0.4179038;-0.3058295;0;
739.718;0;0;616.2429;8.217418;-3.250371;648.6732;654.8097;-0.09264722;-0.4354569;0;
557.0037;0;0;477.6306;6.601571;-1.974429;472.7346;476.8658;-0.1575215;0.1496868;0;
209.4309;0;0;158.6857;12.75688;1.577528;129.6193;135.6829;-0.02742851;0.5393404;0;
249.5752;0;0;196.7571;15.89287;3.719397;169.2191;178.5875;0.03756639;0.4088638;0;
-71.38937;0;0;-97.10552;4.691116;3.916608;-143.294;-136.4337;-0.4172427;0.2135509;0;
-610.9214;0;0;-623.181;3.748397;5.587124;-677.3815;-672.2772;-0.3518561;-0.1764677;0;
-483.6837;0;0;-543.7819;7.093534;4.442922;-557.948;-551.9744;-0.09163324;-0.5011271;0;
-168.6683;0;0;-256.817;6.483193;4.438458;-246.5436;-242.9498;-0.02657383;-0.1757869;0;
-197.7966;0;0;-278.298;13.30918;6.510347;-273.5322;-272.4407;0.2333222;-0.04567553;0;
164.72;0;0;56.56347;15.50661;6.83872;80.81466;84.34134;0.2330878;-0.500401;0;
738.3286;0;0;612.7271;14.21823;6.496934;645.762;651.2216;-0.2868851;-0.4349309;0;
555.7407;0;0;473.8059;15.54312;6.557389;467.0151;470.97;-0.1566622;0.08524489;0;
195.6754;0;0;145.682;12.37967;7.488561;109.9751;116.2998;0.363234;0.02019189;0;
248.2023;0;0;196.0727;10.22377;8.0169;162.713;172.2798;0.4928037;0.08513895;0;
-59.33011;0;0;-88.04408;17.17973;6.468237;-135.3632;-128.1174;0.4273411;0.0850534;0;
-616.9902;0;0;-629.9332;18.56898;6.193806;-684.3262;-678.5869;0.0371077;-0.1749014;0;
-494.3065;0;0;-547.9036;6.159093;7.795173;-566.1352;-559.2772;-0.417701;-0.239693;0;
-167.224;0;0;-249.0031;3.071446;7.854323;-243.4157;-239.3133;-0.1574119;-0.4343542;0;
-191.981;0;0;-271.2416;6.28354;9.65497;-267.6588;-265.9343;0.2325503;0.08582096;0;
175.7772;0;0;67.73573;5.472943;11.18575;91.24232;95.40139;0.3622513;0.6704408;0;
742.6281;0;0;616.017;4.596788;6.418849;648.433;653.0252;0.491822;0.6047998;0;
558.3491;0;0;474.9062;4.391098;5.876535;468.2467;471.3975;0.5562952;0.6691594;0;
213.1488;0;0;158.9626;8.137731;9.755641;126.2604;132.2191;0.4258015;0.5385524;0;
249.9785;0;0;190.9117;9.201281;10.14774;160.5537;170.442;0.03556963;0.3431092;0;
-76.42124;0;0;-105.1939;12.80936;10.47245;-157.7602;-149.1313;0.1654686;-0.306909;0;
-612.2001;0;0;-622.3907;15.4758;9.457188;-684.2744;-678.028;0.490139;-0.4365353;0;
-485.6483;0;0;-540.1813;11.03962;15.67685;-560.6487;-555.2831;-0.09505955;0.3435115;0;
-171.9427;0;0;-257.7177;11.4297;17.53662;-252.7398;-250.9403;-0.2898661;0.3431663;0;
-185.2632;0;0;-274.8875;11.55291;6.199131;-270.1645;-272.2398;0.3600986;0.01798479;0;
180.9265;0;0;61.5947;11.74237;3.781638;89.73872;87.97779;0.09986742;0.08293406;0;
740.9006;0;0;610.5693;11.26108;2.371197;646.6186;645.4216;-0.3550043;0.01788338;0;
560.3716;0;0;477.0226;10.24539;-0.3773639;472.0563;469.6736;-0.1597456;-0.242004;0;
206.8609;0;0;152.7061;15.72745;1.498415;121.3205;121.7514;-0.09461773;-0.3716955;0;
258.8768;0;0;196.8429;15.84537;1.362944;169.5493;173.2906;-0.02955532;0.01848206;0;
-50.72783;0;0;-91.27265;16.49903;-0.7817574;-136.7797;-133.6044;0.3602784;0.4732349;0;
-612.2071;0;0;-639.2805;16.48246;-1.316835;-694.0496;-690.8774;0.2949491;0.1479227;0;
-487.1545;0;0;-556.9916;9.768089;4.71283;-574.162;-569.494;-0.09515134;0.01783935;0;
-158.7049;0;0;-252.0225;6.676816;6.851426;-248.3112;-244.6472;-0.03008839;0.08278877;0;
-195.5268;0;0;-279.8801;4.19186;3.964398;-282.6693;-282.0075;0.4247132;-0.1771638;0;
168.112;0;0;56.73206;2.044194;4.295329;75.68479;76.59577;0.2943518;-0.6967245;0;
744.0285;0;0;616.3312;-6.464326;5.898481;646.3219;647.2319;-0.3556174;-0.6960244;0;
560.1854;0;0;476.6569;-10.20887;6.093503;468.2616;466.7345;-0.09539068;-0.1755863;0;
214.8583;0;0;158.2127;-5.107426;6.08738;125.2133;126.0615;-0.2252295;-0.04547523;0;
253.5604;0;0;191.8493;-4.767502;6.885059;160.0074;164.353;-0.6148072;-0.2403316;0;
-74.90442;0;0;-110.754;-3.624611;1.050748;-162.8036;-159.7118;-0.09445076;-0.2400901;0;
-605.2501;0;0;-627.9452;-2.481894;-0.8926911;-685.8146;-681.7888;-0.02938852;0.08498789;0;
-472.2084;0;0;-535.6103;3.54882;4.801633;-554.7535;-547.8582;-0.2892283;0.2148372;0;
-171.4474;0;0;-254.9629;6.291921;5.131723;-252.9725;-248.7078;-0.09403571;0.01971928;0;
-200.448;0;0;-280.6312;5.280244;5.528342;-279.7047;-279.8171;-0.2238759;0.01969947;0;
176.6265;0;0;60.85426;6.481364;5.991668;87.07957;87.46703;-0.4835203;0.01967967;0;
748.3491;0;0;615.1395;2.723807;4.244213;649.2719;649.0968;-0.4180671;-0.04530746;0;
571.3732;0;0;483.2748;0.8450598;2.833307;476.581;473.7824;-0.1577777;0.08467276;0;
223.4112;0;0;163.8246;1.849565;4.036153;132.15;132.2278;0.1672176;0.3444571;0;
261.9172;0;0;198.5799;0.8423523;2.893388;168.6863;171.8249;0.2320169;-0.04569313;0;
-54.62446;0;0;-95.09711;-4.182336;0.2781459;-143.0766;-141.1905;0.1668164;-0.4354513;0;
-600.1078;0;0;-625.7972;-5.985819;0.5457981;-683.0363;-680.5274;0.03671409;0.01975769;0;
-471.5067;0;0;-537.1502;-5.51129;-10.10467;-559.5992;-554.0319;-0.09325748;0.5394766;0;
-147.5081;0;0;-240.072;-5.706823;-12.17099;-239.9473;-236.3221;0.1017383;0.4739672;0;
-180.2183;0;0;-265.1306;-4.294569;-11.28798;-269.8785;-270.7547;0.2315707;0.2136215;0;
181.4686;0;0;69.09297;-3.419598;-14.29087;87.4007;86.08811;-0.09349868;0.08347221;0;
750.5001;0;0;616.3734;-0.1336318;4.210413;650.03;648.4689;-0.2233394;0.213323;0;
568.2747;0;0;475.8244;1.273022;8.492968;472.2784;469.6569;0.03675436;0.4080107;0;
226.6876;0;0;159.3801;2.610914;5.202392;132.1621;131.9794;-0.02824991;0.6674701;0;
272.9365;0;0;196.6387;2.541917;8.211274;173.6334;177.199;-0.1581562;0.6667994;0;
-50.61278;0;0;-105.3447;7.093714;-0.8394279;-146.4428;-142.8183;0.1018721;0.211358;0;
-591.415;0;0;-633.7232;9.363762;-2.379192;-680.5896;-678.0306;0.2966717;-0.1786584;0;
-462.0106;0;0;-542.5695;-4.309677;-7.467382;-553.9066;-550.4131;0.166439;-0.2434462;0;
-156.0124;0;0;-255.2934;-7.453178;-11.6127;-249.7526;-247.9494;0.03633703;-0.1132669;0;
-188.2144;0;0;-276.5885;-7.178246;-6.108552;-278.612;-279.9965;0.1012679;-0.1781205;0;
182.7884;0;0;69.45308;-10.31886;-6.70526;87.04677;86.53825;-0.02876857;-0.3078762;0;
746.6962;0;0;614.1719;-2.404266;-6.363608;644.7415;643.4213;-0.09370701;0.0172699;0;
563.6;0;0;468.5652;-0.2583963;-5.285487;466.2455;461.4909;0.1662565;0.2121546;0;
230.5134;0;0;159.562;-4.277601;-6.418886;134.1937;132.6923;0.2310568;0.1469741;0;
282.0682;0;0;206.1282;-2.732085;-6.479419;182.3471;186.0945;-0.1589794;-0.1780103;0;
-46.17537;0;0;-98.80079;-1.189098;-1.315345;-140.549;-137.8047;-0.223787;-0.3727335;0;
-594.5408;0;0;-633.87;-0.5856673;0.7623257;-681.948;-679.5814;0.03630721;-0.04752227;0;
-463.2591;0;0;-539.4677;6.046353;-4.396004;-552.2026;-548.2142;0.3611074;0.2123949;0;
-151.3876;0;0;-249.1963;8.183732;-4.324604;-242.3033;-241.8796;0.2957773;0.2771488;0;
-186.1555;0;0;-280.2427;6.701641;-6.798505;-275.2307;-279.3676;-0.09432399;0.2768703;0;
185.7197;0;0;60.43032;7.632912;-8.935128;89.55018;85.79224;0.2306075;-0.113212;0;
758.1828;0;0;612.0298;5.61551;-2.629876;652.3023;648.7355;0.1004411;-0.3729676;0;
575.8872;0;0;470.1733;5.878287;-2.292319;473.4864;468.3615;-0.2894639;-0.1127234;0;
234.4174;0;0;156.7957;2.389756;-2.825879;135.5553;132.6219;0.03566368;0.08229186;0;
273.9744;0;0;194.744;1.515723;-1.483381;174.0871;174.53;-0.09430683;0.01724183;0;
-55.94773;0;0;-106.238;4.52831;-6.907386;-147.2389;-147.0463;-0.2891141;-0.1127102;0;
-592.8091;0;0;-625.6201;4.724831;-7.302343;-674.9506;-675.4454;0.2309151;0.0823051;0;
-463.0909;0;0;-533.2876;9.00699;-8.098801;-549.2103;-548.8925;0.2306831;0.3420918;0;
-158.466;0;0;-253.3922;9.935946;-9.765236;-249.5588;-252.3647;-0.1593527;0.4067154;0;
-181.7949;0;0;-279.6243;13.00742;-2.722338;-275.1075;-282.1585;-0.22416;0.276372;0;
198.5092;0;0;66.67028;14.13245;-2.250722;95.54522;90.12553;-0.288902;-0.0487424;0;
764.4626;0;0;616.7018;10.90307;-0.6408705;654.6681;649.941;-0.3535791;-0.1136608;0;
579.2247;0;0;473.5912;10.35625;0.4983613;474.4756;466.9421;-0.2232891;0.4061922;0;
239.1883;0;0;160.3976;5.054559;-5.396393;137.6679;132.7032;0.1017719;0.4707514;0;
276.679;0;0;197.1553;3.375517;-6.194767;175.323;173.4868;0.4265064;-0.1144277;0;
-52.68355;0;0;-102.0175;-3.058236;-11.81499;-144.7548;-148.026;0.1662084;0.01562196;0;
-589.4858;0;0;-621.8411;-6.873557;-14.6164;-674.593;-676.8614;0.2959761;0.4054103;0;
-461.3326;0;0;-534.5723;-1.775459;-10.64972;-552.2888;-552.6183;0.3606461;0.2101009;0;
-151.2122;0;0;-250.5527;-4.051827;-9.768361;-245.2004;-248.7156;-0.2244224;-0.1149469;0;
-176.36;0;0;-274.8511;6.267372;-13.7774;-268.1924;-274.5151;-0.1592295;-0.1148314;0;
197.8167;0;0;68.75249;10.6817;-14.3664;99.08014;95.325;-0.02913487;0.08018602;0;
762.9587;0;0;621.9053;-5.471306;-2.965112;659.199;656.5721;-0.09407293;0.5348768;0;
575.3486;0;0;481.4132;-7.474564;0.7887892;479.6266;473.9413;0.03595627;0.5993067;0;
241.8128;0;0;171.585;-6.261605;-0.01567657;148.7482;144.318;-0.09401454;0.01399847;0;
293.2939;0;0;210.7053;-9.336772;2.7975;195.1378;193.5857;-0.3537894;-0.1809176;0;
-36.64767;0;0;-96.66448;-3.231822;-0.1524376;-131.1443;-134.0068;-0.09356458;0.1441009;0;
-579.2756;0;0;-626.1136;-2.96113;-0.9560797;-668.9297;-671.227;0.2963335;0.2738908;0;
-440.0132;0;0;-527.6588;-6.508129;3.532615;-533.7626;-533.6214;0.2960357;0.1436809;0;
-129.2896;0;0;-234.2133;-6.43424;3.596049;-224.1941;-225.8646;-0.1590331;0.2085038;0;
-172.4504;0;0;-270.0848;-10.9831;-1.029265;-263.5115;-268.2413;-0.48371;0.338229;0;
198.0992;0;0;70.32813;-12.57868;-3.037719;102.6943;98.46908;-0.4182567;0.2079545;0;
769.0506;0;0;624.1041;-10.95943;-2.029922;666.4952;662.4616;-0.4178364;0.2077455;0;
583.5582;0;0;474.177;-11.34958;-1.759951;482.9174;476.0768;-0.09257984;0.4024388;0;
257.3855;0;0;170.9153;-9.329421;-10.9346;159.0323;152.8232;0.2323499;0.2071324;0;
307.9138;0;0;222.1552;-7.511385;-13.66991;210.3466;206.3302;0.1021817;-0.05294509;0;
-34.03633;0;0;-91.0982;-10.71902;-6.958006;-122.2602;-127.0847;-0.02785561;0.0770428;0;
-570.9197;0;0;-614.6809;-10.03769;-7.28593;-651.6837;-656.066;0.03713972;0.07696539;0;
-434.1646;0;0;-520.173;-4.468872;-2.188028;-521.7188;-523.9104;-0.2877343;-0.312916;0;
-142.7496;0;0;-253.9089;-2.186229;-0.2433243;-237.5872;-240.5262;-0.4173799;-0.3775689;0;
-175.3397;0;0;-280.2029;1.298592;-6.00349;-270.082;-275.017;0.1677456;-0.05235284;0;
210.2053;0;0;83.70834;3.775533;-8.274878;111.3728;107.3173;-0.09229233;-0.1822349;0;
775.0226;0;0;637.4084;5.178259;-4.917416;674.2279;670.114;-0.4820037;0.2077523;0;
589.4617;0;0;492.5904;6.847995;-5.649287;496.8893;490.2807;-0.09171528;0.4674129;0;
264.1577;0;0;189.435;5.434595;-16.22667;173.5522;169.3866;0.03831156;0.07713917;0;
315.8036;0;0;235.7838;4.825922;-19.02365;221.791;220.9404;-0.02669428;0.142029;0;
-24.9051;0;0;-76.85857;4.620002;-25.6356;-112.3265;-115.0503;-0.02666745;-0.05301575;0;
-579.3514;0;0;-618.634;2.672977;-28.95899;-663.1867;-666.0952;0.103294;0.07697222;0;
-439.7141;0;0;-524.7468;4.478952;-25.58074;-531.2113;-531.4932;0.2980922;0.2717969;0;
-125.555;0;0;-235.4896;4.608173;-26.0909;-219.2091;-221.3023;-0.02704397;-0.3131823;0;
-170.9684;0;0;-274.6707;-8.189831;-15.07973;-262.5919;-267.3067;-0.2868862;-0.1829329;0;
203.1404;0;0;72.61838;-13.40651;-9.706065;104.8623;102.901;-0.1566632;0.01215293;0;
775.8983;0;0;634.5129;-5.689884;-11.50485;674.7205;673.7606;-0.1565058;-0.117794;0;
585.8388;0;0;492.0092;-7.090687;-8.077284;493.5083;490.0506;-0.2213159;-0.2476103;0;
261.9751;0;0;192.5401;-5.543321;-3.916348;173.8603;171.1557;-0.2210935;-0.4422635;0;
316.8717;0;0;236.7618;-1.786706;-1.367061;226.0968;224.8941;-0.155904;-0.1819498;0;
-28.39834;0;0;-85.25186;-19.06626;-0.02602898;-114.7717;-118.1595;0.03915467;0.07810243;0;
-571.3469;0;0;-614.0254;-22.66345;1.715431;-652.7609;-657.0198;0.03911532;0.07802396;0;
-429.6562;0;0;-515.2702;-7.30171;-1.300402;-517.3602;-519.9907;0.233978;-0.4417932;0;
-133.2483;0;0;-241.3274;-6.491066;-2.035908;-224.9246;-229.7389;0.2337429;-0.6362513;0;
-167.722;0;0;-267.9464;3.027277;-1.431016;-255.683;-263.366;-0.2212633;0.01406144;0;
220.1267;0;0;90.76764;7.913379;-3.238117;126.7568;120.5183;-0.415943;0.2089493;0;
780.1863;0;0;636.7145;2.747864;-0.8234778;679.9763;673.9939;-0.3505577;-0.05113;0;
590.9971;0;0;492.147;6.428798;-2.229292;496.6349;488.7845;0.03959857;0.1438234;0;
268.1278;0;0;193.5524;-5.968894;-0.8873933;177.421;171.8898;0.3643955;0.01374422;0;
313.9602;0;0;233.2753;-8.909657;0.1182424;220.3461;219.0059;0.1691273;-0.1162043;0;
-24.68521;0;0;-81.30107;0.4764171;-10.53192;-114.6445;-115.9834;-0.02594465;-0.05112019;0;
-563.5145;0;0;-608.2045;0.0737968;-11.39211;-647.0117;-649.2238;-0.1558533;0.07886588;0;
-419.9577;0;0;-503.8955;9.986709;-16.60521;-504.9326;-507.1425;0.16914;0.2087213;0;
-112.5026;0;0;-216.1585;14.26358;-19.66974;-201.0153;-206.034;0.1689701;-0.3112271;0;
-158.5538;0;0;-254.6094;10.76663;-7.45933;-246.2905;-254.3651;-0.2210037;-0.4408491;0;
209.9828;0;0;87.16225;13.3014;-6.915971;117.6492;110.832;-0.285749;-0.0506021;0;
774.9877;0;0;634.487;9.737087;4.544815;677.437;671.3763;-0.09055987;-0.1155186;0;
584.9292;0;0;480.8639;8.320784;10.09971;490.6624;483.3584;0.2343678;-0.05043518;0;
258.2553;0;0;175.7838;15.346;-0.9623782;164.8954;160.2849;0.1041977;0.01458285;0;
311.6564;0;0;225.2697;15.93281;-0.2915819;215.7041;214.7838;-0.1557764;0.2744376;0;
-27.67387;0;0;-84.86336;11.63087;-8.195153;-119.0945;-121.3256;0.1692168;0.3391291;0;
-565.5632;0;0;-604.7042;11.01597;-12.20577;-650.0204;-654.1858;0.1040795;-0.115983;0;
-426.8768;0;0;-500.6486;6.182134;-7.571807;-512.3736;-515.7228;-0.1558945;-0.3107685;0;
-133.4077;0;0;-228.9694;2.894368;-8.836875;-221.2549;-225.2878;0.1690989;-0.2454889;0;
-164.8828;0;0;-264.8462;7.914326;-7.689286;-252.7041;-259.3567;0.4937657;0.01462715;0;
218.7776;0;0;84.43202;7.772651;-6.54285;122.9861;117.9644;0.2983675;0.2744818;0;
769.281;0;0;622.9515;3.812726;-7.139122;666.4018;663.6965;-0.1567037;-0.0506307;0;
576.9168;0;0;474.3999;4.143688;-5.993238;480.0755;475.8737;-0.2864809;-0.1155472;0;
255.7483;0;0;178.0719;-2.825725;-1.432499;164.1892;161.9281;-0.1562584;0.1444383;0;
306.2158;0;0;224.8069;-6.172764;0.712394;214.3114;215.0511;-0.02616669;0.0143585;0;
-29.79813;0;0;-85.01338;3.612703;1.649317;-116.5502;-118.2476;-0.2210424;-0.05062328;0;
-573.0576;0;0;-613.7871;3.408978;2.719387;-654.2878;-657.2952;-0.350755;0.07936228;0;
-431.4277;0;0;-511.3466;6.888177;5.797869;-517.9485;-517.892;-0.2204679;0.07928254;0;
-120.1504;0;0;-219.4167;10.16281;7.868392;-211.0196;-212.6498;-0.350181;0.2741049;0;
-166.2565;0;0;-255.8029;-5.386467;0.6265736;-254.9729;-261.2866;-0.2848618;0.07892745;0;
201.2259;0;0;83.40878;-8.462513;-1.115612;107.5387;101.1689;0.1052284;0.0138808;0;
772.424;0;0;635.235;-5.17148;2.033585;672.2717;667.0328;0.04015537;0.1438015;0;
581.6184;0;0;484.1099;-7.510808;0.8928314;485.7522;479.8938;-0.02485232;0.3385591;0;
245.6401;0;0;169.5313;0.2662705;4.241081;153.3059;150.0771;0.235042;0.5331209;0;
299.9908;0;0;215.9001;3.079042;5.576478;207.687;207.1475;-0.09003086;-0.1820555;0;
-40.01485;0;0;-94.16109;-4.827306;0.07839634;-124.9171;-126.9553;0.1049616;-0.3118073;0;
-582.0771;0;0;-617.8032;-5.626739;-0.5915117;-660.3349;-662.4335;0.4296929;0.07831007;0;
-437.752;0;0;-514.2342;2.886358;-0.4569515;-520.6163;-521.3384;-0.09047762;0.01326404;0;
-146.3334;0;0;-243.7282;4.758492;-2.532963;-231.8631;-235.3956;0.1045153;0.07821806;0;
-184.2298;0;0;-273.0934;3.883054;6.445051;-267.5495;-274.6392;0.234345;0.1431068;0;
209.8199;0;0;94.8087;5.888885;9.586773;118.7753;113.2544;-0.2856292;0.2079304;0;
767.8284;0;0;639.9394;0.122191;-1.608766;670.0038;665.488;0.03949449;0.1427541;0;
570.5307;0;0;481.938;-1.218078;-1.674132;479.5509;473.2281;0.1693895;-0.0522914;0;
255.7404;0;0;183.541;4.342851;-3.547972;168.3503;164.9073;-0.1556174;-0.2471409;0;
301.5228;0;0;220.9626;4.740629;-5.687739;213.0336;213.0923;0.234343;-0.4417946;0;
-52.22754;0;0;-105.7828;5.070658;7.11135;-132.6319;-133.6976;0.3640422;-0.2464486;0;
-585.4695;0;0;-623.2913;5.534078;10.38637;-658.859;-659.9861;0.03883971;0.07863572;0;
-440.7662;0;0;-514.282;5.261073;9.170239;-517.6426;-517.5192;-0.1561013;-0.1163453;0;
-146.5334;0;0;-239.9029;5.389509;11.70625;-225.4566;-228.2694;-0.2209118;0.01370627;0;
-184.4921;0;0;-273.7072;6.72424;8.88133;-261.1495;-267.3328;-0.1557225;0.1436272;0;
193.0661;0;0;75.82974;8.526145;7.532748;110.2388;106.2482;0.03933598;-0.2463212;0;
752.7782;0;0;622.9785;0.07748398;13.95542;662.7253;660.5503;-0.02567089;-0.05117167;0;
563.4916;0;0;477.4878;-2.66926;14.81217;478.7141;474.4797;0.03932225;0.2737165;0;
238.2761;0;0;176.1593;7.313757;6.893427;157.5193;155.5381;-0.285554;-0.1163626;0;
294.071;0;0;227.3939;7.507479;5.814773;213.3953;214.6645;-0.5451364;-0.05127836;0;
-44.74186;0;0;-81.55439;11.3847;-0.1523063;-115.5289;-116.0101;0.2350194;0.5334793;0;
-590.2977;0;0;-609.6445;14.11993;-3.434317;-654.8292;-655.4973;0.364718;0.2730739;0;
-449.2126;0;0;-509.1446;4.996062;2.798424;-520.8632;-519.844;-0.4152566;-0.3119066;0;
-151.5357;0;0;-237.7067;4.455178;2.72863;-227.3621;-229.3424;-0.15497;-0.1166912;0;
-188.1149;0;0;-273.2623;2.106177;3.596666;-263.5528;-269.4042;-0.02487958;0.07832809;0;
196.256;0;0;79.33514;0.5638191;3.660035;113.7725;108.6766;-0.4146586;0.2081841;0;
749.0933;0;0;616.9227;2.103494;5.062999;660.6957;656.3545;0.1054968;-0.3117639;0;
556.3121;0;0;470.1887;0.3600682;4.522048;472.8134;467.5396;0.1703581;-0.5713199;0;
245.659;0;0;183.9224;11.2107;3.04388;164.2432;161.5359;-0.4794865;0.2088622;0;
302.5085;0;0;230.5266;14.68206;2.036077;219.1755;219.282;-0.154168;0.4685217;0;
-45.24585;0;0;-92.66769;9.041226;-5.735744;-120.5616;-121.7046;0.1058563;0.1432142;0;
-585.3664;0;0;-617.6856;11.1756;-7.806452;-654.547;-655.3765;0.2356846;0.1430703;0;
-442.1624;0;0;-514.1167;3.595905;-16.23821;-517.2705;-516.5374;0.1055131;-0.05197547;0;
-157.6734;0;0;-247.4214;0.3097621;-20.17377;-234.1428;-236.5964;0.04043973;-0.2468253;0;
-204.179;0;0;-285.9034;11.96473;-14.19226;-277.9479;-283.5849;0.3002685;-0.1166426;0;
188.7038;0;0;75.5149;12.88973;-14.71374;106.3259;102.2563;0.04009739;-0.1165254;0;
755.9165;0;0;627.7864;10.13109;-8.201857;665.8127;661.9346;-0.08987759;-0.1813756;0;
557.5687;0;0;473.7327;10.7905;-6.184128;473.4276;467.5544;-0.414624;0.01370866;0;
237.6066;0;0;175.6563;6.761165;-1.623196;157.2356;153.3048;-0.6740767;-0.1162398;0;
300.2737;0;0;229.0154;6.284881;2.397289;217.0475;215.8692;0.04124134;-0.3759924;0;
-45.54186;0;0;-90.67917;4.469905;-5.977743;-123.1247;-126.3632;0.1061672;-0.05077787;0;
-592.5961;0;0;-621.5712;3.662106;-5.703804;-663.5418;-667.2768;-0.2837435;0.2741099;0;
-449.9471;0;0;-518.1857;4.863875;-10.45374;-525.9439;-526.989;-0.1535237;0.01396508;0;
-155.7051;0;0;-244.0526;3.988332;-13.45747;-234.6241;-236.98;0.1064999;-0.05101631;0;
-194.7789;0;0;-276.3535;10.14627;-5.004218;-271.0574;-276.0971;-0.08850911;-0.1159324;0;
192.4722;0;0;82.11911;11.40887;-4.061551;109.7112;105.8635;-0.4132569;-0.1807832;0;
748.4992;0;0;625.3885;12.60285;-4.392262;658.8249;655.7307;-0.08800493;0.01430045;0;
553.9695;0;0;474.3357;15.13579;-2.847363;469.0704;464.1677;-0.02294916;0.07925342;0;
246.942;0;0;187.2531;5.944526;-2.241656;164.8768;161.4782;-0.1528608;0.01420644;0;
301.8536;0;0;234.3537;4.665755;-0.9667279;217.622;217.6627;-0.08773985;0.01419217;0;
-55.52023;0;0;-90.90588;4.125204;-0.496876;-132.6707;-132.8175;0.3021524;-0.05078945;0;
-593.8188;0;0;-610.8032;1.106948;-0.09447914;-664.5825;-664.2294;0.8215874;0.2740983;0;
-452.1681;0;0;-511.1767;11.95683;1.714033;-526.6087;-524.4443;0.4309579;0.5986596;0;
-171.1672;0;0;-251.6058;14.28934;2.38214;-244.721;-245.245;0.1056882;0.07831933;0;
-203.4789;0;0;-279.1515;7.375127;1.508968;-274.8348;-278.3568;0.04061463;-0.4414981;0;
193.9634;0;0;82.50985;7.367717;2.244264;112.9965;109.7905;-0.4791649;-0.05125044;0;
747.1153;0;0;615.534;5.48528;-0.370203;657.984;653.9066;-0.1538467;0.1437031;0;
548.714;0;0;459.1188;3.603758;-0.7717286;464.9196;458.285;0.4959813;0.1435587;0;
234.5703;0;0;168.0535;7.351181;2.846003;155.1704;151.0413;0.3005809;0.2733491;0;
294.0545;0;0;222.045;7.612215;3.713922;212.673;213.2956;-0.08952519;0.07817245;0;
-52.50439;0;0;-94.45667;4.656828;5.652695;-127.7447;-128.3096;-0.1544026;0.01312656;0;
-601.9254;0;0;-622.2839;5.791225;6.584654;-667.7198;-669.7834;-0.0892801;-0.05185399;0;
-461.1411;0;0;-517.3986;-1.247192;7.850713;-528.8684;-529.2432;-0.02422305;-0.1167692;0;
-165.8259;0;0;-248.8884;-3.657812;7.842825;-238.0454;-240.8561;0.2356707;0.0132828;0;
-207.1385;0;0;-292.9285;7.196854;8.504774;-281.6592;-289.1522;0.2354339;-0.0516979;0;
184.373;0;0;64.99857;7.725486;8.228296;99.18255;91.82196;-0.2845414;0.1432561;0;
745.8429;0;0;612.9078;13.81329;4.469106;653.7416;647.6378;-0.4141902;-0.1167572;0;
544.5693;0;0;456.995;17.41673;4.129701;459.9318;453.8966;0.170932;-0.4414766;0;
228.2433;0;0;166.5566;6.146102;-3.376415;149.0007;145.158;0.4306296;-0.1811637;0;
282.1743;0;0;218.7379;4.130195;-5.181439;203.2611;201.8585;0.3002623;-0.5707856;0;
-69.55762;0;0;-105.2566;3.121667;-3.099884;-141.27;-144.108;0.2349932;-0.2453754;0;
-600.5333;0;0;-625.202;-0.2303726;-3.699616;-667.3011;-671.1982;0.1048224;0.4695119;0;
-450.0677;0;0;-519.0643;0.1046515;5.078744;-523.8273;-526.6586;-0.02521759;0.07923606;0;
-166.8201;0;0;-258.361;-2.239978;6.882058;-244.7535;-249.5809;0.2346771;-0.05077825;0;
-202.0097;0;0;-286.8994;-1.701864;13.90823;-277.5535;-285.8118;0.4943107;-0.1806619;0;
194.4316;0;0;79.76719;-0.3609835;17.10931;112.7793;104.7792;-0.3507614;-0.0505457;0;
737.5256;0;0;608.0464;-10.87682;12.9393;648.1469;640.0298;-0.6752457;0.1444071;0;
536.5103;0;0;447.6408;-12.87465;13.79708;451.5316;440.6741;0.3649102;-0.245542;0;
231.6241;0;0;165.9574;-3.685658;3.066189;151.4785;143.1931;0.2995763;-0.37523;0;
282.7406;0;0;216.3277;-2.341808;-0.3528993;202.9254;198.9586;-0.09052882;0.0149511;0;
-66.5556;0;0;-104.6659;4.023558;-4.438382;-137.7324;-144.1939;0.4293009;0.4697075;0;
-597.9716;0;0;-624.0496;7.368418;-9.457642;-662.7051;-670.4719;0.3639022;0.4042682;0;
-453.568;0;0;-520.5992;8.231669;0.1302986;-525.5453;-530.868;-0.1562022;0.3388946;0;
-161.3214;0;0;-249.7121;10.90272;1.13479;-236.2249;-244.2284;-0.02611058;0.4035214;0;
-201.8889;0;0;-283.569;6.06899;-1.478563;-273.5312;-285.6496;-0.156019;0.2082139;0;
181.6213;0;0;73.91139;5.124887;-0.2713845;103.4918;92.38507;-0.2857969;0.0131027;0;
738.2839;0;0;616.4394;6.392535;0.06380282;654.0485;643.765;0.1042943;-0.1168452;0;
531.0209;0;0;449.1537;5.984946;0.733446;452.6797;441.0323;-0.0257452;0.1431416;0;
214.2088;0;0;153.3509;2.495332;0.5988652;139.4446;130.495;-0.155654;0.2079651;0;
284.5831;0;0;217.5395;1.421098;-0.07156587;208.3947;203.2023;-0.09053028;-0.05211321;0;
-61.34161;0;0;-101.144;2.692467;1.937872;-131.269;-137.2684;-0.1554067;0.07787386;0;
-597.0107;0;0;-624.4044;2.08655;1.868942;-661.6205;-668.4884;0.2995209;0.2077303;0;
-452.3582;0;0;-519.0795;7.845229;-2.687653;-521.963;-527.5122;0.3641873;0.2075216;0;
-175.9174;0;0;-261.5622;9.9808;-3.823663;-248.3258;-255.806;-0.02598271;0.207313;0;
-209.2238;0;0;-292.9709;6.889312;-7.972641;-281.1222;-291.4684;0.03901074;-0.05276465;0;
193.7215;0;0;80.76075;6.614946;-10.64382;115.586;105.9374;0.1039389;-0.2476137;0;
738.1906;0;0;613.9116;11.02893;-7.61902;656.2605;646.3717;-0.02610024;-0.1174302;0;
527.3669;0;0;445.3791;12.75916;-8.281194;451.8285;440.0132;-0.2859434;-0.1173122;0;
221.9278;0;0;165.0723;3.435589;-7.268128;150.4633;141.2835;-0.1557214;-0.442031;0;
283.861;0;0;223.6893;0.8201689;-6.122116;211.7187;207.0459;0.1043045;-0.1817175;0;
-65.68613;0;0;-98.74845;7.852919;-9.665937;-131.8214;-137.614;0.03923231;0.1433018;0;
-597.0405;0;0;-616.0142;9.452619;-9.991139;-657.2997;-664.211;-0.1557091;-0.0517442;0;
-451.8883;0;0;-512.7593;3.146481;-7.569837;-515.96;-520.1157;-0.4803894;-0.3115616;0;
-168.389;0;0;-250.4382;2.741178;-7.562231;-234.4578;-240.6708;-0.2200373;-0.1813138;0;
-209.3241;0;0;-285.6062;3.943872;-5.21023;-275.6389;-286.2184;0.04005314;0.4035744;0;
185.6253;0;0;76.49889;0.9257991;-4.200373;109.8194;100.4375;-0.3497912;0.2732342;0;
745.4073;0;0;618.462;15.19211;-6.607416;662.3688;653.8708;-0.5443417;0.01309033;0;
538.9492;0;0;452.6112;16.91816;-6.600776;460.8042;449.941;-0.1539907;-0.1168575;0;
228.0637;0;0;161.8024;8.796834;-9.876185;152.8083;143.2053;-0.08886863;-0.3766095;0;
294.8633;0;0;224.1084;9.323858;-12.34463;219.1213;211.527;-0.1537467;-0.1163617;0;
-61.56645;0;0;-98.89207;-12.92336;-7.308629;-129.7986;-138.1349;0.1712445;-0.05127742;0;
-603.6071;0;0;-622.4045;-21.61791;-7.569217;-665.0865;-672.9147;0.3659745;-0.1161932;0;
-455.887;0;0;-509.9603;-13.49186;-10.57572;-520.678;-526.7492;0.04077003;0.3386949;0;
-175.882;0;0;-244.4561;-16.62613;-10.49811;-240.9202;-247.6724;-0.2191403;0.403322;0;
-210.6252;0;0;-277.0065;-15.67142;-15.77909;-274.2237;-283.2805;-0.08898542;0.01311263;0;
195.32;0;0;90.83708;-13.84702;-16.43307;121.6655;111.8681;-0.1538634;-0.1818026;0;
742.2862;0;0;618.668;-17.98629;-18.09113;659.4603;649.7353;-0.2836434;0.1432168;0;
532.3955;0;0;449.3186;-17.29863;-19.7474;453.7758;442.9985;-0.0884564;0.01313823;0;
228.1382;0;0;168.0083;-5.693324;-9.814329;154.7823;144.7031;-0.1533349;-0.4416464;0;
282.3816;0;0;218.9388;-0.8648322;-7.929068;209.2244;200.8419;-0.2181481;0.0135688;0;
-74.22305;0;0;-108.1169;-1.734619;-7.050323;-140.81;-150.0586;0.1069078;0.3383919;0;
-601.2585;0;0;-619.3762;0.5442993;-5.703579;-660.7821;-670.0214;0.1717677;0.4030192;0;
-455.6023;0;0;-511.5577;4.362145;-6.501644;-518.8766;-525.7953;-0.218209;0.5975162;0;
-174.9728;0;0;-252.7985;5.764282;-5.758298;-240.6199;-248.4061;-0.08805501;0.2071118;0;
-211.0913;0;0;-288.9637;4.887834;-13.32146;-275.6728;-285.95;0.2368702;0.01200169;0;
182.5481;0;0;75.45611;5.68623;-15.04951;110.91;101.6426;0.4965015;0.1419243;0;
739.8969;0;0;621.6057;-2.089016;-18.45052;662.1464;652.9508;0.366068;-0.2480223;0;
534.3814;0;0;456.3764;-4.699861;-21.24514;460.3947;448.3972;-0.2190059;-0.3127405;0;
216.5664;0;0;156.1935;-2.015821;-15.26243;143.4661;132.9175;-0.1538185;0.01241049;0;
285.564;0;0;217.4431;-3.352967;-15.04615;210.7256;203.6234;-0.0237293;-0.182504;0;
-60.79895;0;0;-99.42867;1.003683;-11.21313;-127.6912;-135.8482;-0.1536401;-0.05238596;0;
-601.9658;0;0;-624.6897;2.610265;-9.460303;-661.8568;-669.4434;0.04141627;0.4674054;0;
-451.7487;0;0;-512.9928;1.603264;-8.915055;-515.0152;-519.2834;-0.02359269;0.1420991;0;
-169.9362;0;0;-247.9229;3.276592;-7.097558;-234.2636;-240.2142;0.04139836;-0.5726845;0;
-213.7433;0;0;-285.7171;3.540744;-13.18575;-276.3195;-285.325;-0.08857793;-0.6370764;0;
186.4579;0;0;85.44605;5.278498;-14.71299;117.0731;108.4514;-0.08848892;-0.1816649;0;
734.495;0;0;621.0909;6.344922;-13.6266;659.6827;649.9452;0.301404;0.01341971;0;
522.9254;0;0;449.9276;7.946136;-14.68451;452.1238;440.5221;0.1711665;-0.05156113;0;
224.7371;0;0;167.8046;9.880535;-14.93769;153.5069;144.478;-0.2837769;-0.1164767;0;
289.0414;0;0;220.7343;10.54117;-15.05665;214.8842;208.5506;-0.2185244;-0.2462943;0;
-73.31706;0;0;-115.3187;16.5588;-16.18023;-141.3403;-148.0423;0.1065319;-0.1161122;0;
-603.1646;0;0;-629.1945;17.68026;-16.69983;-665.872;-671.0681;0.04145751;0.2738086;0;
-452.6338;0;0;-513.6201;17.39505;-12.2623;-519.0889;-522.2183;0.04141585;-0.1162706;0;
-180.0033;0;0;-254.8588;17.1765;-11.04429;-248.4531;-253.3909;0.1713089;0.07874826;0;
-212.6809;0;0;-279.2153;12.93968;-11.3681;-278.3133;-284.8079;0.1061694;0.4684732;0;
193.3288;0;0;95.93929;11.38546;-9.816073;121.9528;116.5891;-0.02387192;-0.376573;0;
739.7972;0;0;628.2628;5.078359;-11.88268;661.6215;656.0133;-0.3486846;-0.2462599;0;
530.0964;0;0;461.2776;3.465666;-10.99996;456.6843;448.8954;-0.2183996;0.07882424;0;
224.9669;0;0;174.8953;-3.838834;-11.05589;152.4406;146.6586;0.3665259;-0.5709284;0;
289.5833;0;0;231.8159;-7.854441;-10.30797;213.5692;211.2287;-0.08861375;-0.1155833;0;
-63.53038;0;0;-96.00237;5.818458;-9.493819;-132.2217;-135.8717;-0.2184594;0.2743369;0;
-601.3212;0;0;-621.2668;7.687645;-10.89092;-662.8221;-667.2805;0.4314335;0.01419185;0;
-458.1636;0;0;-514.1336;13.23963;1.377532;-523.6008;-526.2431;0.1711307;-0.2456918;0;
-178.0938;0;0;-252.998;18.11547;4.122448;-246.5261;-250.9774;-0.02394332;-0.4403469;0;
-213.3346;0;0;-283.8531;9.523449;-1.843053;-281.1984;-289.0185;-0.1538539;-0.1800351;0;
188.1781;0;0;88.61997;8.37578;-0.702491;112.9487;106.1359;-0.4135687;0.01504783;0;
736.9006;0;0;621.513;12.92171;-12.49054;655.375;648.7565;0.04161823;-0.309804;0;
526.7654;0;0;451.4737;12.50757;-16.16193;450.2567;442.5829;0.3664131;-0.4394274;0;
227.3863;0;0;170.7859;8.208091;-13.39951;152.7661;148.0361;-0.0237591;-0.04918182;0;
289.3141;0;0;227.3983;7.86505;-15.26144;213.6445;212.105;-0.08870257;0.210737;0;
-74.91866;0;0;-104.3511;0.5561299;-11.76312;-142.5163;-144.8663;0.2362233;-0.2442462;0;
-607.2008;0;0;-622.2359;-1.722581;-11.55035;-668.2963;-671.5809;0.1710186;-0.3089681;0;
-454.4172;0;0;-511.3536;2.298614;-6.314198;-520.5112;-522.793;0.2358141;0.1461138;0;
-178.2866;0;0;-257.1548;1.224578;-3.628658;-248.687;-252.7157;0.1706098;0.2759016;0;
-214.4017;0;0;-290.3795;10.3994;-5.366446;-284.2317;-292.1293;-0.3493004;0.1456897;0;
191.6722;0;0;88.47193;12.33133;-3.485654;116.1029;109.3375;-0.6737861;-0.04935871;0;
733.707;0;0;621.3027;14.19495;-7.701954;653.3411;648.1443;-0.3482724;0.1455929;0;
518.8275;0;0;448.6399;16.92638;-8.631976;444.4767;437.0363;-0.02308573;0.08047929;0;
218.082;0;0;167.705;6.728942;-5.877003;146.3673;140.6834;0.1068721;-0.1145036;0;
280.4564;0;0;224.258;5.382034;-6.13903;206.3775;203.9477;0.3666341;0.2104482;0;
-77.77045;0;0;-108.2378;-2.593977;-4.860185;-145.6531;-149.3298;0.1713637;0.1452694;0;
-610.5494;0;0;-628.8673;-8.619591;-4.118489;-673.4913;-677.2892;0.1711915;-0.4395827;0;
-453.0149;0;0;-510.1697;1.302056;-3.980385;-522.2028;-524.4352;0.3009542;-0.3741737;0;
-171.9507;0;0;-246.5394;-0.1731204;-2.837798;-243.5054;-248.1718;-0.2190869;0.01600638;0;
-216.6929;0;0;-284.3975;1.635715;-3.571759;-285.8018;-292.4626;-0.02396478;-0.1139444;0;
187.3219;0;0;85.95224;4.514459;-3.166272;111.3483;107.6303;0.1709613;0.01610479;0;
732.3596;0;0;612.5386;-10.69532;-1.019637;650.3405;647.1884;-0.3489492;0.4058926;0;
516.4819;0;0;438.198;-13.09548;-0.9516293;440.2298;434.5197;-0.2836312;0.1456154;0;
219.0497;0;0;162.3336;-7.857404;2.800249;145.8727;143.1043;-0.0884442;-0.1144003;0;
276.0508;0;0;215.7686;-8.720165;3.802179;202.5725;202.8055;0.3664161;0.2105514;0;
-88.10617;0;0;-120.5918;0.5319976;0.04743673;-154.5766;-157.9046;0.7558519;-0.1144969;0;
-610.2551;0;0;-632.963;4.34888;-0.9573549;-673.5353;-678.0469;0.4952231;-0.5691532;0;
-454.6573;0;0;-517.4473;1.531471;-1.693205;-522.9964;-525.5045;-0.08998059;-0.2437446;0;
-180.7755;0;0;-260.5562;3.874457;-2.361333;-249.1708;-254.175;-0.4147269;-0.04859767;0;
-219.012;0;0;-292.2158;2.464044;-7.315576;-285.3396;-292.5252;-0.08947346;0.01641851;0;
184.2555;0;0;84.8884;0.920351;-8.714745;111.2479;107.7551;0.04055113;0.211304;0;
728.2343;0;0;623.095;10.16283;-6.830588;650.615;648.1252;-0.219359;-0.04877766;0;
517.3582;0;0;456.9896;11.62648;-6.220878;446.1887;440.453;0.1706655;-0.113696;0;
220.5498;0;0;176.6711;1.768188;-4.473071;152.0754;148.7194;0.3004287;0.211255;0;
277.1746;0;0;225.469;-0.7118348;-3.12904;207.0824;207.9151;-0.02470991;0.1460754;0;
-91.10641;0;0;-114.212;-3.323088;2.634515;-152.8199;-152.9875;0.3001516;-0.1789081;0;
-622.1229;0;0;-630.0254;-6.066415;4.775321;-676.2781;-678.0698;0.4297847;-0.2436957;0;
-466.4507;0;0;-512.7634;-9.542944;8.588428;-525.549;-526.9641;0.1045162;0.1463532;0;
-186.6849;0;0;-252.8161;-11.87788;11.05817;-248.5349;-251.8851;0.0394438;0.2761408;0;
-226.4148;0;0;-288.9188;-9.856213;8.16679;-287.5155;-292.7363;0.1043715;-0.3738101;0;
176.4229;0;0;81.31055;-9.578866;9.431259;106.1382;102.9841;0.1042666;-0.8282058;0;
728.593;0;0;619.2084;-7.157367;1.451058;651.0076;647.4194;0.1691292;-0.3076349;0;
517.8414;0;0;450.9205;-4.538207;-0.9617859;445.519;439.498;0.2339266;-0.04745644;0;
212.4118;0;0;166.4227;-6.408681;1.785359;142.286;138.7074;0.1687242;0.0175586;0;
275.3542;0;0;226.1629;-6.53694;-0.8286475;205.1114;203.4729;0.233522;0.0825083;0;
-85.36633;0;0;-107.3968;3.248893;10.35809;-147.9799;-151.8031;0.3632221;0.1473927;0;
-620.2617;0;0;-630.2136;4.987916;13.16084;-678.1896;-681.1344;0.1679551;0.0822773;0;
-463.4044;0;0;-509.9529;4.848207;6.583415;-525.7094;-525.7777;0.03785163;-0.1127074;0;
-187.3898;0;0;-253.4442;6.853067;7.581543;-252.3808;-254.8853;0.297683;-0.3074962;0;
-228.3059;0;0;-292.8571;-4.808117;2.818259;-292.4195;-297.8575;-0.09242021;-0.2422199;0;
186.2153;0;0;91.30669;-6.813017;2.145598;116.419;112.1109;-0.4821314;-0.04707447;0;
730.442;0;0;624.1346;-12.03109;0.6699399;655.1561;650.3526;0.03809179;0.1478749;0;
509.5063;0;0;445.7843;-16.97549;-1.206255;439.4809;431.8087;0.2979229;0.1477263;0;
212.7682;0;0;169.7249;-2.155326;7.703443;146.3739;140.5835;-0.02721318;-0.1772589;0;
266.4023;0;0;217.8426;0.4588084;9.70519;197.6385;195.1022;-0.2220879;-0.3719828;0;
-99.11923;0;0;-122.4554;-2.689484;9.159575;-163.9409;-167.5367;-0.5467014;-0.761413;0;
-611.0123;0;0;-624.6423;0.05988428;10.55701;-671.0212;-674.8007;-0.09138069;-0.5657459;0;
-450.2913;0;0;-504.7621;-3.557498;10.74735;-515.05;-516.7643;0.4284499;0.08449592;0;
-185.2843;0;0;-258.3785;-3.822343;11.07147;-251.5397;-255.751;-0.1566867;0.3442804;0;
-224.9531;0;0;-294.8505;1.473759;10.32353;-288.8306;-295.9112;0.03837274;0.2789671;0;
185.2543;0;0;85.56723;2.141863;10.31316;114.507;109.6199;0.6880076;-0.1111173;0;
726.9208;0;0;617.1515;2.00599;3.269711;650.56;646.3025;0.1675775;-0.175973;0;
508.2999;0;0;439.6828;2.338767;-0.6184625;436.576;431.0734;0.03747449;0.4738773;0;
201.3182;0;0;151.0109;0.2593355;7.084952;131.1656;128.0424;-0.02753051;0.2135318;0;
262.6475;0;0;205.0194;-0.1420906;7.680679;191.0037;190.1949;-0.6122089;-0.7611929;0;
-88.50251;0;0;-117.6495;-3.223407;0.9079298;-152.828;-154.7604;-0.2217897;-0.6304933;0;
-620.2088;0;0;-632.9597;-5.497344;0.371154;-678.1603;-679.2162;0.3631392;0.08478091;0;
-465.3506;0;0;-515.7573;-2.611432;-0.9018946;-526.6797;-525.673;0.102905;0.2795978;0;
-182.2751;0;0;-248.5606;-3.948954;-1.771767;-243.9798;-244.0986;-0.02713312;0.1493821;0;
-225.8199;0;0;-286.6666;-4.078708;1.913953;-285.4637;-287.269;0.1028288;0.01929734;0;
180.0156;0;0;87.18369;-4.476752;1.979013;111.8111;110.5698;0.03775816;0.08424529;0;
725.9977;0;0;620.0157;-10.23205;6.665708;649.2411;647.1265;-0.02724712;0.0191933;0;
511.1258;0;0;444.7305;-11.82936;9.271344;438.257;432.7086;0.1676823;0.214076;0;
219.2587;0;0;172.6702;-15.4348;0.9563887;149.524;145.4805;0.4923505;0.4737303;0;
274.6979;0;0;226.2821;-17.96489;-1.522941;204.2212;204.1173;0.2319864;0.408287;0;
-96.64161;0;0;-113.2747;-13.79365;3.837102;-159.114;-159.78;-0.09308339;0.277942;0;
-615.721;0;0;-616.5328;-13.17658;2.359622;-671.384;-672.0494;0.03694483;-0.1771087;0;
-453.9958;0;0;-491.6008;-15.64256;1.486473;-514.3505;-512.329;-0.2229617;-0.241898;0;
-187.5484;0;0;-242.8566;-15.76056;1.551962;-251.0908;-249.571;-0.4176396;-0.1766876;0;
-227.4648;0;0;-283.2172;-9.983951;-10.57314;-290.2562;-291.549;-0.222318;-0.2414774;0;
189.117;0;0;98.43818;-7.160879;-14.31344;119.2048;118.4754;-0.1571273;0.3434713;0;
731.0295;0;0;630.6967;-12.3786;-11.55288;655.378;655.7737;-0.02703469;0.1482241;0;
508.6564;0;0;451.84;-12.16509;-12.94791;438.5156;437.3493;-0.2868769;-0.1767615;0;
207.6088;0;0;168.0909;-7.129022;-10.92542;139.6;140.0591;-0.6114253;-0.04664923;0;
266.9953;0;0;221.8949;-5.514268;-10.37857;197.618;201.3874;-0.4808763;-0.1115697;0;
-93.27954;0;0;-108.0373;-5.375006;-5.41153;-154.841;-151.7;-0.4803931;0.0184771;0;
-620.2334;0;0;-620.796;-4.164156;-1.923102;-675.3611;-672.7231;-0.1550737;0.01845854;0;
-456.3797;0;0;-498.4834;-0.8100936;-5.270195;-517.0118;-513.0021;0.1699188;0.408244;0;
-176.1868;0;0;-236.7388;1.802689;-3.858257;-241.1932;-238.6868;0.0398134;0.6677032;0;
-226.8592;0;0;-280.2289;-2.687101;-2.112946;-291.2381;-289.6712;-0.02519394;0.01735887;0;
180.1643;0;0;90.42895;-4.023571;-2.177806;108.9161;113.7922;-0.4149727;-0.1775606;0;
725.709;0;0;618.1978;4.955452;5.058417;649.4724;655.0932;-0.4145557;-0.04744751;0;
504.0908;0;0;443.1018;6.0222;7.598564;435.552;438.0437;0.1705669;-0.3722365;0;
211.606;0;0;169.7937;4.207488;0.08908416;145.6973;148.9362;0.3003302;-0.1769605;0;
268.4272;0;0;213.7259;4.806472;-1.518596;198.8366;203.9463;0.1051264;0.3429561;0;
-103.2808;0;0;-132.6898;-2.834168;2.233852;-166.9919;-163.6989;0.1699881;0.08274209;0;
-617.1061;0;0;-635.4287;-5.577986;2.164625;-676.318;-673.2782;0.1698173;-0.8918512;0;
-454.6299;0;0;-511.4772;-6.50941;-1.789421;-518.5923;-513.5566;0.039712;-0.696053;0;
-194.1788;0;0;-263.0879;-9.584329;-2.591418;-258.3893;-255.1078;0.2345741;0.08425449;0;
-231.7147;0;0;-294.4326;-7.163801;-4.665164;-293.9867;-292.7074;0.4942078;-0.1107322;0;
188.3071;0;0;91.8567;-7.959909;-6.469015;117.7269;120.0044;-0.3508642;0.01931375;0;
729.1584;0;0;616.1883;-10.96602;-0.0992583;652.0275;653.5531;-0.8702504;0.4090984;0;
513.1589;0;0;440.0948;-11.82566;1.441327;441.1031;441.0029;-0.2197026;0.01888328;0;
216.7921;0;0;166.7898;-11.7474;-1.77518;147.6821;149.6435;-0.1545145;-0.3059724;0;
274.67;0;0;216.7845;-11.19974;-0.9696012;203.1308;206.0897;-0.3492613;-0.0457956;0;
-89.54804;0;0;-122.8252;-15.27432;-1.638456;-154.7061;-154.5612;-0.08904094;-0.2406516;0;
-625.8759;0;0;-639.692;-15.92856;-1.703793;-683.035;-683.5774;-0.2188862;-0.2404098;0;
-466.6393;0;0;-513.2374;-11.82672;-1.166217;-526.7394;-524.3453;-0.2836336;0.3445379;0;
-181.376;0;0;-244.4191;-10.7431;-2.504704;-242.9775;-241.023;0.1714228;0.2792243;0;
-227.483;0;0;-288.4637;-7.784573;2.923308;-286.8987;-288.0696;0.04131591;0.08404172;0;
182.4146;0;0;87.69968;-5.433202;3.389251;115.9998;116.3917;-0.1536276;0.2788593;0;
733.3918;0;0;628.777;-7.436499;-0.2980937;660.7968;662.2503;0.1063961;-0.04625762;0;
510.579;0;0;450.9218;-8.099588;-0.1638283;442.1174;441.2581;0.2362239;0.01875621;0;
213.9023;0;0;174.2951;-0.0534977;-7.933562;147.4461;148.8365;0.3009539;0.1486721;0;
273.2824;0;0;227.5306;1.420425;-9.667025;205.6436;209.344;0.1057494;-0.3062488;0;
-104.9272;0;0;-120.8355;-5.614577;-12.20266;-165.689;-164.616;0.04067583;-0.305941;0;
-622.5615;0;0;-625.5229;-7.015455;-15.20451;-677.9525;-677.6926;0.3654717;-0.4355683;0;
-448.0233;0;0;-493.7728;-11.29531;-1.859996;-508.9808;-507.5344;-0.02469961;-0.3701633;0;
-186.6418;0;0;-249.0244;-13.56114;2.22771;-249.8494;-249.5288;-0.2195768;-0.2398567;0;
-226.6216;0;0;-282.2574;-15.55627;-3.668782;-288.2664;-288.8207;0.3003826;-0.499485;0;
195.5815;0;0;107.5805;-16.54599;-2.325559;126.315;128.0101;0.170146;-0.1741464;0;
726.8054;0;0;629.0227;-17.2663;2.700375;652.2986;654.9291;-0.1548616;-0.04403676;0;
505.311;0;0;453.9159;-17.91854;4.439218;437.5633;438.442;-0.3496081;-0.4987639;0;
217.2603;0;0;185.1571;-11.20273;4.769672;152.829;155.456;-0.2193221;-0.5632301;0;
273.3887;0;0;232.2598;-10.8557;5.568675;207.273;213.0208;0.1707024;-0.1728601;0;
-98.01197;0;0;-114.7368;-1.132879;4.424369;-157.1272;-153.1968;-0.0243712;-0.04275173;0;
-626.3354;0;0;-631.4867;3.155167;4.419924;-679.644;-676.3423;-0.1542814;-0.4325128;0;
-458.54;0;0;-501.917;-9.641376;2.272029;-517.8546;-511.6202;-0.1541264;-0.1722089;0;
-175.9086;0;0;-235.2339;-10.63704;1.599917;-237.2876;-231.7466;-0.2189388;0.02286621;0;
-228.0806;0;0;-277.6012;-15.24806;1.531326;-285.3374;-282.3007;-0.02381683;-0.1720588;0;
177.8822;0;0;99.92565;-17.77735;0.7261142;114.4985;118.0319;0.1711091;0.4128202;0;
729.4261;0;0;636.4305;-18.22898;6.217863;660.359;662.2022;-0.1538995;0.4124054;0;
510.178;0;0;456.6311;-19.81825;8.42193;445.6156;443.8338;-0.2836795;-0.1077478;0;
217;0;0;177.4374;-13.90384;4.930477;151.4405;151.7844;-0.08849249;0.08726254;0;
278.0012;0;0;228.4833;-12.81815;5.394403;209.1342;213.1634;0.04153111;-0.1726945;0;
-96.65249;0;0;-117.5724;-9.456364;7.532315;-157.954;-155.4281;0.3013587;-0.4323904;0;
-615.8569;0;0;-622.9502;-9.245791;7.39078;-670.9124;-669.2635;0.4309906;-0.2370539;0;
-448.6967;0;0;-491.3901;-0.4616147;10.53155;-507.5075;-504.4861;-0.02421383;-0.106881;0;
-184.0037;0;0;-241.2093;3.557337;10.7889;-244.1297;-242.8604;-0.0241895;0.2180631;0;
-220.5504;0;0;-275.4496;-12.25372;8.634607;-278.7419;-279.5978;0.1707368;0.02294198;0;
198.0235;0;0;108.8216;-13.04472;8.491965;132.3317;133.4132;-0.4141408;-0.3668851;0;
731.4313;0;0;629.4506;-24.08367;2.254142;659.1214;661.4512;-0.8684961;-0.2365818;0;
512.1187;0;0;452.9065;-30.28876;0.2425109;444.879;445.2698;-0.3478847;-0.3013114;0;
226.7473;0;0;185.7105;-13.17805;0.1752842;161.6991;163.214;0.1722036;-0.2360413;0;
281.1795;0;0;234.2494;-11.49084;-1.030585;213.2606;217.5226;0.04209591;-0.3007715;0;
-100.8487;0;0;-117.6217;-10.87608;0.3101095;-163.2645;-160.1312;0.301923;-0.3004693;0;
-622.5475;0;0;-625.9979;-9.458634;-0.09209967;-677.8417;-674.7116;0.6914237;-0.1052653;0;
-448.884;0;0;-491.7486;-1.947042;4.931591;-507.7458;-502.4949;0.3009249;0.1547098;0;
-177.3817;0;0;-239.8184;2.877685;6.40026;-238.9955;-235.8737;0.1057205;0.4144237;0;
-221.9934;0;0;-281.4938;-11.25873;6.326846;-281.3589;-280.3018;-0.02432044;0.2191053;0;
193.3335;0;0;105.5946;-12.51924;7.860974;127.6559;129.7739;-0.4141001;0.2838525;0;
734.6795;0;0;638.4081;-12.44028;3.834222;662.5087;663.4377;-0.4786513;0.1536326;0;
509.7415;0;0;456.8576;-13.90165;3.763386;442.016;441.2574;-0.3482357;-0.1713585;0;
213.0657;0;0;178.8505;-8.394351;0.2096311;147.907;149.5854;-0.1529837;-0.1711863;0;
267.5116;0;0;229.8951;-6.845675;-1.934033;201.2939;205.7193;0.042072;-0.1710143;0;
-102.9461;0;0;-108.6034;-4.62897;4.163235;-161.9134;-158.3045;0.1069971;0.02405955;0;
-613.2736;0;0;-607.4935;-3.752686;4.962847;-666.2471;-663.6414;0.1718569;-0.235834;0;
-444.6793;0;0;-480.3217;7.102076;5.158809;-502.5346;-498.9944;0.1067169;-0.3005644;0;
-180.2402;0;0;-232.7757;10.97971;6.694111;-239.6615;-237.9365;0.171577;0.2844437;0;
-215.4788;0;0;-261.8396;4.538311;3.405343;-273.2787;-274.1166;0.2363719;0.3491252;0;
199.0295;0;0;123.0427;5.135988;2.263211;133.6665;135.3906;0.0412324;0.02393774;0;
723.3783;0;0;634.0371;-1.901771;7.887382;653.3959;655.6804;-0.02377638;-0.106021;0;
498.764;0;0;450.5544;-4.445456;8.616268;435.7234;435.3195;0.04121486;-0.04094714;0;
208.0337;0;0;181.7366;-7.455099;4.387808;147.7426;149.588;-0.1537286;0.153996;0;
265.4832;0;0;235.0896;-10.93023;3.71357;203.3786;206.2217;-0.2835088;0.08887396;0;
-100.912;0;0;-103.4766;-3.21609;0.09288205;-156.0826;-155.8661;0.1065801;0.02381732;0;
-621.5489;0;0;-615.1154;-1.873688;-2.117648;-671.6666;-670.0135;0.04150569;0.2186954;0;
-451.3846;0;0;-489.5601;-4.015259;-0.03904932;-506.8242;-503.2987;-0.4782747;0.08854099;0;
-175.382;0;0;-232.0724;-2.872149;-0.4409077;-232.8899;-231.9292;-0.4128268;-0.04148268;0;
-218.6215;0;0;-269.8201;-4.008338;-3.320731;-275.8217;-276.8609;-0.08757532;0.2833957;0;
197.0769;0;0;116.1946;-6.281487;-4.723914;132.5004;133.4612;0.1074147;-0.04172575;0;
732.797;0;0;642.126;8.05844;-1.102211;665.2869;666.6215;0.1722741;-0.4314879;0;
502.9883;0;0;455.4493;13.14153;-0.7661885;442.1052;441.2521;0.1071337;-0.171185;0;
208.5057;0;0;179.9424;-8.507279;-0.430504;149.308;150.5172;-0.02290866;-0.04107826;0;
266.5793;0;0;231.9853;-11.37912;1.579295;206.0043;210.2733;-0.08785298;0.02393037;0;
-108.3127;0;0;-115.011;-10.22861;-5.455256;-161.518;-158.5027;0.04216998;-0.2359631;0;
-625.0066;0;0;-620.6412;-13.29979;-6.052621;-672.8486;-670.2736;0.1070949;-0.3006933;0;
-445.531;0;0;-481.9619;-2.836602;-2.027685;-500.0715;-495.75;-0.2178494;0.02444556;0;
-174.4069;0;0;-229.4793;-0.2217833;-1.556768;-232.3284;-229.8853;-0.2825978;0.219323;0;
-217.6473;0;0;-269.1662;-0.8247729;3.937275;-272.5746;-273.0075;-0.2173465;0.02420062;0;
195.114;0;0;111.663;1.654302;5.741858;133.3079;134.1873;-0.4120302;-0.1707257;0;
721.8406;0;0;624.8552;3.863443;10.49175;652.4754;654.0411;-0.08677944;0.02434785;0;
498.7271;0;0;444.3178;5.467151;13.83024;434.554;433.307;0.1082098;0.02432338;0;
211.3702;0;0;176.1934;7.537763;8.189897;150.2601;150.0138;-0.08680097;-0.1706031;0;
265.9427;0;0;225.429;8.802986;7.980718;203.8321;206.7095;0.1731556;0.08943771;0;
-106.0751;0;0;-114.939;5.646309;6.432092;-160.3773;-158.3773;0.627753;0.2192825;0;
-621.5219;0;0;-616.4464;5.305843;3.612468;-669.2103;-667.0249;0.757057;-0.2357092;0;
-451.2951;0;0;-485.33;2.754916;7.426743;-503.4333;-499.501;0.1715902;-0.365407;0;
-188.0363;0;0;-238.0914;0.9434872;5.945778;-243.6203;-241.9408;-0.348321;0.2846335;0;
-233.0121;0;0;-276.0829;1.746822;1.920828;-287.9156;-288.2368;0.1717677;0.08944551;0;
193.008;0;0;119.0585;-0.5994575;-0.2244342;130.1637;131.8418;0.2365625;-0.1705137;0;
735.6037;0;0;645.6116;4.49136;-4.979875;666.7006;668.2521;0.04142277;0.3493963;0;
512.9761;0;0;462.742;4.956337;-7.118325;451.7634;450.8146;0.3662179;0.1541432;0;
227.6663;0;0;197.5976;2.941625;-12.8046;170.0758;171.127;0.04101317;-0.2358157;0;
283.4719;0;0;250.8721;6.354921;-15.33696;224.3776;227.9264;-0.2188974;-0.3655134;0;
-100.8074;0;0;-100.8283;-10.59802;-14.71871;-151.4716;-150.1127;0.1711266;-0.1052768;0;
-626.7542;0;0;-615.1559;-13.73521;-16.44547;-671.308;-670.013;0.4957913;0.08973101;0;
-452.9615;0;0;-483.7285;-1.866037;-6.984599;-502.8428;-499.0504;0.3653585;-0.04029385;0;
-178.5815;0;0;-225.1847;-2.601096;-2.958727;-230.849;-228.6221;-0.2197147;0.1546487;0;
-223.442;0;0;-266.9373;14.61552;-10.72553;-276.1567;-276.9305;-0.4793633;0.284428;0;
195.7594;0;0;116.8256;19.69203;-10.71475;133.8524;132.6421;-0.1540449;-0.1056619;0;
738.9146;0;0;647.4415;16.05492;-4.876594;669.2612;667.9272;-0.3487922;-0.1705231;0;
508.4751;0;0;461.8839;18.58438;-4.201864;444.2015;441.9943;-0.218507;0.154485;0;
216.923;0;0;189.0567;6.910432;-2.456208;156.7744;156.6308;0.04158192;0.02439509;0;
276.0502;0;0;240.5907;3.889379;-0.8461494;215.2124;217.6927;-0.08839455;0.08933792;0;
-106.535;0;0;-111.4117;-4.085132;-6.940624;-159.5031;-158.0873;0.1065963;-0.1056539;0;
-618.9203;0;0;-609.6118;-9.841804;-7.268565;-665.4634;-664.2365;-0.08841284;-0.3654171;0;
-442.8866;0;0;-471.9431;-5.210214;-10.27537;-493.9431;-491.0307;-0.478128;0.4795255;0;
-181.1355;0;0;-228.0288;-5.874564;-12.74341;-235.389;-234.8534;-0.08784357;0.6089784;0;
-210.5011;0;0;-257.4098;-9.150215;-4.290883;-264.8876;-267.4134;0.2370814;-0.1712416;0;
214.9342;0;0;136.401;-10.48117;-3.951657;154.6678;154.2685;-0.08799352;-0.1710696;0;
729.3345;0;0;641.0103;4.265121;-0.8665931;664.8809;664.9192;0.04202957;0.02400437;0;
496.7807;0;0;451.3362;9.418399;1.545541;437.5143;435.4286;0.171922;0.2838496;0;
220.9824;0;0;193.512;1.974196;-7.431481;162.8375;163.3776;-0.1530874;0.4784664;0;
273.234;0;0;239.1696;2.910218;-9.098465;213.211;215.8745;0.04196842;0.1531489;0;
-114.7831;0;0;-118.5161;2.974642;-9.223289;-166.9998;-166.2754;0.4317303;-0.236809;0;
-625.4736;0;0;-615.2723;1.765229;-11.62541;-671.4533;-670.7297;0.6911659;-0.236571;0;
-442.3118;0;0;-471.1637;3.773187;-8.800442;-493.1179;-490.521;0.5605367;-0.171366;0;
-172.7527;0;0;-218.6294;4.773773;-8.322841;-226.3188;-225.5985;-0.08969996;-0.3011285;0;
-218.8683;0;0;-260.8884;-7.086392;-13.40506;-271.3187;-274.3472;-0.2195445;-0.3008259;0;
193.457;0;0;117.2463;-11.03139;-13.52556;133.7505;132.7864;0.1055128;0.02431307;0;
726.9318;0;0;633.4315;-0.8388968;-11.77041;661.5382;662.4492;0.1054068;0.1542233;0;
500.5648;0;0;447.9504;-0.1011195;-10.82082;440.9216;439.8951;-0.02463382;-0.105801;0;
208.0836;0;0;175.8244;-0.9716741;-7.460923;151.2489;151.4728;0.1053256;-0.1056947;0;
267.3446;0;0;229.8705;-0.2337635;-5.845836;209.9424;211.8527;0.04025244;-0.4953926;0;
-108.6101;0;0;-118.1232;2.244718;-2.022057;-159.5829;-159.2987;-0.02475535;-0.4299274;0;
-625.6161;0;0;-626.6863;3.916426;-0.8813152;-673.1019;-672.693;0.04023687;0.2851453;0;
-448.2638;0;0;-489.3753;1.836386;2.13368;-500.6994;-498.042;-0.0247709;0.1549241;0;
-185.6951;0;0;-239.384;3.308409;2.801366;-238.8277;-237.0475;-0.2846154;0.08980112;0;
-225.9882;0;0;-270.94;-0.5806575;-1.622201;-275.5691;-276.4769;-0.08942737;0.02474354;0;
203.8354;0;0;134.0663;-0.9148667;-2.692297;148.6822;148.8997;0.04059717;-0.5599874;0;
731.6152;0;0;656.6688;2.167511;-10.99523;670.7078;671.3624;-0.2842803;-0.3645227;0;
501.1206;0;0;467.4788;1.294677;-14.60114;445.8341;444.1142;-0.08909266;-0.2991891;0;
224.5683;0;0;203.7039;14.95741;-15.2563;170.6492;171.1799;0.1708662;-0.4937905;0;
278.8153;0;0;251.9124;20.63581;-16.98252;221.5146;224.7934;-0.08917483;0.09141176;0;
-108.5203;0;0;-103.0375;10.0325;-17.76926;-158.7045;-157.5529;-0.3489546;0.481124;0;
-623.3399;0;0;-609.6792;11.36159;-19.15792;-667.7266;-667.0759;-0.4135713;0.1558038;0;
-447.3642;0;0;-480.6312;9.742581;-7.952887;-496.5788;-494.3671;0.106583;-0.03925477;0;
-177.8625;0;0;-228.0249;7.723061;-3.724971;-228.7767;-228.1914;0.3013779;0.09071936;0;
-219.975;0;0;-261.279;18.43257;-8.276068;-269.089;-271.1904;0.1061731;0.09062821;0;
197.4113;0;0;127.1009;20.02164;-6.39223;141.7251;141.5623;0.1710337;-0.2342996;0;
734.6928;0;0;654.8329;18.92979;-5.916926;674.7521;675.714;0.04092719;-0.03916213;0;
500.3221;0;0;466.0195;20.85316;-5.710032;446.8759;445.0881;-0.08904862;0.2207466;0;
203.0935;0;0;187.3161;10.58442;-4.833517;150.8879;151.6007;-0.0239918;-0.1043119;0;
271.6673;0;0;247.0353;6.018462;-5.833404;216.5782;220.7885;0.105967;-0.1042071;0;
-106.3533;0;0;-102.9122;16.32754;-3.148347;-154.9528;-153.3079;0.4306972;-0.1690697;0;
-635.3555;0;0;-617.675;16.11104;-2.274406;-678.9711;-677.8901;0.3652971;-0.2338672;0;
-452.9959;0;0;-476.1252;8.860208;-8.97017;-500.1284;-498.1115;-0.219776;0.09120451;0;
-182.1141;0;0;-224.4605;7.713205;-9.564003;-229.1369;-229.5582;-0.1545878;0.02614553;0;
-222.7231;0;0;-261.2164;-0.3998459;-12.83656;-267.3873;-269.1826;0.04046952;-0.0388481;0;
206.6599;0;0;136.4713;-4.619003;-15.16794;155.6064;154.3127;-0.2844079;-0.1687437;0;
730.2515;0;0;649.3888;-0.0600103;-6.64611;672.0654;669.8359;-0.08922005;-0.1685742;0;
493.6988;0;0;455.3335;-1.600191;-5.768653;439.1318;434.5308;0.4306083;0.2213992;0;
216.5293;0;0;195.2565;-0.2594129;-2.145901;165.5779;162.1684;0.2352736;0.02627476;0;
267.9108;0;0;241.0372;0.545131;0.9374703;216.3234;215.8534;-0.3496689;-0.2985884;0;
-126.7227;0;0;-123.8342;-2.536876;-5.627677;-171.6991;-172.6059;-0.2843502;-0.233321;0;
-629.9049;0;0;-616.7745;-1.127807;-5.689005;-667.902;-669.1203;-0.3490318;-0.2330866;0;
-444.6772;0;0;-473.289;-7.690757;-7.290879;-486.8841;-486.2895;-0.4786158;0.09198438;0;
-188.6089;0;0;-233.8086;-10.42872;-9.493868;-232.6474;-234.5522;0.04160389;0.09189195;0;
-224.0265;0;0;-264.9954;1.905643;-2.317399;-265.7094;-271.048;0.1065294;-0.03813508;0;
205.1705;0;0;131.6966;3.042804;-0.640497;155.0338;151.8244;-0.2833817;0.1568053;0;
732.3242;0;0;644.9312;4.245195;-6.400264;674.0545;671.4106;-0.1531622;0.2865824;0;
495.2697;0;0;448.5066;6.31801;-5.790986;441.4938;436.5412;-0.2179757;0.5461638;0;
203.9182;0;0;176.1926;-1.927361;-7.660689;152.3203;150.1838;-0.1527893;0.350713;0;
270.3673;0;0;238.859;-3.130873;-8.79158;217.4469;218.436;-0.02270111;-0.1044108;0;
-109.7134;0;0;-108.3316;-8.08422;0.3936717;-154.4597;-155.0334;0.3021584;-0.1692732;0;
-633.9646;0;0;-620.8401;-11.96184;2.402642;-672.7939;-673.4294;0.3668221;-0.1691031;0;
-449.9198;0;0;-482.5355;-4.782524;2.802125;-494.832;-493.9052;-0.08831784;0.1559035;0;
-180.5404;0;0;-232.4261;-3.907062;5.07673;-228.4684;-229.6665;0.1066729;0.2856815;0;
-221.4009;0;0;-266.6128;-10.26615;1.18674;-268.5936;-271.5396;0.5613371;0.0255251;0;
208.2932;0;0;133.2043;-11.19384;1.252531;152.7771;152.0205;0.5607731;-0.2343699;0;
730.5089;0;0;644.3759;-5.690235;0.3135113;668.0521;667.3586;0.2353729;-0.03923241;0;
493.1438;0;0;449.2637;-4.34437;-0.8255136;435.3099;432.9306;-0.1546676;0.3506111;0;
215.7874;0;0;189.1928;-7.153044;1.251787;160.323;159.8201;-0.02457754;0.1553567;0;
266.6699;0;0;234.8546;-8.486003;0.3797509;209.762;210.8213;0.2353165;-0.1696361;0;
-121.8404;0;0;-122.3269;-0.6405955;3.19253;-171.2574;-171.4485;0.04017805;-0.1044983;0;
-626.1519;0;0;-610.0837;1.905644;3.926135;-669.2099;-668.0265;0.1700724;-0.2992953;0;
-444.1139;0;0;-465.0433;-11.62658;-1.570289;-492.0637;-487.5081;0.1049341;-0.0391252;0;
-184.1731;0;0;-222.4478;-14.76273;-3.176301;-233.7613;-232.084;-0.09007333;0.2207835;0;
-223.968;0;0;-256.6445;-11.73379;-2.570263;-270.6953;-273.9546;0.1049192;-0.03930774;0;
204.5418;0;0;139.4769;-14.00015;-3.572303;151.3022;149.2956;-0.09008825;-0.1042356;0;
726.8236;0;0;648.4559;-9.02861;-5.109321;667.1409;665.9483;-0.4148344;-0.1690982;0;
483.4028;0;0;449.2166;-6.273848;-5.305135;428.1528;424.5876;0.1053211;-0.03899359;0;
202.2457;0;0;186.1473;-18.52505;-8.715813;149.2376;148.3621;0.4950193;0.02601295;0;
267.0723;0;0;244.2434;-21.31948;-10.1137;212.2434;215.3043;0.1696852;-0.2338826;0;
-118.3775;0;0;-109.2619;-6.897094;-4.075192;-166.4047;-164.6586;0.3644168;-0.2986149;0;
-636.3106;0;0;-614.7105;-3.943402;-2.597595;-677.0432;-676.111;0.4939853;-0.03844549;0;
-455.3244;0;0;-476.7244;-6.149267;-2.929899;-498.5148;-496.3342;0.1686522;0.1564952;0;
-185.19;0;0;-227.308;-3.865912;-1.386348;-231.3979;-231.3434;0.2334501;0.09137059;0;
-219.9238;0;0;-259.0635;-5.469618;-2.255733;-266.4601;-269.3417;0.1682482;0.02631144;0;
204.7713;0;0;137.0603;-4.86091;-1.918552;151.9099;150.2806;0.1680791;0.09125234;0;
723.7421;0;0;645.7917;-3.04834;-0.7109313;666.1237;665.0583;0.2978449;0.156128;0;
484.01;0;0;448.8041;-2.308343;-0.5092682;431.9468;428.9459;0.1026436;0.02603643;0;
204.6638;0;0;190.1079;-2.238675;1.835524;154.6519;153.653;0.3624099;-0.2988265;0;
262.9912;0;0;243.4525;-2.370147;3.642219;210.3435;211.532;0.2970784;-0.2335588;0;
-122.3919;0;0;-113.113;-0.09058998;-2.389783;-169.2397;-169.864;-0.02805685;0.3513819;0;
-627.6399;0;0;-608.0005;-0.2242208;-3.793901;-669.4431;-670.4416;0.1668734;0.1561268;0;
-448.5365;0;0;-471.5829;2.254251;3.108909;-495.545;-495.6679;-0.09316368;-0.03893209;0;
-194.3383;0;0;-234.5405;3.591156;3.775615;-242.7989;-245.233;-0.3529394;0.3509111;0;
-226.8766;0;0;-263.79;-2.976535;4.910531;-272.1651;-276.5333;-0.02774809;0.09068913;0;
207.5706;0;0;137.0237;-3.776852;5.910341;154.644;152.1543;-0.02772021;-0.2342387;0;
727.1633;0;0;645.5679;-6.988237;3.559999;668.043;664.7437;0.03727499;-0.03910133;0;
487.8026;0;0;446.8313;-10.13002;3.221508;435.1135;428.3817;-0.09269715;0.09087266;0;
204.7045;0;0;178.6419;-2.148266;2.012578;153.755;148.4043;-0.1575713;0.02581401;0;
264.5311;0;0;230.3738;-2.012385;1.60878;210.0721;206.7882;-0.02747834;0.02578807;0;
-115.7312;0;0;-123.3675;-0.7375655;-2.143881;-164.076;-169.3556;-0.1573854;0.1556968;0;
-628.6071;0;0;-624.9289;1.942493;-4.218075;-672.1557;-677.8047;-0.09225993;0.09057305;0;
-444.88;0;0;-480.873;-8.710355;-0.7308467;-493.3823;-497.1517;0.1677021;-0.03945265;0;
-180.5656;0;0;-232.8268;-9.50491;-1.667873;-229.3315;-235.1586;0.232501;-0.234315;0;
-225.6114;0;0;-272.9476;-8.28991;1.080103;-271.9546;-280.1496;0.362202;0.2206918;0;
206.2108;0;0;124.0648;-9.152237;2.083639;152.418;145.8555;0.2968708;0.7402088;0;
734.6129;0;0;639.556;0.3014305;-1.937308;674.7523;667.8839;-0.2231663;0.2197263;0;
489.7475;0;0;439.6385;3.047794;-0.9306176;434.3822;425.5218;-0.1579747;0.08957083;0;
212.6444;0;0;181.1389;5.924143;-7.025007;159.3963;152.5437;0.03708606;0.2194155;0;
277.0233;0;0;242.9883;8.798579;-7.888727;223.7037;219.0445;-0.02791854;-0.2355764;0;
-116.6823;0;0;-117.3249;6.579911;-5.000534;-161.3901;-167.9187;0.2969462;-0.4302417;0;
-626.5587;0;0;-615.644;5.635295;-6.000253;-665.2871;-670.8096;0.5565172;-0.04000532;0;
-444.3329;0;0;-470.6605;9.715469;6.665306;-486.9579;-488.9142;0.2311213;-0.2348672;0;
-189.077;0;0;-229.1212;10.30794;10.40953;-233.7207;-237.9239;-0.158915;-0.7543699;0;
-222.0579;0;0;-259.9379;-0.7534997;7.786737;-266.4692;-273.6667;-0.2237226;-0.1689058;0;
210.5729;0;0;138.873;-2.628753;9.922366;157.7729;151.5197;-0.3534325;0.1561006;0;
729.6628;0;0;644.2294;-10.19457;4.018021;667.8579;660.6115;-0.4830121;0.02600909;0;
491.4865;0;0;447.3682;-14.94073;2.205444;432.6172;423.0043;-0.09272268;0.3508196;0;
216.5056;0;0;192.5465;-2.467134;0.5957596;160.9439;152.7774;0.1022725;0.09059779;0;
271.073;0;0;247.5128;-1.058135;-2.954935;216.3167;211.2819;0.0372024;-0.2992973;0;
-124.0009;0;0;-112.8674;0.5505187;0.1292495;-170.0815;-174.2992;0.232067;0.09080749;0;
-627.4357;0;0;-607.3179;2.89449;-0.7416584;-668.5974;-672.4986;0.2968012;0.1556836;0;
-443.0851;0;0;-464.779;3.695865;-7.238136;-488.9531;-490.7264;0.1665683;-0.03937488;0;
-189.4547;0;0;-225.8693;5.634534;-9.03928;-235.2766;-238.2974;-0.1584358;-0.03933532;0;
-225.2462;0;0;-258.9381;1.81048;-12.37934;-270.3349;-276.2263;-0.09330925;-0.1692305;0;
207.5752;0;0;141.8082;1.742288;-15.448;152.0371;148.4005;0.0367192;-0.1040931;0;
731.7905;0;0;655.345;-3.417027;-8.935253;669.3741;666.3659;-0.02828504;0.3507829;0;
491.8629;0;0;453.6626;-7.030916;-8.055619;435.4438;428.8154;0.03671072;0.2204958;0;
204.8877;0;0;181.9056;0.6119592;-12.33431;150.5243;144.902;-0.09326085;0.2852415;0;
265.2139;0;0;239.5063;0.4776224;-12.05398;208.8436;205.8507;-0.2231018;0.4148896;0;
-118.4848;0;0;-113.9318;-2.536968;-15.18995;-167.4272;-172.2287;0.1019591;0.08963602;0;
-632.2325;0;0;-620.6876;-2.333348;-16.51435;-675.5035;-681.1122;0.166824;0.1545133;0;
-449.8761;0;0;-482.0083;-7.488567;-12.74683;-498.6633;-503.2669;-0.2881151;0.154358;0;
-188.0554;0;0;-238.0213;-9.02226;-12.66704;-238.2928;-245.6405;-0.2228582;0.2191703;0;
-221.3496;0;0;-267.8921;-7.003462;-10.04198;-269.1003;-278.6894;0.1022024;0.3488847;0;
215.0286;0;0;137.8608;-6.996425;-7.687604;159.1425;152.3116;-0.1577697;0.1536322;0;
729.1165;0;0;643.2182;-7.525259;-14.17698;667.1022;660.9028;-0.2875458;-0.04142425;0;
480.3835;0;0;439.424;-7.517697;-14.63162;424.8658;417.0485;0.03757983;-0.2362847;0;
211.7231;0;0;188.9831;-2.352579;-11.33487;159.0723;153.1369;0.1674768;-0.1061125;0;
270.918;0;0;242.9535;0.2617529;-11.92633;217.2581;212.9529;-0.09256089;0.2188308;0;
-131.7144;0;0;-131.1652;-5.230866;-4.010482;-179.0111;-184.7488;-0.2873699;0.3485456;0;
-632.2054;0;0;-625.7847;-6.698503;-0.7913932;-675.9564;-682.188;-0.02721179;0.283228;0;
-443.9145;0;0;-480.3537;0.3408255;-8.962272;-494.4306;-499.5315;0.3626196;-0.3017626;0;
-196.78;0;0;-249.4244;-0.3291022;-9.958011;-250.1813;-257.2761;0.1673532;-0.1065574;0;
-225.5677;0;0;-274.7859;2.149475;-4.522509;-276.1042;-285.3783;-0.222619;0.02348436;0;
220.185;0;0;141.0938;4.759284;-3.580204;163.8272;157.1861;-0.35233;-0.2364086;0;
737.3912;0;0;650.2585;-14.20081;-6.188941;675.7177;669.3331;-0.02713926;0.153633;0;
484.402;0;0;442.147;-18.13866;-5.311944;430.0369;420.4728;0.16779;0.08851128;0;
202.057;0;0;175.524;-15.24005;-6.713248;150.8699;143.3145;-0.2221826;-0.04151236;0;
268.7578;0;0;231.3819;-18.30619;-6.170639;213.3743;209.4496;-0.156992;0.1534314;0;
-117.7556;0;0;-127.2954;-6.900944;-2.815414;-168.4608;-173.3185;0.03806775;0.02334254;0;
-631.9412;0;0;-629.0402;-4.750556;-2.142756;-677.9728;-681.7637;-0.3517745;-0.3015176;0;
-451.0219;0;0;-486.7918;-1.329531;7.236763;-502.1296;-503.6678;-0.09155172;-0.1063126;0;
-193.0107;0;0;-243.2374;3.226156;11.31545;-245.3789;-250.6012;0.428279;0.2835982;0;
-226.1749;0;0;-271.2288;-6.958491;7.285105;-277.6785;-285.7691;0.103012;0.02344392;0;
216.8922;0;0;140.8992;-8.424392;8.885375;157.0072;151.4234;0.03794111;-0.04154699;0;
735.4136;0;0;653.0002;-2.521428;7.001047;670.7161;665.8876;0.3627397;-0.1714399;0;
486.4244;0;0;451.2576;-2.719966;6.056252;428.0388;421.2786;0.1674732;-0.431137;0;
213.5725;0;0;195.0578;-4.593243;7.255737;157.3696;152.8026;0.2322723;0.08903492;0;
265.3318;0;0;239.4643;-4.655;5.105114;208.3732;206.497;0.4919082;0.3488148;0;
-133.1097;0;0;-130.2156;-10.21003;10.0566;-182.9521;-187.0128;0.3614793;0.1535623;0;
-629.9761;0;0;-616.0905;-13.3476;10.98426;-675.1458;-679.8896;-0.22359;0.08844067;0;
-445.3106;0;0;-469.4823;-4.359209;1.059989;-494.7452;-497.7351;-0.2233654;0.1533192;0;
-197.9872;0;0;-239.0011;-3.082031;-0.950564;-248.9963;-254.2322;0.1016958;-0.3016063;0;
-226.3989;0;0;-265.9348;-9.643017;-1.820387;-276.4822;-284.0866;-0.3531778;-0.6911073;0;
219.3546;0;0;151.1853;-10.30291;-3.158094;162.5126;156.6025;-0.5477249;-0.04073947;0;
732.751;0;0;658.216;-12.43601;-2.61918;671.6558;665.5018;-0.2223379;0.2841382;0;
477.955;0;0;444.974;-14.5006;-3.085428;422.6682;414.2715;0.1676896;0.08895066;0;
198.6149;0;0;180.597;-10.40019;3.079979;145.9449;139.8055;0.3624231;0.2837633;0;
267.4431;0;0;242.3844;-9.519086;5.957151;213.7641;210.2545;0.4919936;0.4134129;0;
-121.0055;0;0;-116.9911;-13.99652;4.946421;-169.3207;-174.326;0.5564666;0.2180954;0;
-635.7501;0;0;-621.4324;-13.51395;6.883956;-679.8314;-684.6442;0.3610055;-0.1069604;0;
-446.9559;0;0;-474.8814;-15.04061;9.489251;-495.3657;-499.549;0.03580601;0.1530164;0;
-189.5734;0;0;-233.213;-15.9635;11.28826;-238.9966;-245.6744;-0.02919731;0.2827974;0;
-229.3004;0;0;-267.2114;-7.172574;9.468374;-275.7378;-284.0956;-0.1591026;0.08761118;0;
216.0813;0;0;147.7236;-5.557776;8.655065;163.0063;156.2811;-0.4837795;0.2174578;0;
732.7918;0;0;657.0067;-3.543436;13.00014;674.6478;666.9298;-0.6132281;0.2822067;0;
476.0592;0;0;441.392;-1.329073;12.92009;423.5957;413.012;-0.4826772;0.08702108;0;
206.9034;0;0;183.7028;-6.351579;11.16568;154.4302;146.106;-0.1573555;-0.04300105;0;
264.4165;0;0;235.6171;-6.277848;11.3554;208.6227;202.5557;0.102672;0.02200951;0;
-138.7717;0;0;-138.057;-8.683414;2.167455;-187.6378;-195.6978;0.2974708;0.2818568;0;
-632.3216;0;0;-624.2363;-8.942132;-1.45168;-675.6414;-682.8811;0.1022699;0.02170419;0;
-442.7812;0;0;-473.3721;-11.61246;1.76496;-489.7431;-494.102;-0.2226696;-0.3031543;0;
-199.6458;0;0;-244.6987;-13.40946;-0.9161309;-247.1852;-254.0385;0.2323256;-0.04298037;0;
-222.4336;0;0;-266.2543;-2.343922;3.304592;-269.1757;-278.7082;0.1021574;0.2169322;0;
225.8147;0;0;148.9921;0.3377506;4.038084;172.1231;163.4748;-0.4176839;0.1517469;0;
729.0847;0;0;643.6562;-0.06473039;-3.601784;670.1998;661.2477;-0.09242754;-0.303177;0;
479.7896;0;0;437.7376;1.542925;-4.937823;425.6489;415.5814;0.2974694;-0.3678397;0;
210.5051;0;0;184.3624;2.077238;-7.746145;159.0425;151.6713;0.2971705;0.08730131;0;
262.3299;0;0;232.5903;2.744736;-10.35057;210.0445;205.4918;-0.1578995;-0.04272111;0;
-139.9191;0;0;-138.0197;-0.874368;-7.058132;-185.2805;-191.3903;-0.2876755;-0.2375802;0;
-644.0875;0;0;-634.194;-1.476702;-7.385954;-684.8431;-690.697;-0.2224191;0.2823973;0;
-446.102;0;0;-478.1974;-7.235994;-12.1342;-492.3139;-495.2883;-0.287163;0.4770155;0;
-185.4721;0;0;-229.779;-10.51028;-14.60025;-233.3866;-237.42;0.03796226;0.2816342;0;
-229.5135;0;0;-267.1542;-5.475874;-10.09785;-276.8801;-283.5956;0.1028915;0.02148184;0;
210.1837;0;0;136.0991;-6.609448;-10.42262;154.3065;147.4728;-0.02714661;-0.3033765;0;
736.0831;0;0;650.5787;-2.851763;-15.23479;675.1396;667.8755;0.03784801;-0.1731369;0;
479.597;0;0;442.6542;-0.6390705;-16.22423;425.6487;416.268;-0.157092;0.1518737;0;
197.7566;0;0;182.1526;-10.75249;-22.1023;147.1733;139.5511;-0.02699952;0.2816558;0;
257.1529;0;0;239.7531;-13.48737;-24.42438;206.1207;202.0045;-0.02697239;0.1514381;0;
-140.2184;0;0;-127.8032;-5.771636;-21.58667;-184.2653;-189.0021;0.1679567;0.2162533;0;
-636.0157;0;0;-615.6171;-5.296346;-20.49326;-675.5206;-680.565;0.752494;-0.04383337;0;
-446.2217;0;0;-464.5741;-8.639927;-22.48215;-490.6219;-494.5993;0.1020645;-0.3036587;0;
-202.0833;0;0;-236.9714;-8.029009;-20.98594;-247.9382;-254.91;-0.3528094;0.2813525;0;
-230.1161;0;0;-265.5313;-13.37958;-16.00823;-275.2377;-284.8887;-0.09258556;0.2161025;0;
222.4503;0;0;152.9627;-15.24117;-14.58551;168.6284;160.3614;-0.6122313;-0.1089514;0;
731.7831;0;0;654.6818;-8.996561;0.968822;674.0798;664.5717;-0.416714;-0.04387457;0;
473.4273;0;0;443.005;-8.519007;8.603659;424.0903;412.9676;0.1684107;-0.3686672;0;
201.7129;0;0;189.8744;-7.43872;-4.801207;155.3615;147.7483;-0.09162785;-0.3033294;0;
255.4831;0;0;238.534;-6.626962;-5.667161;207.4916;201.9475;0.1033662;-0.4329593;0;
-144.6976;0;0;-132.5817;-8.227894;2.711156;-186.8312;-194.6812;0.1682297;-0.4974916;0;
-640.4279;0;0;-617.6421;-8.621768;3.177313;-678.3339;-686.5507;-0.156776;-0.1071877;0;
-443.633;0;0;-462.5367;-8.680453;-0.7107679;-486.6233;-492.8329;0.1032509;-0.04211264;0;
-188.6902;0;0;-224.8786;-8.604383;-1.647815;-233.199;-240.6517;0.2980492;-0.2369723;0;
-226.419;0;0;-257.0739;-12.21306;-5.999928;-269.946;-279.0155;-0.09205438;-0.1717669;0;
213.8998;0;0;154.4777;-11.86502;-9.342923;163.2326;156.7335;-0.4167986;0.2182098;0;
725.8649;0;0;657.1323;-19.22146;-4.778818;670.2511;664.0084;-0.5463145;0.1530232;0;
473.2622;0;0;441.7674;-23.42171;-5.376863;421.3899;412.0301;-0.7406676;-0.2369347;0;
206.1082;0;0;184.4526;-4.375509;-8.988417;153.7258;145.9371;-0.5450213;-0.1717293;0;
268.1198;0;0;241.6134;-0.6200685;-9.381283;214.2284;209.1336;-0.2846043;0.2182474;0;
-130.5119;0;0;-121.1971;-3.969324;-13.39071;-175.0413;-181.5053;0.1054857;0.6727995;0;
-633.6902;0;0;-609.7672;0.5226428;-14.58295;-670.1165;-676.574;0.2353144;0.6071561;0;
-445.5228;0;0;-464.2273;-14.07992;-13.49657;-486.1603;-491.0496;-0.2196934;0.216742;0;
-199.6984;0;0;-236.9374;-18.01691;-14.08585;-241.6694;-248.6152;-0.089538;-0.3032146;0;
-234.1679;0;0;-266.3094;-3.531468;-9.449999;-274.41;-283.098;0.105454;-0.4978119;0;
211.4061;0;0;147.3754;-2.456193;-7.297172;161.959;155.2788;-0.1545213;-0.3024097;0;
719.9379;0;0;645.1645;-4.396108;-10.77283;663.7939;656.1833;-0.2193334;0.1526656;0;
471.6515;0;0;434.7467;-4.056898;-10.96295;420.1241;409.8351;-0.024211;0.4773489;0;
203.5621;0;0;175.1901;-4.521336;-5.861358;151.899;143.9942;0.04078067;0.2819672;0;
250.6463;0;0;218.8046;-4.650515;-4.850724;197.9107;192.8249;-0.08919499;0.02181453;0;
-150.0293;0;0;-148.9805;-7.727301;-7.525167;-194.591;-200.9836;-0.02413802;-0.04317474;0;
-640.382;0;0;-631.7131;-8.791264;-7.919382;-680.651;-686.7873;0.2357556;-0.1080987;0;
-446.0234;0;0;-476.3437;-10.39002;-10.45678;-490.4998;-494.506;-0.089318;-0.3028921;0;
-200.6983;0;0;-246.2305;-10.91544;-11.91989;-246.1295;-252.568;-0.3490976;-0.2376204;0;
-240.4141;0;0;-283.2143;-12.44472;-13.0465;-284.1755;-293.7934;-0.02391014;-0.1724143;0;
210.2261;0;0;135.1726;-12.83435;-14.37305;159.762;151.3407;0.365918;-0.5620451;0;
733.3143;0;0;649.2158;-11.0128;-14.29163;677.0914;668.741;0.4305176;-0.5614803;0;
473.5826;0;0;436.4201;-12.07346;-14.47822;421.6016;412.51;0.1052483;-0.04117746;0;
193.3099;0;0;173.3636;-0.8081943;-16.80807;142.1932;135.6095;-0.2846615;0.08879861;0;
255.3969;0;0;229.4111;2.742591;-17.99688;204.0192;198.3791;-0.4143102;0.1536767;0;
-142.5349;0;0;-134.3866;-4.226389;-12.48631;-184.6155;-192.0616;-0.0240898;0.1535223;0;
-643.3273;0;0;-620.5072;-2.614552;-11.00014;-680.0559;-686.1826;0.1058691;0.02343337;0;
-445.7174;0;0;-460.8386;-13.26185;-12.93147;-487.2192;-490.5286;-0.08913931;0.2183118;0;
-194.2083;0;0;-223.4946;-17.46906;-11.57894;-237.23;-242.785;0.235787;0.5429292;0;
-229.1205;0;0;-255.7538;-9.41355;-15.38521;-271.4119;-279.5849;0.4304521;0.7372857;0;
217.5104;0;0;158.1703;-11.54755;-16.3745;167.7652;161.4744;0.0402155;0.08687144;0;
724.9741;0;0;658.1974;-3.832783;-10.3297;670.8437;664.4343;-0.0897596;-0.4979219;0;
473.5592;0;0;449.0784;-0.5473779;-8.845699;424.9179;416.7033;0.365102;-0.04265024;0;
208.9661;0;0;200.3145;-15.08151;-9.975521;161.9354;156.1654;0.2348004;0.08732732;0;
259.4182;0;0;248.8387;-17.74568;-8.89377;211.4353;207.2327;-0.2202069;0.02227223;0;
-148.2002;0;0;-128.1595;-14.37894;-5.803741;-188.5138;-195.0859;-0.2849529;0.1521845;0;
-641.5533;0;0;-613.0369;-16.50795;-3.252558;-675.9542;-682.5822;0.04017008;0.02209693;0;
-439.1351;0;0;-451.3144;-14.14684;-6.66542;-478.0616;-483.3087;-0.02483762;-0.2377947;0;
-193.2547;0;0;-222.2883;-13.8642;-6.725705;-235.0157;-242.6313;-0.3496494;-0.2375557;0;
-229.6671;0;0;-256.3602;-20.95022;0.6490535;-270.9489;-280.4309;-0.02446133;0.4773237;0;
219.2132;0;0;158.6264;-23.47476;2.389958;170.5391;163.0032;-0.02443676;0.6067788;0;
721.4279;0;0;648.4083;-17.42296;4.262956;668.1175;659.6522;-0.2193142;-0.04350431;0;
465.956;0;0;433.8018;-15.86521;6.603076;418.2589;407.8656;0.1057428;0.02150677;0;
202.2451;0;0;186.9897;-23.35038;2.041723;155.1582;148.7733;0.2355713;-0.0434822;0;
260.575;0;0;242.0865;-23.72906;1.436825;212.7858;208.5936;-0.08950213;-0.1084059;0;
-140.7977;0;0;-127.3461;-23.30307;4.047594;-179.7933;-186.6674;-0.3492815;0.08660512;0;
-643.6534;0;0;-618.5962;-24.9546;3.708612;-678.0496;-684.6669;-0.08906124;0.1514854;0;
-444.2941;0;0;-462.6152;-13.54267;2.499315;-484.2779;-489.1394;0.1059303;0.2163006;0;
-193.4735;0;0;-231.2039;-10.64867;0.7552475;-235.3537;-242.2093;-0.02411085;0.2810506;0;
-237.5069;0;0;-272.0135;-14.72381;4.572394;-279.2825;-287.7554;0.1058481;0.4756702;0;
214.8171;0;0;147.4866;-13.36985;5.773492;165.1499;158.1223;0.1057417;0.2802902;0;
730.0921;0;0;654.1461;-18.58035;-3.877607;676.5393;668.9565;-0.2192013;0.1500739;0;
473.9868;0;0;441.408;-19.90182;-5.749233;425.7977;416.2236;0.04088837;0.2148904;0;
209.7057;0;0;192.0271;-17.73837;-5.408542;163.0018;155.6236;0.04084729;-0.1101622;0;
258.8452;0;0;236.749;-17.11734;-7.479578;211.2511;207.0038;-0.4789325;-0.2399862;0;
-151.4588;0;0;-142.8607;-18.23921;-1.510704;-191.8836;-197.1886;-0.1536146;-0.1747777;0;
-638.6866;0;0;-620.1646;-16.74702;-0.9063392;-672.9489;-679.0606;0.1064092;-0.3045368;0;
-438.2078;0;0;-458.0602;-16.06061;-1.307326;-475.9339;-480.2904;-0.4134365;-0.1742961;0;
-199.5747;0;0;-234.5245;-16.24554;-0.7031661;-240.074;-247.0498;-0.5429558;-0.04418629;0;
-231.608;0;0;-266.835;-2.296765;-3.448638;-272.5663;-283.3457;-0.4124755;-0.1091092;0;
224.6455;0;0;156.4705;1.121794;-3.579139;176.1072;167.8999;-0.4770284;0.1508698;0;
725.7928;0;0;651.5643;0.5174548;-6.656757;672.4307;665.2935;-0.4115817;0.2806529;0;
468.8798;0;0;436.0801;2.526667;-6.851017;421.3184;411.6272;-0.02136411;-0.3043352;0;
207.4773;0;0;191.3897;-6.6529;-12.67153;161.7128;154.6551;0.0436247;-0.5638987;0;
264.1777;0;0;245.9199;-8.789669;-16.40972;216.1479;211.9708;0.1085482;-0.2384955;0;
-140.8218;0;0;-130.0759;-14.80906;-3.063868;-181.6195;-187.2291;0.4332758;0.02161355;0;
-642.4906;0;0;-621.4481;-18.2768;-1.65427;-677.3127;-682.3546;0.1080038;0.02159184;0;
-439.3218;0;0;-458.8426;-18.59323;-3.461025;-479.1689;-483.3311;-0.2169414;-0.04339722;0;
-190.5677;0;0;-227.6225;-20.58428;-1.917062;-232.3737;-239.093;0.1730806;-0.04335361;0;
-240.1637;0;0;-272.9959;-12.39192;-9.88586;-280.4909;-289.0775;0.1729067;0.02165731;0;
212.6002;0;0;149.3788;-8.762148;-11.48352;164.6923;157.4887;-0.02216909;0.4114396;0;
731.5631;0;0;660.9714;-9.423904;-14.48609;678.9557;671.7593;0.1727552;0.2810915;0;
472.3954;0;0;447.7266;-6.60042;-16.81594;426.3376;418.0865;0.3674836;-0.04402767;0;
202.6811;0;0;196.4653;1.644258;-16.19619;159.6056;154.6736;0.2371797;0.3458206;0;
254.8886;0;0;246.0554;5.929514;-17.72053;211.7939;208.8034;-0.2827973;-0.04433091;0;
-153.6623;0;0;-131.2523;1.502926;-14.28659;-189.6547;-195.2034;-0.2175458;-0.2391884;0;
-641.1378;0;0;-611.504;-0.1061742;-14.67413;-673.4084;-679.3888;0.4323462;-0.04404603;0;
-436.9084;0;0;-445.5352;10.41013;-9.367859;-474.4564;-477.8071;0.2370097;-0.2389038;0;
-197.9018;0;0;-217.3894;12.20833;-6.344336;-237.7234;-241.7579;0.3667063;-0.1087291;0;
-228.0627;0;0;-245.4068;-0.5309362;-17.65783;-267.1572;-274.311;0.3663378;-0.4334565;0;
225.3137;0;0;177.6897;-1.869573;-19.38153;179.0121;172.74;-0.4136384;-0.3680536;0;
716.7151;0;0;661.8927;-14.52735;-19.22808;665.775;659.8215;-0.2832881;-0.04284711;0;
462.9972;0;0;446.1483;-21.68005;-21.8211;419.4795;410.8459;-0.02313409;-0.1727387;0;
209.8465;0;0;206.6951;-7.32367;-15.30195;169.9332;163.3073;-0.1530455;0.02233687;0;
255.8624;0;0;248.029;-7.38366;-13.87993;214.2401;210.5568;-0.1528917;-0.1076203;0;
-156.5625;0;0;-137.9638;-6.505585;-18.35372;-193.0206;-197.8246;-0.02280344;-0.3024141;0;
-643.9727;0;0;-619.0208;-4.221872;-17.5316;-677.5204;-682.0073;0.04218682;0.02272643;0;
-432.619;0;0;-447.4222;-7.767603;-18.78654;-471.0681;-474.0512;-0.2177249;0.282573;0;
-183.8091;0;0;-211.8409;-6.419652;-19.4375;-221.2826;-227.1363;-0.1525388;0.2173217;0;
-231.1006;0;0;-255.1686;-10.90118;-11.84914;-266.5999;-274.2592;-0.2173529;-0.1727007;0;
215.7197;0;0;157.7554;-12.69889;-9.492828;171.5104;166.4824;-0.4120365;-0.3674292;0;
724.9968;0;0;656.3461;-7.126422;-10.68898;675.3348;669.6246;-0.1517531;-0.04222333;0;
465.1486;0;0;439.3579;-7.186611;-8.534788;420.284;412.9555;-0.02166597;-0.04218091;0;
202.7504;0;0;194.4768;-5.102308;-9.062077;159.6175;155.7946;-0.2815136;-0.2370405;0;
260.0802;0;0;248.8789;-2.752657;-7.043604;217.428;216.4825;-0.2812307;-0.1068677;0;
-153.4109;0;0;-135.6155;-9.984536;-7.907183;-187.2746;-189.4061;-0.08604609;-0.04179296;0;
-647.5708;0;0;-625.7328;-10.37567;-7.564323;-674.6539;-676.8457;0.1739097;0.08818373;0;
-436.9007;0;0;-458.5628;-7.485831;0.2800363;-468.8916;-469.457;0.4985717;0.4129318;0;
-196.5198;0;0;-231.6533;-8.014173;2.088294;-231.4146;-234.4157;0.173234;0.4125169;0;
-233.4287;0;0;-267.1526;0.5676951;6.640913;-267.9136;-274.0351;-0.3466788;0.08726571;0;
224.8257;0;0;156.2781;3.648584;9.112487;181.255;176.7013;-0.08646107;-0.3675934;0;
716.9148;0;0;642.689;0.8982512;7.495862;667.9531;663.0917;-0.02140685;-0.4971587;0;
455.9502;0;0;427.2762;2.907081;9.095798;413.9718;406.679;-0.15132;-0.2367898;0;
205.4928;0;0;192.2148;-1.047955;0.9149855;165.8678;160.269;0.4335381;-0.04164984;0;
258.4471;0;0;239.1855;-2.520771;-1.631285;217.675;214.2057;0.4980698;0.08832671;0;
-151.2943;0;0;-139.9894;5.184921;-0.8928339;-184.7165;-189.1194;0.04279796;-0.04169674;0;
-634.8991;0;0;-611.5491;6.988372;-4.44191;-663.7275;-667.8137;-0.02221238;0.02331251;0;
-428.3647;0;0;-443.6437;0.1488474;5.341817;-462.5989;-465.369;-0.1521247;0.02328909;0;
-189.0543;0;0;-218.6234;-1.391544;7.41292;-225.1282;-230.4568;0.1078975;-0.1716364;0;
-230.9682;0;0;-255.1352;3.566348;-1.36917;-265.5066;-273.0162;0.3026911;0.08840549;0;
219.0378;0;0;163.0361;3.429042;-1.434777;178.0374;172.4094;-0.1523845;0.153284;0;
725.8129;0;0;660.6221;2.019077;-5.251241;679.8561;673.6091;-0.2171987;-0.1717068;0;
467.588;0;0;448.2522;1.547558;-7.121486;427.4246;418.9974;-0.08704575;-0.1065669;0;
204.75;0;0;201.8004;-1.333409;-2.492508;166.3136;160.5811;0.04297639;0.08844225;0;
260.8285;0;0;252.1972;-2.604867;-2.289055;220.7441;217.641;0.1728679;0.1533207;0;
-156.2865;0;0;-132.7378;-3.406533;0.7273549;-188.5846;-192.9964;0.1077269;0.2831014;0;
-649.0692;0;0;-614.8621;-3.469483;2.870078;-675.4003;-680.5573;0.04265127;0.2178495;0;
-430.9638;0;0;-435.7714;-6.279036;-0.01307208;-462.266;-465.981;-0.08732627;-0.3670754;0;
-191.1511;0;0;-209.8219;-6.340075;-0.08004188;-225.4203;-230.0686;0.1076635;-0.3017392;0;
-234.9994;0;0;-253.9638;-3.721737;3.603978;-268.0472;-275.1897;0.23749;0.08836799;0;
222.4444;0;0;168.3917;-3.248507;3.734322;183.3079;176.9222;-0.4773894;-0.1715902;0;
719.6583;0;0;659.3506;3.11777;3.864536;675.6261;669.0595;-0.4119424;-0.5612218;0;
458.3162;0;0;442.5468;4.252737;4.195568;419.4507;411.3289;0.238145;-0.4307232;0;
206.2322;0;0;204.8464;9.071235;-1.770007;168.3427;162.9778;-0.02196368;-0.170421;0;
256.4996;0;0;250.8673;11.20557;-3.911561;216.3993;212.7889;-0.08690895;-0.1052825;0;
-164.1093;0;0;-137.7521;4.429161;-3.237801;-195.6111;-201.2794;0.3679498;-0.3650461;0;
-647.3265;0;0;-614.5614;4.625781;-4.105326;-672.8621;-679.2119;0.3026127;-0.1697772;0;
-431.3468;0;0;-439.9064;-8.439685;-6.847501;-463.1661;-467.6354;0.04243927;0.1552301;0;
-192.9705;0;0;-213.453;-14.25933;-8.381105;-226.7568;-232.1586;0.1723313;0.02513943;0;
-230.8824;0;0;-249.7201;-5.067974;-4.152882;-262.6358;-271.9052;0.1071908;-0.1048205;0;
226.6197;0;0;174.6301;-6.604099;-3.813794;188.0267;177.8296;-0.3476883;-0.1696825;0;
724.0169;0;0;665.3329;-5.189968;-4.479791;681.0898;670.5906;-0.2823716;0.09035733;0;
455.3616;0;0;439.1527;-5.051031;-4.542273;417.5376;405.4872;-0.08718583;0.0252992;0;
194.9722;0;0;195.5837;-5.247026;-4.738657;158.1233;147.8965;-0.4119349;-0.494465;0;
257.6197;0;0;254.1076;-4.839613;-4.666914;220.2456;211.7782;-0.1516517;0.2206727;0;
-152.3707;0;0;-126.644;-7.715138;-9.082975;-181.7113;-191.8568;0.3682395;0.6102549;0;
-645.782;0;0;-613.0846;-7.372593;-10.34652;-670.1581;-680.1685;0.4978041;-0.04003166;0;
-433.552;0;0;-443.9283;-13.99662;-12.68041;-462.0265;-470.8399;0.5622713;-0.03999143;0;
-187.1775;0;0;-211.4114;-15.52279;-14.94509;-215.8108;-226.4269;0.1719023;-0.2998206;0;
-228.0313;0;0;-250.2419;-14.50282;-9.370609;-254.8242;-266.7415;-0.2180745;-0.624356;0;
221.9093;0;0;163.6142;-16.36328;-7.887569;187.2722;177.116;-0.4777248;-0.3638593;0;
716.3127;0;0;651.0172;-5.764268;-10.69293;677.7125;667.3166;-0.4772447;0.156245;0;
454.4742;0;0;431.8479;-3.4813;-9.074592;421.41;409.0255;-0.2168958;0.2210554;0;
205.7049;0;0;195.0953;-5.352837;-9.266422;170.1751;159.9271;-0.2166779;-0.6237422;0;
259.9708;0;0;245.8736;-4.008287;-7.984436;220.2914;211.9901;-0.02155816;-0.6231155;0;
-159.5797;0;0;-142.0536;-6.214087;-3.153764;-191.2857;-201.7025;0.3682676;0.1571188;0;
-644.1757;0;0;-616.7347;-4.935045;-0.8732974;-668.9783;-678.8224;0.3029302;0.09199353;0;
-431.6349;0;0;-440.953;-15.64736;4.486093;-459.2862;-466.8716;-0.08717826;0.2218358;0;
-193.1958;0;0;-216.8099;-19.45003;7.897715;-221.569;-231.7704;-0.152058;0.1566455;0;
-230.2955;0;0;-253.5734;-11.92839;7.487881;-257.2657;-269.5184;0.04299681;-0.0384139;0;
228.0182;0;0;170.6557;-14.05986;9.020843;192.4543;182.2755;0.0429536;0.2214941;0;
727.5379;0;0;662.4869;-3.395814;10.55239;686.5125;675.8441;-0.08702424;0.2862389;0;
460.1284;0;0;440.0578;0.4259908;11.47954;425.3286;413.2966;0.1079652;0.1560166;0;
201.8581;0;0;196.113;-12.16674;9.123607;166.9684;157.5097;0.1728241;0.09089246;0;
261.5627;0;0;251.9503;-13.15987;8.042834;224.5216;217.1339;0.04271575;0.4156379;0;
-156.8025;0;0;-130.6107;-15.62489;8.637477;-184.3736;-192.8783;0.3675095;0.5451549;0;
-648.5226;0;0;-612.4247;-18.55595;6.954347;-670.4439;-679.0025;0.3021729;0.1548031;0;
-430.7926;0;0;-435.9603;-17.46558;8.621811;-458.7513;-465.4897;-0.08793475;-0.04025452;0;
-190.168;0;0;-206.3249;-20.1947;8.479181;-219.4104;-228.2036;-0.1528137;-0.1051814;0;
-232.7679;0;0;-244.9731;-14.48098;2.911322;-260.5442;-271.6398;-0.2825949;-0.1700431;0;
227.2349;0;0;180.0596;-12.4567;1.434772;190.7409;181.8428;-0.2173436;-0.03993753;0;
725.6934;0;0;669.6949;-24.56797;0.160655;683.3641;674.35;-0.2171252;0.02506996;0;
457.9734;0;0;442.5733;-26.68674;-1.112182;421.0589;409.2428;-0.4118091;0.1549795;0;
205.265;0;0;203.0613;-21.10022;-0.6421841;168.9498;160.0191;-0.08655855;0.3497258;0;
257.0951;0;0;253.4568;-20.07464;-1.177402;219.6295;213.394;0.0434631;0.284407;0;
-159.7663;0;0;-131.9792;-18.98274;2.038962;-189.6356;-198.0513;-0.08651526;0.4140559;0;
-637.8029;0;0;-602.9848;-16.35072;3.242484;-663.3318;-671.7391;0.04350636;-0.1060989;0;
-432.9522;0;0;-436.8996;-16.87016;3.842072;-464.0776;-470.7898;-0.02150469;-0.625731;0;
-201.8206;0;0;-221.1313;-16.31734;5.914682;-235.0387;-244.3053;-0.1514178;0.02457117;0;
-226.7302;0;0;-249.0825;-4.110783;3.095456;-258.4156;-270.2342;0.1735711;0.08951382;0;
236.0151;0;0;177.0787;-0.2882591;3.695192;196.0532;185.9332;-0.15144;-0.04051083;0;
720.2844;0;0;654.5357;-2.498772;6.236831;674.2407;664.1934;-0.2812226;0.4143013;0;
455.7558;0;0;436.9246;-0.8213221;7.034359;416.5674;404.8435;0.1088641;0.7387217;0;
209.1716;0;0;208.4127;-5.643268;11.04614;172.8337;163.8077;-0.02117999;0.5430774;0;
256.0627;0;0;251.7439;-7.044117;12.17376;219.1991;213.618;0.3686453;-0.1071417;0;
-167.7317;0;0;-140.9993;-8.377186;14.84072;-195.188;-202.0129;0.5631769;-0.2369687;0;
-654.7557;0;0;-619.0547;-9.84166;16.23245;-675.3754;-683.0055;0.04287233;-0.04182861;0;
-439.9555;0;0;-447.1438;-9.564328;13.20191;-466.6763;-472.6746;0.1727639;-0.1717213;0;
-192.2002;0;0;-218.4342;-9.086204;12.6529;-223.0796;-232.0704;0.04265566;-0.1065814;0;
-226.8646;0;0;-255.1337;-11.55532;10.36277;-259.6494;-272.1294;-0.08732188;-0.1714416;0;
231.3831;0;0;169.5968;-12.48074;8.811746;189.1985;178.7925;0.3675373;0.02363269;0;
731.5866;0;0;663.8029;-3.091075;6.860508;685.3839;675.1133;0.3022006;0.08857628;0;
460.175;0;0;437.2495;-1.949869;5.446973;422.452;409.5681;0.2369296;0.02351994;0;
202.9042;0;0;194.307;3.545422;4.97262;166.7183;156.9708;0.3016589;0.2183983;0;
266.0435;0;0;250.5834;6.823413;4.297794;227.3328;220.7809;0.04148641;-0.1716252;0;
-157.511;0;0;-139.2851;-5.106161;5.566151;-187.4998;-195.5443;-0.08848996;-0.3013874;0;
-652.1666;0;0;-622.4022;-7.043413;5.627541;-676.4405;-683.9147;0.04153364;0.08871949;0;
-433.9331;0;0;-446.1151;-13.39935;9.439792;-463.9922;-469.8348;-0.08844278;-0.171239;0;
-194.7421;0;0;-221.0923;-19.14666;11.43979;-227.3322;-236.0425;0.04158077;-0.3010017;0;
-223.7193;0;0;-249.918;-10.41988;8.01217;-258.2132;-268.8512;0.3663757;-0.1057972;0;
245.145;0;0;184.6773;-9.939924;8.272051;201.4404;193.4367;0.04117085;0.08921115;0;
727.9683;0;0;664.3755;-17.96789;8.73262;680.5595;673.1886;-0.0888052;0.3489909;0;
455.3735;0;0;438.0714;-18.08356;8.522897;414.6965;405.0216;0.2361207;0.1537382;0;
210.6637;0;0;210.9951;-20.47726;8.581316;170.8396;163.3609;-0.02398588;-0.2362204;0;
256.9287;0;0;255.7605;-22.86758;7.568071;215.0832;210.7354;-0.1538965;0.02388638;0;
-168.3034;0;0;-141.6094;-8.042474;10.50759;-201.2363;-207.891;0.2360622;0.2187644;0;
-642.7082;0;0;-609.9191;-4.550792;11.09988;-668.5491;-675.8218;0.3007924;0.1535773;0;
-429.1069;0;0;-434.6441;-9.16792;5.060387;-458.67;-464.0613;-0.1542813;0.348325;0;
-195.9178;0;0;-214.6302;-7.148976;2.777883;-226.5131;-234.3978;-0.3490283;0.4779097;0;
-227.8922;0;0;-243.5874;-13.77322;5.25346;-259.0815;-268.2076;0.2360285;0.2175601;0;
235.2915;0;0;186.8161;-15.09953;4.444386;193.9512;187.7078;0.5606281;-0.4323319;0;
728.8069;0;0;673.4462;-12.94091;1.626759;682.5732;675.7113;-0.02464133;-0.6267996;0;
455.2743;0;0;446.0085;-12.05725;1.223227;416.1459;406.6673;-0.02461657;-0.0414637;0;
199.82;0;0;204.7439;-15.19296;-1.45732;163.2296;156.0094;0.4301796;0.2834147;0;
261.8379;0;0;259.698;-15.84728;-1.79077;223.7851;219.2583;0.1049106;-0.1716415;0;
-157.2147;0;0;-127.8058;-4.042364;0.08655152;-187.1708;-192.6926;-0.0251295;-0.3014037;0;
-644.5616;0;0;-606.7491;-0.756748;0.9572427;-668.3657;-673.3198;0.1697978;-0.1711662;0;
-428.4598;0;0;-432.2893;1.588537;4.506254;-458.2994;-461.9991;0.4294965;-0.0410595;0;
-196.7705;0;0;-212.84;4.533702;6.042334;-227.8295;-234.5864;0.4940323;0.3487858;0;
-227.8696;0;0;-239.8;0.3095877;11.32779;-255.774;-265.2102;0.1037319;0.3484353;0;
244.4971;0;0;198.8456;-1.834177;13.92862;208.6872;201.3844;-0.02630706;0.02324854;0;
728.1956;0;0;674.5316;3.928442;14.85239;686.987;679.629;0.1686214;0.08819252;0;
452.4147;0;0;440.9709;4.996222;17.91868;417.057;407.0828;0.03851729;0.2180386;0;
206.8333;0;0;212.4549;-11.62057;8.054305;173.4477;165.7948;-0.3513255;-0.1070172;0;
