Fp1;Fp2;O1;O2;POLY3;POLY4;A1;A2;Video;Audio;event;
-652.7822;0;0;-579.7932;11.86934;1.67126;-642.1021;-641.6666;0.125387;-0.2111439;0;12:37:00 Глаза закрыты;
-488.646;0;0;-475.5127;6.967292;5.554591;-483.7237;-481.1647;0.320163;-0.4708011;0;
-195.802;0;0;-219.7882;7.29606;5.147112;-194.1955;-194.2627;0.1899066;-0.1454913;0;
-219.843;0;0;-243.5553;1.259533;9.026828;-217.0512;-221.0539;-0.2000882;0.5043283;0;
177.6782;0;0;112.0108;0.05281859;10.29043;173.0334;170.2841;-0.2648546;0.4388542;0;
712.793;0;0;629.2632;-2.760274;0.2998809;702.1559;699.1595;0.1252156;-0.1462928;0;
492.3123;0;0;469.8357;-3.896576;-1.776891;486.6209;481.2537;0.3849592;-0.01621114;0;
174.9769;0;0;187.9426;-0.8785507;-5.392062;170.6655;168.4896;0.319605;0.3736092;0;
222.0273;0;0;227.6087;-1.413531;-7.931996;215.5339;216.4212;0.1893492;0.2432991;0;
-135.8285;0;0;-94.95798;9.639951;-8.057991;-135.8811;-135.8693;0.384061;0.308022;0;
-645.7481;0;0;-584.9912;12.44428;-9.59038;-640.0536;-639.0423;0.5136097;0.1128105;0;
-484.4301;0;0;-481.3927;13.43615;-1.275104;-483.4264;-481.2292;0.3181916;-0.4070416;0;
-208.2693;0;0;-239.9676;16.30304;2.611065;-209.5156;-209.8818;0.1229699;-0.2117306;0;
-221.116;0;0;-248.3471;4.363942;-0.4056684;-220.2371;-223.6639;-0.07205568;0.3082209;0;
188.4004;0;0;123.5906;0.9433052;2.072986;181.9697;179.6082;0.05795141;0.2429438;0;
706.3881;0;0;627.3381;1.478221;7.496398;693.717;691.7952;-0.007074164;0.112765;0;
486.7259;0;0;470.7861;-1.403653;10.1012;479.6272;475.521;-0.2669364;0.3075538;0;
175.8929;0;0;197.1379;-5.890221;11.89947;170.4255;169.5092;0.0581685;0.1123427;0;
213.1348;0;0;230.423;-9.165855;12.02148;206.1112;208.3193;0.5128814;-0.08267222;0;
-137.0909;0;0;-88.08605;-6.6784;15.55949;-137.5483;-136.8416;0.6423007;-0.2125238;0;
-643.7609;0;0;-579.313;-7.677043;14.67308;-639.9699;-637.9521;0.4467534;-0.2772776;0;
-486.1929;0;0;-476.7822;-4.855314;12.11299;-487.2783;-484.1381;-0.07343426;0.0478377;0;
-198.4113;0;0;-221.3688;-2.372189;11.43111;-201.4321;-201.3561;-0.1383278;0.112757;0;
-227.3848;0;0;-246.0713;-9.871894;-4.923848;-228.5285;-231.0762;-0.1381888;-0.1472257;0;
170.6437;0;0;110.8092;-10.33049;-10.27741;163.0669;161.084;-0.2679847;0.04782427;0;
715.8231;0;0;638.495;-6.703762;-12.34356;702.0071;699.4639;-0.007846013;-0.08215848;0;
494.4648;0;0;477.6215;-7.099168;-16.88587;485.9724;481.8076;-0.007838128;-0.3419453;0;
165.8829;0;0;181.4777;0.1426101;-8.161367;160.8348;159.9851;-0.1377649;0.178137;0;
214.4417;0;0;225.5231;2.553364;-6.880492;208.2118;210.2989;-0.2675612;0.177958;0;
-129.8508;0;0;-79.92508;-2.740487;-3.792363;-129.3279;-128.6796;-0.3322597;-0.2120248;0;
-645.2112;0;0;-575.658;-3.742111;-0.305562;-638.6918;-637.2946;-0.1370238;-0.3417465;0;
-489.7033;0;0;-476.8165;-2.265459;0.2975914;-487.5007;-484.9805;-0.1368861;-0.4713378;0;
-199.7942;0;0;-220.8408;-3.066489;3.177436;-199.4054;-199.5739;-0.006813897;-0.1460275;0;
-219.1461;0;0;-235.4865;-9.426421;1.164878;-217.3835;-219.2383;-0.07177439;0.04902131;0;
178.3119;0;0;124.0071;-12.63213;1.297673;173.3887;172.5351;-0.1366696;-0.2108973;0;
702.9939;0;0;627.7542;-11.94985;3.908582;693.4529;691.5383;-0.1365323;-0.08075073;0;
482.4605;0;0;464.955;-13.41171;3.770688;478.3639;474.7646;-0.006460417;0.1142325;0;
170.1325;0;0;192.0622;-15.94286;3.498968;168.6637;167.0669;0.05851342;0.179085;0;
216.4382;0;0;234.9101;-16.26261;3.294503;213.8464;214.6875;-0.2663821;0.1789051;0;
-132.8538;0;0;-80.60499;-17.85386;1.281827;-128.5714;-127.9186;0.1236896;0.04879062;0;
-645.3376;0;0;-576.8995;-17.76857;0.6107097;-635.7498;-633.9106;0.448402;-0.1461605;0;
-490.5792;0;0;-480.3056;-12.05729;-0.7965456;-486.4357;-483.4115;0.05814744;-0.01607889;0;
-201.6062;0;0;-225.5133;-9.03106;-1.934455;-199.5909;-199.8806;-0.136813;0.308774;0;
-230.8888;0;0;-252.2107;-7.145976;-0.7938014;-226.9389;-230.0394;-0.3965449;0.178529;0;
163.4576;0;0;102.5521;-3.990963;-1.596799;160.6569;159.1837;-0.3961464;0.04841496;0;
716.7651;0;0;638.0548;-2.714156;2.89254;708.47;706.9983;-0.005944355;-0.08156838;0;
505.6506;0;0;488.1137;-1.908121;5.568951;501.4868;497.8302;-0.07090572;-0.1464538;0;
178.994;0;0;197.7065;6.46654;-3.077321;175.3966;174.3048;-0.4606385;-0.01637191;0;
231.2878;0;0;243.4223;9.005638;-3.609971;225.57;227.7902;-0.5901104;-0.1462902;0;
-117.9567;0;0;-69.85249;2.432506;-0.4582674;-117.2969;-115.3913;-0.004811338;-0.2760778;0;
-643.9487;0;0;-578.3392;1.559406;-1.127636;-636.418;-634.5768;0.4499649;0.04903628;0;
-496.313;0;0;-488.8652;-3.466003;6.375463;-491.4136;-489.3244;0.3845454;0.3088564;0;
-213.8936;0;0;-238.4372;-6.74505;7.775577;-210.9981;-211.1598;0.384159;0.113644;0;
-232.0444;0;0;-252.6903;-4.72854;11.11691;-227.3402;-230.3129;-0.006031028;0.04856248;0;
172.2357;0;0;110.6936;-5.393375;15.05761;170.251;167.4687;-0.3308617;0.113481;0;
709.6674;0;0;629.509;-8.736858;1.244363;700.3134;697.5964;-0.2655619;-0.2764371;0;
502.0583;0;0;482.0753;-8.996499;-1.168273;496.9615;493.2478;-0.3952297;-0.3411267;0;
183.6511;0;0;198.4832;-9.389601;2.851755;181.2457;180.0344;-0.3948326;-0.1458818;0;
219.7608;0;0;227.8314;-11.2552;0.7725406;214.6716;216.2102;-0.1995338;-0.08076792;0;
-129.0348;0;0;-85.36521;1.616832;8.206626;-128.809;-128.3964;0.1255034;0.1142153;0;
-641.6474;0;0;-578.7814;4.69569;9.80597;-635.7997;-635.3251;0.1903446;-0.08080153;0;
-493.3269;0;0;-487.6828;1.34207;7.250766;-493.1697;-491.0089;-0.1996507;-0.1456877;0;
-210.3482;0;0;-240.3793;5.360185;8.449173;-213.0022;-213.2799;-0.2644174;0.3092301;0;
-227.6905;0;0;-256.1923;-9.180863;6.163385;-228.7177;-231.119;0.1256523;0.5687888;0;
165.7157;0;0;99.57397;-10.51081;6.8269;156.9434;156.3561;0.1904934;0.4382825;0;
696.6572;0;0;615.5895;-10.09811;3.939896;682.6464;680.248;-0.0695674;0.1130055;0;
492.8718;0;0;472.1677;-15.17915;2.462312;485.1843;480.4146;0.1254045;-0.4718142;0;
173.2244;0;0;189.71;12.23151;10.29672;167.1065;166.6519;0.3201805;-0.4063728;0;
216.9658;0;0;227.9376;17.44413;11.82686;208.7925;211.5243;-0.2648472;0.1787417;0;
-121.7071;0;0;-77.26314;10.79517;11.48018;-122.6883;-120.9587;-0.1996138;0.1135947;0;
-645.7588;0;0;-582.4315;13.93216;12.87517;-640.3672;-637.8898;0.3203255;-0.2113561;0;
-502.0569;0;0;-493.5157;-1.21974;11.45571;-500.2314;-496.0698;0.06013428;-0.2761111;0;
-207.7001;0;0;-230.2144;-4.298997;11.84597;-207.2508;-205.3422;0.2549759;-0.145899;0;
-233.8531;0;0;-252.0345;-12.26528;10.6285;-230.968;-232.8095;0.1897523;-0.08078506;0;
157.8726;0;0;100.0419;-18.34852;10.08196;153.8832;152.4184;-0.6550137;0.04923082;0;
710.686;0;0;637.5461;-10.89535;11.94723;700.7037;698.9905;-0.7842903;-0.1457207;0;
508.5106;0;0;497.1008;-12.69306;12.60505;504.5354;500.6999;-0.1338288;-0.1455743;0;
185.037;0;0;209.4956;-4.373937;9.109397;183.8768;183.1687;0.2561097;0.5042455;0;
222.9569;0;0;244.0177;-0.7531953;7.224721;219.1742;221.965;0.5157217;0.3738041;0;
-133.4006;0;0;-76.1917;-4.302412;14.25055;-130.7452;-129.2691;0.3852689;-0.01637557;0;
-653.5675;0;0;-576.9883;-1.886215;14.43718;-644.668;-642.8185;0.1250124;-0.08132647;0;
-505.1101;0;0;-483.7052;-3.692981;13.95379;-501.1545;-497.3704;-0.005047926;0.1136573;0;
-221.1201;0;0;-236.843;-3.019685;15.21245;-219.7296;-219.1352;-0.1349775;0.3084451;0;
-238.0143;0;0;-254.7209;-3.016651;4.078237;-234.7512;-238.0929;-0.1348419;-0.01670153;0;
161.7116;0;0;106.6035;-3.147342;1.327839;159.0369;156.5731;-0.1996738;0.1132499;0;
703.1519;0;0;633.3566;-0.7332816;1.795385;694.7952;692.5838;-0.3294078;0.3080382;0;
506.5438;0;0;496.6636;-0.3977522;-0.7516482;502.7557;499.2972;-0.1991421;-0.01710806;0;
185.6334;0;0;210.9954;3.487414;5.277449;184.4103;183.5164;0.1258947;0.04787648;0;
218.3053;0;0;238.7693;5.694712;6.27689;215.4593;217.0651;0.3206702;0.177763;0;
-126.6782;0;0;-73.5013;-0.8750932;5.868685;-124.0241;-123.6693;0.1904133;-0.1472523;0;
-654.4731;0;0;-581.8594;-3.955673;7.269308;-646.5118;-646.1574;-0.004680054;-0.08213699;0;
-511.0747;0;0;-495.0681;6.899293;4.85074;-507.1819;-505.2661;-0.13461;0.3077496;0;
-205.4021;0;0;-230.3284;7.696644;4.376986;-204.0119;-204.0971;-0.06950743;0.242473;0;
-227.0597;0;0;-252.0859;-0.21532;7.118766;-223.4221;-227.6301;0.1254644;0.1122947;0;
150.7912;0;0;86.87211;-0.3488255;7.714459;148.6155;142.2879;0.255273;0.1771492;0;
697.6772;0;0;616.0188;-11.60161;3.620871;688.7571;681.0615;0.1250819;0.2419386;0;
505.1975;0;0;484.2158;-14.93885;2.545506;501.4713;492.0968;0.05998884;0.5665322;0;
178.4789;0;0;193.3752;-12.17718;2.007085;177.5675;171.7631;0.05992856;0.5009956;0;
223.8392;0;0;229.6625;-13.90723;-0.07128096;219.3055;218.8792;-0.2649684;0.2406228;0;
-118.5263;0;0;-79.28807;-3.6445;4.952389;-117.1833;-118.1089;-0.2647021;0.3053484;0;
-653.1384;0;0;-591.9507;-0.8277988;6.019139;-645.425;-646.5995;0.06040056;-0.1497298;0;
-507.9922;0;0;-504.587;1.249138;-0.4171482;-505.7213;-505.8327;-0.1345621;-0.4744161;0;
-215.3786;0;0;-248.1461;3.994549;-0.9525926;-216.0461;-218.4687;-0.0694596;-0.2790374;0;
-239.0877;0;0;-267.1371;3.789464;-2.89414;-237.4431;-242.6119;0.3853816;-0.1488223;0;
156.6412;0;0;91.57613;5.460596;-4.02982;152.5371;147.9357;0.1900923;0.1761639;0;
701.6473;0;0;620.0309;-2.783913;0.3279976;692.05;688.3903;-0.3298374;0.3059216;0;
503.1042;0;0;479.9156;-5.862575;1.734188;498.2642;493.5462;-0.4594407;-0.2141245;0;
180.9479;0;0;194.8889;-3.645881;1.196582;178.1742;176.3345;-0.1341423;-0.01900734;0;
220.8709;0;0;230.9248;-5.785672;1.66426;216.4134;218.4485;0.1258618;0.3708158;0;
-119.9298;0;0;-78.08951;-6.584142;6.016478;-118.5108;-118.0394;-0.004199319;0.1105738;0;
-648.3561;0;0;-587.6923;-7.247111;6.613157;-641.3788;-641.0329;-0.1341298;-0.409276;0;
-503.6521;0;0;-499.0836;-8.043137;7.678239;-501.1796;-499.2722;-0.06902767;-0.7986688;0;
-201.7975;0;0;-232.6533;-7.164399;7.938456;-201.5763;-202.1072;-0.003990965;-0.2781276;0;
-236.5146;0;0;-260.218;-8.362648;4.045591;-233.4826;-236.4492;-0.1339216;-0.01797873;0;
139.5966;0;0;80.62225;-7.082424;3.974543;136.0663;134.3521;-0.1987544;-0.08292802;0;
699.1125;0;0;621.5193;-5.467717;-6.478544;688.9017;687.564;-0.1985547;0.1120573;0;
511.8788;0;0;495.208;-5.394874;-10.08899;506.9256;504.6522;-0.003453172;-0.212892;0;
177.8446;0;0;201.6702;7.939784;-6.327931;176.2072;176.4973;-0.06841704;-0.4075801;0;
210.9616;0;0;232.0147;12.95565;-8.665976;208.5138;212.1145;-0.003380957;-0.2122685;0;
-122.4578;0;0;-66.0687;5.842683;1.188979;-118.8438;-116.1837;0.1915245;-0.08212055;0;
-643.7602;0;0;-566.8131;6.974913;3.398221;-634.715;-632.37;-0.1335047;0.307766;0;
-506.1197;0;0;-484.847;4.623379;1.117509;-500.5818;-496.8024;-0.0684032;0.2424894;0;
-213.2581;0;0;-225.9897;2.609978;2.857821;-209.5374;-207.5733;0.2565022;-0.4074276;0;
-237.7189;0;0;-244.1908;7.027985;-5.182759;-232.6276;-233.4142;0.1263098;-0.4719856;0;
148.8882;0;0;104.0046;6.887201;-7.990834;147.4152;146.1922;0.06121556;0.1131947;0;
700.6487;0;0;633.1966;3.39668;-4.43271;693.8049;691.7709;0.06115405;0.1780483;0;
513.1636;0;0;501.5637;3.058475;-4.629204;511.0742;506.856;-0.06884208;0.1129021;0;
187.4989;0;0;213.5168;0.4434333;-11.92557;187.4731;185.5704;-0.3286423;0.177756;0;
216.7957;0;0;238.0398;-0.762461;-13.65514;214.521;216.9931;-0.003475341;0.0476427;0;
-121.8771;0;0;-66.23408;3.324142;-9.287533;-117.8401;-116.37;0.5812342;-0.01737251;0;
-642.4929;0;0;-565.1667;4.257831;-8.474527;-632.5254;-631.3691;0.06091147;0.177547;0;
-509.1639;0;0;-488.3871;2.78066;-4.112122;-503.3919;-500.6127;-0.5888231;0.2423359;0;
-209.4902;0;0;-225.7782;1.90721;-1.361811;-205.3482;-205.5077;-0.4582968;-0.08274431;0;
-229.8944;0;0;-242.1055;6.191225;2.524445;-224.2572;-227.2277;-0.1979669;-0.1476285;0;
139.0888;0;0;89.7836;5.71649;6.607745;137.7238;135.6933;-0.1328007;0.1773566;0;
695.4818;0;0;623.55;5.778095;2.850183;688.1837;685.7179;-0.06769992;0.04724366;0;
513.3117;0;0;495.9873;6.844016;3.115252;511.4556;506.806;0.5170741;-0.2776405;0;
172.0297;0;0;194.0155;-5.085579;9.54236;172.6118;170.528;0.5165546;-0.2123942;0;
217.5214;0;0;235.4246;-6.554338;10.40355;214.8545;216.4585;-0.1336378;-0.08224612;0;
-108.4709;0;0;-55.85316;-11.83904;9.790251;-105.2006;-105.5348;0.06139848;0.2426732;0;
-643.4055;0;0;-572.225;-15.44446;9.914379;-634.3914;-635.7247;0.5810755;-0.08240732;0;
-504.3286;0;0;-495.6257;-0.4247683;7.626997;-501.1955;-500.4036;0.450557;-0.2122592;0;
-205.9715;0;0;-234.5087;2.053905;7.485368;-205.5278;-206.9855;0.3851369;0.3726602;0;
-234.0629;0;0;-257.0741;8.213783;1.047729;-230.746;-236.1378;0.1898479;0.1124164;0;
141.4837;0;0;79.76504;12.89458;-1.83359;138.3629;133.9761;-0.589951;-0.2125333;0;
686.0052;0;0;603.9214;9.867513;5.335305;676.3284;671.6337;-0.8492275;-0.01741773;0;
506.3434;0;0;482.2504;11.66626;6.334566;500.9866;494.0477;-0.4585702;-0.1473349;0;
184.4961;0;0;198.6581;7.768795;4.318835;180.9564;176.7105;-0.1982401;-0.01725219;0;
215.2952;0;0;227.1941;7.091403;4.984324;209.8849;209.2041;-0.1330735;0.3725692;0;
-118.0662;0;0;-71.00941;2.261506;6.586784;-117.1617;-118.0917;-0.06797246;0.1772928;0;
-642.4339;0;0;-576.8713;-0.754876;7.116029;-634.9087;-635.2756;-0.1328715;-0.3426241;0;
-512.2285;0;0;-502.4537;2.729483;8.247589;-507.8343;-506.8265;0.1920987;-0.3422798;0;
-214.3008;0;0;-239.6432;1.185523;8.373268;-212.0349;-214.6513;0.7116444;-0.08206651;0;
-235.6372;0;0;-256.3939;6.074452;8.49882;-231.6244;-237.4241;0.3211253;-0.1469514;0;
137.912;0;0;80.13223;7.60859;8.825195;135.5489;131.2543;-0.4588054;-0.01686904;0;
695.7429;0;0;615.4701;4.385764;3.323849;687.0104;681.908;-0.1335077;0.3079846;0;
518.1328;0;0;497.723;5.453084;1.712919;515.3436;507.1229;0.06152844;0.04780579;0;
175.0968;0;0;199.2477;1.495489;-0.5660999;176.5583;170.9695;-0.06846807;-0.1471443;0;
213.3391;0;0;233.8425;0.9581233;-4.316453;213.2373;212.5268;-0.003431932;-0.0820291;0;
-104.8405;0;0;-50.68707;3.235312;4.59637;-99.25746;-99.53004;-0.003428484;-0.01697932;0;
-648.8367;0;0;-572.124;3.499505;5.797444;-638.0743;-638.7214;0.0615423;0.1129724;0;
-523.3099;0;0;-502.7712;6.643821;-2.983023;-518.1807;-517.5778;0.1264478;-0.01707577;0;
-207.8175;0;0;-223.7185;7.977292;-3.98477;-205.6293;-206.2139;-0.003613932;-0.3418953;0;
-238.5306;0;0;-250.6051;9.107376;-8.066603;-235.0328;-237.4284;-0.06857764;-0.2765844;0;
128.0249;0;0;75.98266;9.500366;-10.3358;125.0225;123.129;0.1913606;0.04853018;0;
696.9852;0;0;622.4441;10.89734;-8.048112;688.4886;685.8474;0.126201;0.2433834;0;
524.5587;0;0;507.6261;10.01573;-8.642872;519.8812;516.3057;-0.003860481;0.1781715;0;
187.0136;0;0;211.8894;9.469807;-7.294528;184.777;184.7657;0.2560128;0.2429599;0;
213;0;0;236.7264;8.455914;-6.684352;210.8281;214.8149;0.4506575;-0.01715363;0;
-120.1092;0;0;-63.29828;-0.9970546;-4.735131;-115.3449;-111.612;0.3852374;-0.5368751;0;
-644.8497;0;0;-569.0429;-4.344955;-3.323854;-633.4685;-629.8018;0.06001358;-0.0815643;0;
-511.0187;0;0;-491.4474;-10.63723;-4.325136;-503.4595;-499.1094;-0.005014058;0.1134197;0;
-213.7794;0;0;-229.5849;-15.38196;-3.651083;-208.4766;-208.1289;0.05995832;-0.1465636;0;
-240.551;0;0;-251.843;-10.14159;-4.451087;-232.505;-236.6553;-0.135004;-0.08144904;0;
133.3154;0;0;82.61711;-11.00304;-5.183427;134.0445;131.585;-0.264803;-0.1463345;0;
689.4019;0;0;616.2034;-6.838795;-3.905665;683.6335;681.3639;-0.5244063;-0.01625281;0;
515.8585;0;0;501.579;-3.01353;-4.772397;516.0305;511.077;-0.1990426;0.1786655;0;
183.6944;0;0;211.9703;-12.72339;-4.365704;185.6153;183.5403;0.3208961;0.178486;0;
217.6177;0;0;240.8677;-13.98341;-4.4283;215.7261;217.5887;0.2556063;0.1783067;0;
-104.8765;0;0;-48.91629;-0.572769;-8.643775;-101.2065;-100.2203;-0.06948723;0.04819284;0;
-641.9386;0;0;-565.9822;2.710336;-9.237814;-631.0259;-630.5405;0.06051728;0.04814441;0;
-520.5417;0;0;-505.8809;-1.244502;-12.30975;-512.8884;-510.4044;0.3852932;-0.08183866;0;
-212.3609;0;0;-235.1959;-0.4399445;-13.30212;-207.7762;-207.9184;0.2549714;-0.4065931;0;
-242.2574;0;0;-256.9485;1.7713;-10.94435;-236.3654;-241.0677;0.3196825;-0.2112826;0;
117.9926;0;0;68.14636;2.640177;-11.33525;118.0065;114.5584;-0.005475432;0.1137665;0;
686.6506;0;0;615.7401;0.2929991;-3.420122;680.2303;677.3478;-0.3303066;-0.01628254;0;
521.5433;0;0;507.4255;0.6274974;-0.2015049;519.4398;514.4988;0.05982931;-0.08123354;0;
182.1896;0;0;205.8795;-2.118823;-4.220156;183.0867;180.5869;-0.1351328;0.1137501;0;
213.9905;0;0;229.6606;-2.853629;-3.546209;212.5128;212.077;-0.1349971;-0.1462336;0;
-110.8114;0;0;-62.92325;3.11011;-2.671867;-107.6649;-108.7874;0.2549426;-0.211054;0;
-644.7441;0;0;-574.5403;5.451509;-2.6022;-635.6038;-635.4133;-0.005182893;0.5037989;0;
-521.9702;0;0;-507.7463;5.780824;-3.671312;-517.0869;-515.2725;-0.1351124;0.373358;0;
-214.9747;0;0;-237.7466;7.717399;-4.203364;-213.3447;-214.2183;0.1898601;-0.2766906;0;
-233.9991;0;0;-251.2508;12.66711;-5.672765;-229.9344;-234.3678;0.1896693;-0.4713146;0;
130.2406;0;0;76.2122;14.79686;-6.738792;129.1787;124.6873;-0.135358;-0.1460043;0;
685.9553;0;0;608.8679;14.98307;-3.918738;678.5228;673.5986;0.05968007;0.3738811;0;
516.2261;0;0;495.7501;14.43215;-2.709229;513.2362;507.5049;-0.4601186;0.04866875;0;
183.4369;0;0;202.7115;20.58056;-7.39519;182.6989;180.7215;-0.9144277;0.1135872;0;
213.1125;0;0;228.2449;22.97078;-8.392504;209.6891;211.8991;-0.5886722;0.6981791;0;
-109.5645;0;0;-61.65135;6.671702;-2.087797;-107.3623;-105.4044;-0.3282113;0.1777389;0;
-639.9377;0;0;-569.0219;2.645534;-1.281904;-630.9287;-629.535;-0.003044796;-0.01734176;0;
-522.8533;0;0;-504.8571;5.255821;-0.476821;-516.9142;-514.5849;-0.3928458;-0.2771937;0;
-210.4222;0;0;-231.237;2.503873;0.7963338;-207.1752;-207.2221;-0.3274837;-0.7316865;0;
-229.0138;0;0;-245.3725;5.314396;-3.491374;-224.4583;-227.8784;0.4524534;-0.3411473;0;
125.2883;0;0;74.40096;4.840542;-4.291539;123.3425;121.5501;0.3220641;0.04899953;0;
689.3163;0;0;617.928;7.045505;-5.559903;681.8128;680.4594;-0.06806353;0.3088197;0;
523.6442;0;0;511.2979;8.110152;-7.161906;522.3326;518.7316;-0.1329625;0.1136073;0;
178.2289;0;0;205.1252;8.303074;-6.551864;179.1674;178.9435;-0.1328289;0.1784605;0;
213.2821;0;0;233.967;10.7066;-8.018905;211.596;215.8075;0.1921413;0.4381506;0;
-103.5231;0;0;-48.87601;1.117653;-5.666445;-98.39838;-95.94022;0.3868503;0.1128736;0;
-640.8365;0;0;-563.4432;-1.763858;-4.72299;-628.6579;-626.6395;0.2565269;0.1127602;0;
-522.939;0;0;-501.3455;6.878103;-12.48814;-514.6458;-509.9432;-0.0685676;0.2425816;0;
-216.8171;0;0;-233.6635;6.268955;-14.95384;-210.7186;-208.582;-0.1984334;0.1773705;0;
-232.3414;0;0;-244.5482;9.677932;-9.111422;-224.7497;-226.4259;-0.003331975;0.04725757;0;
132.084;0;0;85.59422;11.54422;-8.767474;132.9214;131.9966;-0.1982307;-0.01775726;0;
681.6125;0;0;614.0551;4.097878;-12.04071;676.1398;675.0284;-0.3279662;0.3070973;0;
516.5728;0;0;504.5553;4.293856;-12.63145;516.0405;512.3691;-0.002799902;0.176854;0;
189.7177;0;0;218.7542;-1.93975;-12.95368;191.6848;190.5158;-0.3926011;0.04674165;0;
214.2022;0;0;240.5858;-4.281349;-13.94528;213.2937;215.9365;-0.457174;-0.1482074;0;
-110.8498;0;0;-53.94551;3.492485;-11.38604;-106.51;-104.3071;0.1279915;-0.2779931;0;
-633.2882;0;0;-558.6376;4.092188;-10.16891;-623.2682;-620.6302;0.1278628;0.1770576;0;
-519.7087;0;0;-499.3558;8.709777;-14.11056;-512.8221;-509.3748;0.06276703;-0.01802232;0;
-219.3372;0;0;-235.9862;10.50871;-12.82383;-214.0193;-214.0111;0.1276713;-0.3428409;0;
-230.4861;0;0;-247.0559;11.8383;-15.82505;-224.8611;-227.5392;-0.1972937;0.112275;0;
124.6921;0;0;70.34546;12.9645;-16.34501;123.3149;121.8889;-0.06716077;0.7618356;0;
679.6003;0;0;603.7566;10.87537;-5.745533;672.0401;670.4282;0.0628414;0.2413313;0;
519.6226;0;0;500.5765;11.46766;-3.19453;515.0059;511.3341;-0.06715643;-0.5385193;0;
170.4632;0;0;193.79;2.07901;2.837022;168.1001;166.306;-0.261991;0.04672793;0;
202.5882;0;0;221.0815;-0.0001599395;6.920008;198.7906;200.4342;-0.1967604;0.3065504;0;
-96.71507;0;0;-46.8811;-0.9381648;2.090405;-95.32386;-93.43211;-0.001660651;-0.1485291;0;
-634.3476;0;0;-562.3873;-3.0797;2.088305;-626.586;-624.5712;-0.1315937;-0.2133472;0;
-526.1393;0;0;-510.4106;6.300517;2.421121;-521.7588;-518.7465;-0.3263635;-0.08319813;0;
-214.0172;0;0;-235.0359;7.901777;1.48105;-212.3897;-212.5039;-0.1311335;0.2417222;0;
-241.1634;0;0;-254.165;14.72536;-1.802602;-238.3507;-242.0879;-0.2609364;0.176512;0;
114.0879;0;0;62.86865;19.2659;-3.14045;110.0888;106.855;-0.2606742;0.04639992;0;
686.623;0;0;607.2194;13.15097;-7.156148;676.4434;672.9006;-0.195445;0.176288;0;
530.3862;0;0;506.6594;13.5399;-9.158323;524.9645;519.6761;-0.0003465608;0.1111435;0;
195.5838;0;0;213.6723;13.99481;-7.608636;192.4789;190.4442;0.1945558;0.04606449;0;
227.746;0;0;243.5675;13.24381;-9.945271;222.208;224.2357;0.06442564;-0.2788185;0;
-102.2546;0;0;-49.71742;11.1544;1.049679;-102.1024;-100.5139;0.2592629;-0.408473;0;
-646.6906;0;0;-571.6551;9.937739;4.330666;-640.2292;-638.9547;0.4539044;0.1116761;0;
-533.16;0;0;-513.9219;9.123471;-6.323728;-530.3909;-527.9932;-0.1312577;-0.01837076;0;
-225.5911;0;0;-246.1024;8.712162;-6.652288;-223.8867;-224.1151;-0.2610605;-0.343189;0;
-247.6033;0;0;-266.1574;8.703408;-7.985263;-243.2769;-246.6285;0.2589405;-0.2129095;0;
106.0304;0;0;50.5135;9.030432;-8.111205;103.356;101.8193;-0.06615636;-0.08276089;0;
678.0737;0;0;598.6247;9.892014;-10.71527;669.2176;667.9324;-0.4558939;0.1122243;0;
519.6592;0;0;498.6357;9.14514;-11.57528;516.1218;512.9013;0.1942376;0.1770789;0;
171.4368;0;0;191.8511;18.17828;-4.128664;169.777;169.4333;0.6488137;0.176901;0;
218.8031;0;0;230.8886;20.50454;-3.186877;213.4594;216.5518;0.3233252;0.1117559;0;
-88.44987;0;0;-42.26871;12.04384;6.528728;-88.22855;-85.82639;0.06313091;-0.01829111;0;
-642.7698;0;0;-568.4617;9.955637;11.34482;-635.8021;-633.3399;-0.1318346;0.1766293;0;
-533.6785;0;0;-511.6688;9.945633;4.635247;-530.2785;-527.0691;-0.3266041;0.3063865;0;
-210.9917;0;0;-227.4848;8.931262;5.970248;-210.2812;-209.5114;-0.1963412;0.04620928;0;
-231.6442;0;0;-245.1222;-2.800336;3.351915;-229.3727;-231.0399;0.2586274;-0.4735759;0;
112.6656;0;0;60.59556;-7.552944;2.946649;109.5;108.1469;0.2583675;-0.4731;0;
677.3311;0;0;602.3873;-2.320442;1.737996;668.8588;667.1946;-0.2616308;-0.01785327;0;
519.6669;0;0;504.6433;-3.858352;-0.1391507;517.0127;514.4756;-0.4562699;0.04713201;0;
174.2556;0;0;201.351;-0.5055724;7.295851;175.0398;175.6912;-0.3908441;0.1770193;0;
209.8125;0;0;230.0716;1.102526;8.159298;207.9098;211.0593;-0.4554187;0.2418088;0;
-97.93123;0;0;-46.52064;-2.850697;9.222826;-94.52216;-92.87507;-0.2600591;-0.2132056;0;
-637.3741;0;0;-560.3406;-3.383696;10.55322;-627.1594;-625.2016;0.0650389;-0.08305666;0;
-531.3492;0;0;-505.4923;2.112061;7.528382;-524.5805;-520.5007;6.213155E-06;-0.01800585;0;
-212.6002;0;0;-226.7493;3.717529;7.855732;-208.5869;-206.6352;0.06497355;-0.1479225;0;
-224.8803;0;0;-233.8303;-1.2427;3.49407;-219.3718;-219.9208;0.2598103;-0.08280648;0;
117.9235;0;0;75.62425;-0.8393095;2.217883;116.9921;116.6936;0.1945819;-0.1476906;0;
682.8334;0;0;614.9646;-5.99603;1.411982;675.2814;673.4839;-0.3903197;-0.01760752;0;
527.4126;0;0;515.7088;-8.736671;-0.7998739;524.6157;521.0709;-0.3899275;0.1123449;0;
173.123;0;0;200.6612;-0.48887;8.712262;173.3274;171.9726;0.1951704;0.2421667;0;
220.4876;0;0;235.7543;-0.3546569;11.31584;217.8808;220.7127;0.06503958;-0.01794604;0;
-71.71214;0;0;-23.78972;1.520733;7.352479;-68.69421;-65.42787;-0.2598625;-0.2128301;0;
-632.0459;0;0;-555.9983;3.395216;9.555528;-621.035;-619.5211;0.1302027;0.04725319;0;
-537.6454;0;0;-517.0214;-3.306001;5.058192;-530.3937;-528.0068;0.1950392;-0.08272899;0;
-208.0831;0;0;-228.5841;-3.973241;4.316298;-204.0871;-203.3267;0.06490853;0.04728884;0;
-229.1758;0;0;-243.8467;-4.437763;11.8138;-223.1848;-225.9234;0.1298106;0.372078;0;
105.8237;0;0;57.05972;-4.901818;12.94064;104.9372;103.2633;-0.1301892;-0.3429366;0;
678.1796;0;0;604.852;-5.701176;14.60221;670.235;668.6877;-0.3249604;-0.2776247;0;
526.8864;0;0;509.4794;-6.498755;15.25737;524.3221;520.3401;-0.3896012;0.3723277;0;
176.4079;0;0;201.4345;0.741444;16.1798;177.3444;176.0525;-0.1293403;0.2420189;0;
211.4629;0;0;232.5914;2.884153;16.56544;210.0247;212.6072;-0.1941777;-0.3429304;0;
-87.5369;0;0;-36.06991;2.278042;12.79775;-83.91373;-82.89555;-0.7137213;-0.3425858;0;
-622.3676;0;0;-550.0253;3.883344;12.65093;-612.876;-612.421;-0.5181022;-0.01740484;0;
-529.8509;0;0;-511.7416;-1.813985;3.930679;-524.6167;-522.1008;-0.2577122;0.1775147;0;
-223.5347;0;0;-246.7354;-6.300141;0.3097728;-221.3667;-221.2271;-0.3873879;-0.08253307;0;
-232.1182;0;0;-251.6099;8.710366;5.667974;-228.0159;-231.4371;-0.06216199;-0.4072869;0;
114.2536;0;0;62.61014;11.84945;3.987706;112.2298;110.6861;0.06783516;-0.2769429;0;
678.3552;0;0;602.9631;-11.60575;9.54316;669.1496;668.8568;-0.2570697;-0.01679527;0;
528.1862;0;0;509.9037;-16.14845;10.73926;523.9874;522.0082;-0.1268767;0.3080583;0;
180.7673;0;0;205.9189;-17.07022;8.116138;180.0709;180.4676;0.003185448;0.1778141;0;
220.753;0;0;238.5705;-20.87049;9.380659;218.4331;221.2656;-0.5815238;0.04770074;0;
-78.0687;0;0;-29.53461;-16.02772;-0.2070818;-75.01396;-73.12134;-0.2561028;0.1775875;0;
-631.7119;0;0;-557.4271;-16.34641;-3.221106;-622.4759;-619.7106;0.2638933;-0.212395;0;
-536.4997;0;0;-516.1375;-10.36814;-1.141398;-530.2714;-525.385;-0.321078;-0.2771489;0;
-210.6866;0;0;-230.5746;-7.813102;-3.752586;-207.9004;-204.4556;0.134016;-0.3418378;0;
-231.8392;0;0;-245.023;-6.465104;-0.3996684;-228.1812;-228.2381;0.7835547;-0.9911677;0;
102.7882;0;0;57.32131;-4.04771;-1.270045;100.5705;100.6385;0.3279961;-0.2755311;0;
679.0826;0;0;608.1118;-4.512158;-0.7329053;670.3704;670.1885;0.06779715;0.1795172;0;
528.6631;0;0;509.9248;-1.895656;0.6074898;524.5198;521.9019;0.06772903;-0.3404019;0;
169.1248;0;0;192.3219;-12.07418;-10.24411;168.4215;168.18;0.002693629;0.1796789;0;
212.3706;0;0;232.171;-14.47392;-12.77917;208.9818;212.676;0.1326256;0.309433;0;
-75.13592;0;0;-25.24553;-7.292083;-8.345577;-73.64872;-70.95772;0.3273944;-0.470486;0;
-626.1584;0;0;-553.8919;-8.155412;-8.002277;-617.239;-615.4252;0.1321634;-0.3400786;0;
-539.6349;0;0;-518.1655;0.8277637;-9.26679;-533.0982;-529.787;-0.4526755;0.1800019;0;
-226.5623;0;0;-241.0964;4.175835;-9.324462;-222.6558;-221.2845;-0.1923513;0.1148537;0;
-245.575;0;0;-254.8471;-1.119647;-1.813248;-240.6105;-242.7388;0.2626134;-0.3400331;0;
100.3106;0;0;55.37815;-0.2478658;0.6669422;98.58591;96.20987;-0.0624872;-0.2097568;0;
681.9799;0;0;610.1061;-2.592141;1.336101;673.0731;670.6994;-0.2573264;0.180258;0;
535.5554;0;0;520.6003;-3.794986;3.545074;531.4676;528.2217;-0.2570679;0.1151096;0;
180.8827;0;0;211.5448;-3.522753;0.5274016;180.797;179.9908;-0.1268749;0.05002656;0;
223.4919;0;0;245.8773;-4.792011;0.4598887;221.2824;223.7253;-0.1917147;0.374813;0;
-71.64687;0;0;-21.42298;-2.912162;-1.28213;-68.29446;-66.97847;-0.3214568;0.2445017;0;
-629.9817;0;0;-554.6334;-1.903881;-3.156363;-619.4488;-619.6958;0.06867026;-0.01561334;0;
-542.9546;0;0;-520.0932;-7.461674;0.1289717;-536.5552;-534.9904;0.4584053;0.3092391;0;
-217.0726;0;0;-235.0261;-8.324832;0.06185921;-214.3652;-213.6141;0.133108;0.243961;0;
-230.785;0;0;-244.9099;-4.632772;-3.421315;-226.831;-229.329;-0.3217971;0.04881383;0;
102.9043;0;0;54.49831;-5.230353;-4.020602;101.2322;99.36137;-0.3214738;0.1786995;0;
676.9498;0;0;603.1677;3.682534;-5.155272;670.3443;667.9756;0.2635553;0.1135526;0;
528.5314;0;0;511.2326;7.832019;-6.221819;526.1179;521.6277;0.3282578;-0.2763656;0;
164.8079;0;0;191.4419;-2.156185;-2.196713;164.3958;162.9086;-0.1918108;-0.7308593;0;
200.1869;0;0;218.9231;-1.885599;-0.4529497;197.0891;199.4765;-0.191618;-0.4702556;0;
-82.12245;0;0;-33.48261;-1.347841;-4.672297;-80.96924;-78.70924;0.1334112;0.3098251;0;
-621.9561;0;0;-547.0658;-2.284492;-4.801569;-614.1199;-611.9246;0.003342488;0.2445464;0;
-529.8146;0;0;-507.5357;2.808019;0.2268541;-524.9848;-521.4174;-0.06162821;0.114366;0;
-207.6939;0;0;-226.2294;2.269334;1.566163;-205.7425;-204.1152;-0.1265336;0.4390878;0;
-232.5351;0;0;-246.0545;8.496345;1.698555;-228.4617;-229.8346;-0.2563412;0.1138099;0;
92.09799;0;0;43.29745;10.49754;2.232712;90.60758;89.86076;0.3286225;-0.3410759;0;
670.0898;0;0;593.9147;2.516388;4.574871;661.1047;660.4836;0.2633249;-0.4057005;0;
528.5499;0;0;508.3606;1.844275;5.708984;522.6347;520.6399;-0.4515804;-0.7301295;0;
166.3881;0;0;188.8851;-1.975972;3.224879;163.6647;164.1707;-0.516094;-0.6644285;0;
206.9504;0;0;223.9901;-2.308779;4.1594;201.7311;206.9216;-0.1257714;-0.07905487;0;
-73.36675;0;0;-25.23483;-10.21069;-0.9353606;-73.83321;-68.71033;0.5240284;0.2458613;0;
-622.4545;0;0;-551.0701;-14.41999;-2.675977;-616.5487;-611.8682;0.9133059;0.1156796;0;
-540.5574;0;0;-519.8444;1.200914;3.823934;-538.4056;-532.1682;0.1327801;-0.07933871;0;
-218.4884;0;0;-237.4012;1.870269;3.418195;-219.2123;-216.2295;-0.2571574;-0.01429164;0;
-235.2603;0;0;-251.1556;10.10644;11.11767;-234.1719;-234.8777;0.2628398;-0.01427728;0;
91.99923;0;0;41.57471;15.12012;14.58949;87.46431;87.63377;0.3925104;-0.1441976;0;
670.4285;0;0;593.0682;2.311557;6.13523;659.5263;659.4457;-0.1276228;0.1158166;0;
529.2629;0;0;507.9523;3.313612;6.664806;521.9949;520.2278;-0.4523312;0.1157003;0;
164.0395;0;0;187.6026;-10.22003;2.371324;159.5898;159.3862;-0.12704;-0.07931802;0;
206.978;0;0;225.2076;-16.50542;0.02466028;200.5963;203.5163;0.2628917;-0.01427097;0;
-67.90443;0;0;-20.2079;-3.963881;5.249182;-68.40766;-65.80296;0.3925622;-0.3390934;0;
-622.6823;0;0;-548.6719;-5.767584;4.172181;-615.9387;-613.524;0.2622331;-0.40372;0;
-546.782;0;0;-522.1337;3.882778;9.861416;-544.0431;-539.7568;0.002100206;0.3113264;0;
-218.3349;0;0;-237.8767;8.635275;11.72691;-218.9721;-217.0639;0.1320328;0.2460463;0;
-237.0435;0;0;-254.7541;-0.3493591;6.758509;-235.1188;-236.4609;0.3268021;0.3107664;0;
82.40925;0;0;33.04489;2.999895;7.555513;79.02215;78.11868;-0.06333029;0.5703235;0;
660.161;0;0;585.5464;-7.65304;0.5819404;649.9682;648.6909;-0.1932013;-0.07992298;0;
521.3796;0;0;501.5625;-11.46277;-2.030979;514.8827;512.3572;0.1967968;-0.2747447;0;
159.4749;0;0;182.7186;5.561683;4.468285;155.7956;155.7714;0.1316318;0.05036809;0;
200.1066;0;0;218.2045;5.355024;5.066641;194.3071;197.9686;-0.1283699;0.1802522;0;
-77.33011;0;0;-27.26645;15.79849;3.855857;-78.31371;-74.28107;-0.1932082;0.3100057;0;
-624.2899;0;0;-548.1022;20.33795;4.253881;-618.401;-614.6848;-0.1280468;-0.08010983;0;
-544.9522;0;0;-520.0653;4.442677;6.192111;-541.6304;-537.2932;0.456788;-0.209964;0;
-227.9387;0;0;-242.8693;3.366486;6.654648;-226.8066;-224.5977;0.3263943;-0.1447857;0;
-243.2019;0;0;-254.1195;-9.898785;9.260296;-238.8226;-240.0517;-0.2586397;-0.07967288;0;
87.2515;0;0;43.6113;-17.05614;10.7916;87.50347;86.40054;-0.3233472;0.05034187;0;
663.1243;0;0;594.3531;-6.857591;2.742925;656.1297;656.4647;-0.1930876;-0.2745454;0;
528.2755;0;0;513.7336;-7.453912;-0.8767874;523.9115;523.4965;0.002008453;-0.4691716;0;
169.1749;0;0;197.5636;-11.06375;6.759904;167.5639;168.7111;0.3268431;-0.3387655;0;
212.4206;0;0;232.5974;-11.78956;6.619145;208.4999;212.6444;0.3914821;-0.07855573;0;
-62.90459;0;0;-14.13743;-3.203901;-2.162025;-62.13615;-59.43262;0.1312193;-0.01350944;0;
-627.6824;0;0;-550.0413;-0.3202935;-4.303185;-620.1057;-617.5298;0.001152808;0.05147148;0;
-555.2129;0;0;-529.2488;-1.726491;-7.648008;-550.5798;-546.0075;-0.128783;0.2463218;0;
-220.6354;0;0;-236.9887;0.5524192;-9.917621;-218.1309;-216.0619;-0.2585883;-0.01379509;0;
-240.4661;0;0;-249.6815;-4.002487;-8.769068;-234.7157;-236.0847;0.1314756;-0.07874858;0;
76.3039;0;0;32.42765;-4.199536;-8.693274;76.42632;76.12075;0.06637612;0.1811999;0;
664.619;0;0;591.3641;-5.267044;-7.076948;657.3075;657.0647;-0.3234946;-0.01388417;0;
532.2673;0;0;516.2449;-6.93669;-5.194315;529.3361;526.2824;0.3265038;0.05109712;0;
162.1683;0;0;191.5141;-1.437364;-2.308952;161.8011;160.5621;0.5210778;0.3758825;0;
203.2346;0;0;224.7424;-1.1675;0.23872;200.1192;203.2543;0.000815475;0.1806028;0;
-67.39616;0;0;-17.29941;1.110849;5.329061;-65.19861;-62.50397;0.065782;0.115454;0;
-618.364;0;0;-540.8314;2.985743;8.337816;-609.8593;-606.855;0.0657159;0.1803053;0;
-547.2156;0;0;-520.4229;-0.9029995;9.401165;-542.2802;-536.8427;-0.06428482;-0.2746473;0;
-227.0764;0;0;-244.5384;0.1696348;10.73138;-225.0195;-222.0862;0.0007471196;-0.3393387;0;
-238.155;0;0;-252.6635;-4.518609;10.85456;-233.6014;-234.8565;0.1956484;0.1807411;0;
85.85903;0;0;39.44369;-6.390079;10.77667;84.97326;83.46964;0.1304845;0.1155921;0;
660.3589;0;0;587.3162;2.056436;8.287474;651.6655;649.851;-0.4543527;-0.2093608;0;
536.3824;0;0;517.136;2.456511;7.408369;531.5082;528.2589;-0.2589942;-0.07921571;0;
181.584;0;0;205.7726;7.343186;2.109395;179.7757;179.1533;0.06610279;0.05079858;0;
211.5739;0;0;230.241;10.48364;-0.5719199;207.2062;211.0196;-0.193833;0.1806822;0;
-65.74942;0;0;-16.24162;2.16771;2.040867;-64.86534;-61.61796;0.2611332;0.44037;0;
-620.0922;0;0;-544.0225;1.830739;0.9672115;-613.0246;-610.3427;0.4557728;0.5698622;0;
-552.2529;0;0;-528.4834;0.4223804;0.8322738;-549.1904;-544.3248;0.3253801;0.3094203;0;
-221.7388;0;0;-238.9726;-1.454054;-0.9101187;-221.7404;-218.9411;0.5849226;-0.01572734;0;
-240.6939;0;0;-251.7885;3.169107;3.10965;-239.0713;-239.2733;0.1945308;0.0492558;0;
69.89195;0;0;24.26342;3.233272;2.637645;66.32807;66.93831;-0.5203055;-0.2106631;0;
663.6483;0;0;590.392;2.560438;-2.589552;653.8411;653.7635;-0.3898479;-0.08051672;0;
543.8538;0;0;526.8304;1.954653;-3.72566;538.2419;535.041;0.3251845;0.2444009;0;
170.4947;0;0;198.091;3.091764;-15.44356;167.0124;166.6883;0.3248578;0.2441553;0;
207.3048;0;0;228.564;2.686516;-20.18371;200.4527;205.4387;-0.1952074;0.1139753;0;
-60.70638;0;0;-9.358648;1.679439;-19.76153;-61.55466;-57.0109;-0.1300439;-0.1460086;0;
-617.428;0;0;-538.5833;2.815851;-22.62194;-610.7167;-605.7403;2.146975E-05;0.04904017;0;
-555.5884;0;0;-526.298;-7.434757;-20.18783;-552.2571;-545.9114;0.06498879;0.1139582;0;
-233.1919;0;0;-245.41;-9.36967;-20.16754;-233.6121;-230.2088;-0.0650112;-0.1460257;0;
-241.9531;0;0;-249.8486;-7.083079;-17.60205;-241.3109;-240.9095;0.06498881;0.2439251;0;
75.8804;0;0;36.25875;-9.353138;-15.84281;71.46196;72.55018;0.2598255;0.1137454;0;
656.5747;0;0;589.944;4.58871;-14.35326;645.3516;646.5637;-0.1302396;-0.1462383;0;
537.412;0;0;526.2579;7.598209;-12.19551;530.3232;528.9103;-0.1950761;-0.08112403;0;
173.1799;0;0;208.8259;7.523226;-13.05403;170.5334;169.6217;2.197441E-05;0.1788269;0;
204.3026;0;0;234.7905;10.7982;-11.23238;200.0971;202.7471;-0.1299127;0.5684512;0;
-63.33072;0;0;-2.076528;-1.671235;-14.03425;-63.28417;-60.44947;-0.06481485;0.1131086;0;
-616.1766;0;0;-525.4988;-4.952085;-14.42205;-610.1332;-607.0515;0.06518496;-0.2118417;0;
-551.8395;0;0;-513.9763;-4.544968;-8.848095;-549.0505;-544.0353;-0.1297826;-0.01672682;0;
-217.5153;0;0;-228.9154;-8.492517;-7.767599;-217.9774;-215.6535;0.0002825235;0.04825732;0;
-236.7245;0;0;-248.8628;-4.129726;-4.00875;-234.1877;-235.4267;0.5200209;0.1781435;0;
64.86189;0;0;13.94282;-3.188548;-1.526475;63.64805;63.65959;0.3895638;0.1779645;0;
663.6832;0;0;576.521;-14.5722;-3.132532;655.6615;655.9229;-0.0006317153;-0.341953;0;
550.0106;0;0;516.4092;-16.96845;-1.588777;547.0569;544.3196;-0.06559842;-0.3416094;0;
167.0876;0;0;183.0576;-9.315594;-3.931461;167.8851;166.4623;0.1293695;-0.08139683;0;
204.4009;0;0;214.4203;-8.167157;-5.200186;201.9492;204.2135;0.1942069;-0.4711191;0;
-53.98718;0;0;-15.49223;-6.082846;2.038951;-51.75133;-49.80163;0.06407704;-0.5356131;0;
-614.8385;0;0;-547.2094;-4.402771;3.309578;-606.358;-603.8481;0.06401266;-0.2102382;0;
-552.2518;0;0;-535.9774;-0.7810245;-0.5116522;-546.5285;-542.147;0.193883;-0.08009223;0;
-227.1101;0;0;-253.2057;2.032799;-0.645104;-222.7668;-221.7006;-0.001213818;0.244825;0;
-244.9353;0;0;-265.0078;-2.457222;-2.252046;-238.41;-240.5932;-0.1311473;-0.0152904;0;
73.02608;0;0;19.99042;-2.521126;-2.785647;73.61031;72.99104;-0.06604816;-0.1452097;0;
658.8457;0;0;580.3137;-3.322875;-3.51966;651.9956;651.9391;-0.1309491;0.1148056;0;
541.7422;0;0;517.9491;-5.529363;-3.649967;538.7096;535.9046;0.06408446;0.1796575;0;
177.943;0;0;197.2146;-0.2325218;-2.976593;178.1617;176.6089;0.4538241;-0.015425;0;
208.3113;0;0;221.1918;0.1025045;-2.906619;205.344;207.9781;0.1934987;-0.4052136;0;
-56.70239;0;0;-14.34964;-5.188884;2.58878;-56.66827;-53.16221;-0.1315324;-0.4048064;0;
-608.3056;0;0;-537.1974;-5.719534;4.863599;-602.2745;-599.2093;0.1934365;-0.274465;0;
-552.0974;0;0;-529.911;-9.598553;3.853968;-548.3837;-544.8217;0.2582095;-0.4041239;0;
-228.9547;0;0;-247.4578;-11.13013;5.189754;-228.4307;-227.1212;-0.1968214;-0.3387505;0;
-242.6552;0;0;-256.8293;-8.103856;5.519454;-240.445;-241.823;0.2581478;-0.2734427;0;
61.31097;0;0;12.41857;-7.828269;6.183737;58.14662;58.3942;1.037496;-0.1432333;0;
651.6401;0;0;574.561;-7.418262;4.837865;641.3575;641.7922;0.3867806;-0.01315469;0;
552.2225;0;0;528.2567;-7.745601;3.761277;545.6359;544.5709;-0.1983141;-0.2730108;0;
177.6681;0;0;199.0786;1.773026;6.637642;174.9612;176.521;0.1267219;-0.1428018;0;
201.4775;0;0;217.5567;6.526667;6.29618;197.5864;202.7678;0.06162718;-0.01272366;0;
-53.97163;0;0;-11.60936;-6.339638;4.481314;-53.73592;-48.62218;-0.1333368;-0.3375476;0;
-609.3882;0;0;-538.5203;-7.673415;3.873965;-603.3431;-600.421;-0.1981701;-0.2722411;0;
-553.4911;0;0;-528.6089;-1.637484;-0.01481566;-550.6381;-546.6569;-0.1330037;0.3127386;0;
-223.4756;0;0;-242.2839;-1.970632;-1.622391;-223.8738;-219.8341;-0.06790268;0.3773917;0;
-238.6808;0;0;-253.6597;0.6442928;-3.496283;-236.2675;-236.2923;-0.2627365;0.05217574;0;
66.968;0;0;21.76941;0.9784381;-5.770068;64.19402;64.2317;-0.1975051;0.05212332;0;
653.4809;0;0;582.5281;2.919838;-1.477484;643.4008;643.3135;-0.5221434;0.1170383;0;
552.6246;0;0;535.1539;4.725565;-0.5382386;546.8026;543.5295;-0.6515534;0.05195334;0;
191.5006;0;0;215.3391;-2.781271;-5.762245;188.8078;188.2866;0.06374202;0.05190114;0;
208.487;0;0;227.8039;-3.917553;-6.426284;203.798;208.3372;0.06367797;0.05184899;0;
-66.3969;0;0;-14.36593;-2.708168;-3.405717;-65.08425;-61.23669;0.1285813;-0.1431051;0;
-619.1148;0;0;-539.525;-3.576102;-3.000397;-610.4947;-607.9003;0.5832235;-0.01302666;0;
-557.9607;0;0;-527.9884;-1.227984;-1.322809;-552.66;-550.0058;0.4527028;0.1169211;0;
-227.6283;0;0;-241.664;-1.695265;0.2861106;-226.0811;-225.8658;0.3872806;-0.1430658;0;
-237.0822;0;0;-249.8545;4.602102;-3.063323;-233.4126;-235.259;0.4518588;-0.142922;0;
66.37861;0;0;22.44732;7.678936;-3.66297;65.42184;64.76417;0.3214701;0.05212365;0;
653.954;0;0;585.2668;-0.3667311;1.565135;645.9393;645.0324;0.0612777;0.4418753;0;
549.2867;0;0;535.9532;-0.3663626;2.568307;545.3405;541.9982;-0.1336859;0.7013007;0;
169.9252;0;0;201.3327;-2.64317;1.627965;169.7935;167.704;-0.06858423;0.310792;0;
196.9908;0;0;219.9959;-5.587276;2.296159;194.0481;196.3335;-0.2634173;-0.2092591;0;
-54.0186;0;0;-4.362509;4.598768;-1.055173;-52.83536;-49.30291;-0.133218;-0.3389835;0;
-610.0598;0;0;-533.4672;6.201738;-2.728686;-602.5684;-598.3524;0.2567199;-0.1437408;0;
-558.285;0;0;-530.245;2.31074;3.034466;-553.2374;-547.4639;0.1265273;0.05130563;0;
-226.0783;0;0;-240.4826;4.11708;4.906939;-222.2851;-218.9537;0.1913675;0.1811888;0;
-232.7851;0;0;-245.051;-2.853282;-4.475358;-226.3096;-226.8546;0.06124054;0.05107202;0;
65.42402;0;0;20.87416;-3.587349;-6.547332;66.52068;65.60148;-0.003788342;-0.07891399;0;
644.1299;0;0;570.6393;-1.506664;-0.9812922;637.6042;636.7484;0.5809215;0.1160673;0;
544.2825;0;0;522.0901;-3.046367;-1.851084;541.1992;538.9075;0.3854358;-0.1439187;0;
176.3578;0;0;200.5393;9.616345;3.978169;176.5884;175.7358;-0.1346902;0.1160953;0;
201.8551;0;0;222.0144;12.88921;6.787333;199.337;202.2333;0.06034714;0.5707501;0;
-56.46793;0;0;-7.968153;8.589355;-2.864785;-52.98661;-50.53047;-0.004680836;0.1803725;0;
-618.3787;0;0;-543.5659;9.38403;-3.866529;-606.9049;-605.5757;-0.3944802;0.2451586;0;
-568.1573;0;0;-543.5195;6.494214;-2.991988;-560.1932;-556.8664;-0.1991818;0.1149776;0;
-233.192;0;0;-250.6203;5.415961;-4.194552;-227.9221;-226.0978;0.3207571;-0.3399093;0;
-240.4539;0;0;-253.1171;0.3203043;-1.444159;-233.2528;-234.7412;0.1905001;-0.1446658;0;
60.01179;0;0;15.31492;-2.426684;-1.375725;60.70893;59.90921;-0.134528;0.2452837;0;
645.8445;0;0;572.7068;-2.759038;-1.508309;639.6069;638.8705;-0.0694255;-0.01483217;0;
549.806;0;0;530.09;-4.6313;-1.908691;546.948;544.9629;-0.1992904;-0.339654;0;
177.7528;0;0;204.4083;-2.483192;-1.236944;177.084;177.9745;-0.3290249;0.3103607;0;
198.6886;0;0;217.8836;-2.145905;-1.90553;195.0845;199.2849;-0.1337922;0.5699182;0;
-55.13361;0;0;-8.471704;-1.072022;-3.845998;-53.73657;-50.35247;-0.00372311;0.04960685;0;
-614.1097;0;0;-538.0095;0.5366459;-4.645929;-605.6552;-601.6497;0.06124797;-0.08037769;0;
-566.3913;0;0;-541.9667;-0.8704128;-11.13848;-560.9437;-554.5061;0.1261538;-0.08029693;0;
-231.053;0;0;-250.6932;-0.9368872;-13.80661;-228.297;-223.8024;0.1909944;0.04971845;0;
-244.314;0;0;-256.6257;4.62376;-14.86434;-239.9367;-239.5695;0.1908024;-0.01529885;0;
49.34647;0;0;6.375074;6.294053;-17.05984;47.59753;48.15176;-0.004291302;0.1146512;0;
643.7481;0;0;572.0219;2.670406;-15.36813;634.5046;636.5576;-0.1342217;0.5043401;0;
553.4588;0;0;533.7785;3.002516;-16.29045;547.9103;548.7743;-0.004152123;0.1789966;0;
177.5289;0;0;203.283;-1.22006;-12.32221;176.4837;178.2838;-0.1340826;-0.08105265;0;
199.7142;0;0;218.6334;-3.630708;-10.23335;197.0459;201.4055;-0.4587846;0.2438655;0;
-54.35883;0;0;-8.847012;4.277171;-15.44762;-52.5267;-48.2965;-0.3283889;0.1136858;0;
-615.4597;0;0;-537.8847;6.282605;-14.29339;-606.3206;-601.5323;-0.133157;-0.2762325;0;
-564.554;0;0;-534.0334;0.2470961;-16.42248;-557.9853;-551.9526;0.1918136;-0.2109876;0;
-231.6538;0;0;-248.8274;0.9837821;-16.87486;-228.2776;-224.9995;0.4514902;-0.1458083;0;
-246.1636;0;0;-258.8847;-0.423726;-8.820071;-241.1041;-241.2027;0.3860692;0.1142076;0;
55.3698;0;0;13.2388;-2.097264;-6.466928;54.17733;54.39123;-0.004122791;0.6338316;0;
644.6429;0;0;573.2565;10.29608;-3.245371;636.1428;636.3565;-0.3289554;0.1784233;0;
551.6041;0;0;534.6371;13.36719;-0.2278783;547.3605;545.8873;0.1261466;-0.3414947;0;
185.1713;0;0;216.2597;7.927774;-0.02670055;185.2422;185.4571;0.7756932;-0.4061189;0;
193.9807;0;0;221.1023;8.120879;1.714761;192.6772;196.1403;0.6449791;-0.2757761;0;
-68.64479;0;0;-14.50153;7.108342;1.78002;-65.44922;-62.23948;0.254527;-0.08059702;0;
-617.0501;0;0;-538.536;6.766407;2.448061;-607.2361;-604.092;0.1893039;-0.3403854;0;
-569.3912;0;0;-536.4332;-0.1402444;0.9720989;-561.6486;-556.696;0.1241464;-0.2101087;0;
-231.926;0;0;-240.2928;-3.891148;-0.1675877;-226.9397;-224.366;0.05905427;0.3098412;0;
-237.5025;0;0;-245.736;3.078987;2.846691;-231.1469;-232.2614;-0.005972407;0.1146278;0;
47.46801;0;0;7.946054;3.009521;2.776847;48.38247;48.70583;0.1239683;-0.0803894;0;
636.7491;0;0;567.0945;-0.2086843;1.233572;630.9785;632.2385;-0.00609097;0.1795608;0;
554.3379;0;0;533.6038;-0.1421017;1.165349;553.3207;551.6435;-0.2009869;0.2443477;0;
177.8448;0;0;202.6087;-3.35714;-0.9792755;181.7012;180.7128;0.05908445;0.1791348;0;
196.0319;0;0;216.7104;-4.894008;-1.17924;198.0104;201.1459;-0.2008443;0.2439222;0;
-46.16841;0;0;3.974474;1.3402;-2.249782;-40.44384;-36.8117;-0.0707078;0.04877504;0;
-606.7777;0;0;-524.7637;3.348586;-2.649419;-594.4372;-591.1211;0.5140693;-0.08120867;0;
-570.1237;0;0;-532.4199;-1.343828;1.506185;-560.9814;-556.919;-0.006185948;-0.2110618;0;
-231.9705;0;0;-239.4694;-0.06968021;3.112139;-226.0858;-224.1514;-0.2010818;-0.2108497;0;
-245.2306;0;0;-255.0958;-0.002261231;2.3722;-236.5408;-237.6068;0.123957;-0.08070313;0;
46.80665;0;0;1.094414;1.20319;2.4368;50.99;50.86208;0.0588651;-0.01565469;0;
644.9589;0;0;568.8704;6.158474;6.185395;641.6418;642.3262;-0.07112873;-0.01563896;0;
555.6679;0;0;533.2539;7.692527;5.710299;556.4771;555.2242;0.05887743;0.0493441;0;
182.9217;0;0;209.1308;14.44995;6.709306;187.6656;188.8502;0.5135896;-0.01567282;0;
198.1051;0;0;220.9146;16.11037;6.635581;199.9082;205.3395;0.2532042;-0.1455918;0;
-58.90232;0;0;-6.755546;20.64853;-4.690958;-53.16552;-48.61424;-0.0718869;-0.2753802;0;
-608.5668;0;0;-528.549;23.23976;-8.772081;-596.2766;-592.5419;0.05812002;-0.01523408;0;
-561.8535;0;0;-531.4537;13.30342;-12.11241;-551.6371;-547.1566;-0.00690572;0.699422;0;
-229.3933;0;0;-242.1273;12.4194;-16.1191;-221.7483;-219.896;-0.1368335;0.5687845;0;
-244.0928;0;0;-252.3788;3.297237;-14.96419;-235.456;-236.5416;-0.00676129;-0.2113951;0;
39.82241;0;0;0.3729254;-0.8582855;-15.41803;43.2656;43.30554;-0.006754496;-0.01628066;0;
646.1651;0;0;574.8962;3.228414;-17.67996;642.7333;642.5233;-0.1366824;0.3085724;0;
574.2391;0;0;551.2677;0.4121307;-17.46125;573.6843;571.4131;-0.3964144;0.1783277;0;
192.2914;0;0;216.2569;14.34319;-11.95123;195.6726;195.84;-0.4609835;-0.2116556;0;
214.7118;0;0;235.2799;19.15155;-9.929729;215.6534;219.9435;-0.1356835;-0.1464756;0;
-30.31842;0;0;18.71475;10.2237;-4.092358;-26.00446;-21.34387;0.1892895;0.1785083;0;
-610.3089;0;0;-532.0897;11.21878;-0.06939197;-599.0028;-594.6592;0.124132;-0.08154041;0;
-581.8972;0;0;-551.9198;10.40322;-2.547691;-573.9132;-568.0123;0.1889746;-0.08145848;0;
-238.5472;0;0;-252.5155;8.918901;-0.6026258;-234.4444;-230.7358;0.3187194;0.04855807;0;
-248.9272;0;0;-259.8829;12.99578;-2.745474;-242.3922;-243.4974;-0.07140492;-0.08142542;0;
36.61702;0;0;-6.998752;13.25114;-3.613372;37.39832;36.41915;-0.4611372;-0.2762456;0;
639.1523;0;0;564.9708;9.754223;0.4760961;632.1243;632.3954;-0.3307392;-0.4059027;0;
565.2969;0;0;541.8519;10.41498;0.006737154;562.8361;561.0456;-0.2004722;0.04927652;0;
193.603;0;0;217.6577;2.165495;2.150062;194.8928;194.6657;0.05959863;-0.08070769;0;
211.1495;0;0;233.1186;-1.587725;3.085663;210.1267;213.9603;0.05953874;-0.4054633;0;
-47.55773;0;0;4.249261;11.14087;-1.941036;-43.83192;-40.56434;0.2543809;-0.08021919;0;
-610.3521;0;0;-530.5487;12.26778;-2.608914;-599.446;-596.9939;0.7088968;0.1797308;0;
-566.7604;0;0;-540.3854;11.11735;-3.744881;-558.1767;-553.9778;0.3183804;0.1795502;0;
-232.4211;0;0;-251.1125;12.04321;-4.47793;-226.6572;-224.0243;-0.1367109;-0.01553223;0;
-233.9367;0;0;-247.237;8.280064;-3.200877;-226.0546;-226.7352;-0.07160621;-0.08048398;0;
51.40503;0;0;6.508969;7.803229;-3.331505;54.65652;53.4769;-0.1365016;0.3743683;0;
635.1224;0;0;563.0352;2.034612;2.499114;631.3742;630.4456;-0.006429764;0.5039268;0;
562.4579;0;0;541.8548;-0.5794004;5.510835;561.8994;560.2846;-0.006423303;0.2435511;0;
183.7079;0;0;209.4147;1.028772;3.428827;186.0859;185.972;-0.1363515;0.1133717;0;
195.5173;0;0;217.7;0.424526;5.769784;194.4571;198.7161;0.2535895;-0.08164427;0;
-39.93591;0;0;7.33687;0.7598682;5.496055;-37.05949;-32.99218;0.5781714;-0.4063989;0;
-602.363;0;0;-526.4647;1.830832;6.227345;-591.8059;-589.8041;0.1228191;-0.2110886;0;
-571.8353;0;0;-543.2395;1.761643;14.45974;-562.913;-559.4764;-0.07220635;-0.1459091;0;
-224.0603;0;0;-242.0323;1.759873;18.06217;-218.0204;-216.5239;-0.007166455;-0.01582781;0;
-229.3949;0;0;-242.9135;10.73309;16.03466;-222.1742;-224.4897;0.3826448;0.2440575;0;
44.32318;0;0;3.206975;12.9331;17.89394;46.22678;45.03801;0.5121949;-0.08102449;0;
635.7938;0;0;564.734;13.12118;18.47881;630.8864;630.3235;-0.2679278;-0.2108778;0;
563.6909;0;0;542.5524;15.45252;17.65645;562.1617;559.6004;-0.4625606;0.1141709;0;
193.6227;0;0;219.2945;5.858799;25.94447;195.0936;194.5963;-0.007324396;-0.01587855;0;
209.4201;0;0;229.5688;4.445417;27.52587;208.2034;211.9545;0.3175197;0.04910475;0;
-38.29089;0;0;9.07389;3.235501;22.94349;-34.82127;-30.51175;0.57707;-0.08087929;0;
-595.0975;0;0;-515.2966;1.490938;23.72423;-582.8858;-578.8304;0.3815881;-0.5355694;0;
-568.1378;0;0;-533.7693;5.977418;12.24656;-557.6874;-551.8871;-0.07356669;-0.2101946;0;
-239.9816;0;0;-250.9999;6.373554;7.746518;-233.6022;-229.3069;-0.3983295;-0.08004867;0;
-241.9893;0;0;-247.7492;11.12257;16.44639;-234.1796;-233.6367;-0.2679946;-0.4048049;0;
40.79929;0;0;4.872913;12.51792;16.16194;44.04099;45.08305;-0.1377906;-0.4693655;0;
634.4598;0;0;566.5857;17.52918;16.01173;630.7018;631.7429;0.1222172;-0.5338613;0;
567.5432;0;0;552.0859;20.59205;16.8663;567.2872;565.0163;0.5118984;-0.3384228;0;
186.1643;0;0;219.448;10.25623;16.44757;189.4693;189.6994;-0.1382893;-0.2081481;0;
200.2201;0;0;228.0356;7.500235;17.03377;201.2104;206.8126;-0.3330524;-0.5327756;0;
-29.1159;0;0;22.84701;9.501454;17.15062;-24.56591;-18.46956;0.05708634;0.05246579;0;
-599.3;0;0;-522.152;7.01366;17.20037;-587.9455;-582.1052;-0.4627098;0.5071844;0;
-581.2067;0;0;-552.6743;4.394645;16.98214;-572.3623;-565.4658;-0.3323101;0.1818381;0;
-230.5486;0;0;-244.0863;2.782639;16.29537;-225.3363;-219.5088;-0.07210687;-0.07821396;0;
-234.8772;0;0;-241.4047;-5.45918;14.80537;-227.5462;-225.1603;0.05790027;-0.3380047;0;
35.16073;0;0;-2.344695;-10.47656;12.71402;37.67426;40.30766;0.4476461;-0.2077304;0;
635.636;0;0;563.7481;-0.2856038;15.11264;630.5259;634.1561;-0.2674444;0.117315;0;
569.2804;0;0;546.4401;0.5863153;15.56633;567.986;568.2393;-0.4620777;-0.2076396;0;
187.0252;0;0;212.3087;-6.916362;6.039357;189.9175;190.8577;0.382962;-0.1424636;0;
199.1436;0;0;218.9044;-7.04411;3.755869;200.034;205.4085;0.05774052;-0.01238575;0;
-41.56059;0;0;3.85496;-9.380581;4.555891;-36.5482;-32.30351;-0.2671542;-0.142308;0;
-599.7382;0;0;-524.6957;-9.438504;2.943722;-588.0468;-585.5554;0.05795094;-0.01223032;0;
-569.7129;0;0;-542.2219;-7.82143;7.897379;-560.4694;-556.8562;-0.007074631;-0.01221803;0;
-232.0599;0;0;-247.8248;-6.072259;9.16212;-226.0741;-224.1511;-0.2669369;0.05276159;0;
-235.1376;0;0;-244.8897;-1.176037;10.49257;-227.0963;-228.4861;-0.136734;-0.2071608;0;
33.77617;0;0;-5.388856;3.044703;12.75933;36.93679;36.298;0.1232728;-0.4018547;0;
623.5083;0;0;553.2108;6.92641;10.46921;618.9196;618.9686;0.3180509;-0.07661418;0;
568.3467;0;0;546.5955;10.80422;10.7936;566.5737;563.6866;0.252764;0.2482995;0;
194.1509;0;0;223.146;20.30518;12.92609;196.5651;195.4301;-0.137294;0.1181154;0;
208.5735;0;0;235.2906;25.0402;12.9131;208.549;213.2871;-0.2021234;-0.6616114;0;
-26.01828;0;0;24.28513;29.03353;12.29728;-22.16968;-17.31137;-0.007018286;-0.9857833;0;
-601.7652;0;0;-520.403;33.29126;11.2803;-589.6122;-584.8837;-0.07197858;-0.2051847;0;
-585.6683;0;0;-549.3653;26.09149;13.74721;-575.589;-567.8668;0.1879631;0.3147602;0;
-233.694;0;0;-244.8411;24.9262;15.27401;-226.8106;-221.5324;-0.1370625;-0.01039281;0;
-241.3927;0;0;-247.5311;26.77716;4.40767;-231.018;-230.6801;-0.3967941;-0.2052844;0;
17.40739;0;0;-16.14853;24.74052;1.790907;23.58625;24.73588;-0.2014934;0.1847259;0;
626.2714;0;0;560.3904;24.64832;7.14762;624.7604;626.2212;-0.3312256;0.2495077;0;
576.1669;0;0;560.9518;22.41372;6.00185;578.3431;577.9908;-0.3958601;-0.07557977;0;
196.0288;0;0;231.6783;23.99879;12.89482;202.1383;205.2222;-0.2655277;-0.01053647;0;
215.0097;0;0;248.1247;24.24212;15.22626;218.5518;225.8805;-0.1353262;-0.1404606;0;
-24.39863;0;0;39.41763;13.23305;10.12038;-16.11242;-10.47778;-0.07022288;-0.4001888;0;
-602.4586;0;0;-510.3456;9.60243;9.775299;-585.9973;-582.3673;-0.3300217;-0.2048847;0;
-586.4235;0;0;-548.9382;12.67424;9.966426;-571.1656;-566.3524;-0.3946574;0.1851253;0;
-243.1939;0;0;-252.7227;10.31698;9.554514;-230.6376;-227.3284;-0.2643262;0.3148739;0;
-243.6367;0;0;-248.4708;16.26846;5.258128;-229.6562;-230.036;0.06077613;0.3795249;0;
29.7208;0;0;-4.281267;19.46632;3.444305;38.56484;38.18541;0.06071506;0.5090782;0;
632.5754;0;0;565.6865;3.639276;5.316366;633.4771;633.9101;-0.32915;0.4435993;0;
575.2183;0;0;555.6229;-0.5165905;5.712922;578.9301;577.926;-0.3288193;0.3781863;0;
196.268;0;0;228.1664;9.865429;3.228813;203.8491;205.0324;-0.1335868;0.2478716;0;
213.4995;0;0;242.8047;7.176199;3.091603;219.3239;224.1292;-0.003517932;0.0527205;0;
-22.84631;0;0;31.16698;15.60908;8.781924;-12.71742;-8.978988;0.3213223;0.2475695;0;
-595.9103;0;0;-509.3427;18.40644;10.78259;-579.1074;-576.1849;0.1910648;0.1823535;0;
-578.1951;0;0;-536.9417;2.379387;13.11603;-564.4077;-559.3641;-0.1339639;0.05223554;0;
-228.5396;0;0;-236.8028;2.711789;15.64821;-218.5766;-215.4746;0.1910074;0.2470851;0;
-231.1835;0;0;-237.252;-17.4517;16.23533;-219.3564;-220.6928;0.06088078;0.4417388;0;
27.98112;0;0;-4.942787;-26.81226;18.49631;34.98623;35.08795;-0.3289844;0.3763276;0;
630.0878;0;0;566.0876;0.543714;15.06172;629.3398;631.3155;-0.2636865;0.1160801;0;
576.4813;0;0;561.8332;2.686621;14.10883;578.92;578.6448;-0.06851956;0.3758329;0;
190.0336;0;0;222.2516;6.969853;20.65885;195.843;196.88;0.1914186;0.4404226;0;
211.5192;0;0;234.4595;13.12577;21.50875;214.0745;218.921;-0.1336104;-0.4045954;0;
-17.14099;0;0;31.1385;0.5866489;20.08062;-10.71524;-5.748691;-0.1984435;-0.4691562;0;
-597.8318;0;0;-515.9928;-0.8204601;20.19441;-583.5415;-578.7049;0.19156;-0.01391342;0;
-583.9879;0;0;-548.2703;5.879146;17.36083;-572.4604;-565.8171;-0.1984366;0.2459699;0;
-237.9497;0;0;-248.9946;6.274404;15.93687;-231.1815;-225.4194;-0.2632045;0.3106901;0;
-237.6481;0;0;-245.2461;-0.1622624;14.9831;-230.0746;-227.1294;0.321766;-0.2093608;0;
34.14168;0;0;-5.182767;-0.8316846;12.89157;36.08536;38.40295;0.4513774;-0.4040525;0;
624.8729;0;0;551.73;-5.385201;14.01733;618.6937;620.5092;0.3859565;-0.01384242;0;
563.588;0;0;538.4945;-8.126455;13.60135;559.8513;560.4156;0.450536;0.3759755;0;
191.396;0;0;213.6789;0.857667;7.291404;191.1613;193.4742;0.1252466;0.4405651;0;
212.2556;0;0;228.769;1.32532;5.140746;209.1476;214.3317;-0.4595853;-0.01464897;0;
-18.52923;0;0;23.01746;5.678245;7.68081;-17.26134;-12.95701;0.06061524;-0.07960161;0;
-589.0363;0;0;-515.5475;7.882366;7.539126;-579.0866;-575.1614;0.190489;0.05041307;0;
-577.1376;0;0;-547.9504;3.788609;6.861722;-570.0715;-563.6515;-0.2644738;-0.1445396;0;
-238.2278;0;0;-254.7969;4.388014;7.323708;-235.1042;-230.065;0.125596;-0.2093617;0;
-243.2983;0;0;-256.1026;-2.917413;6.311605;-237.0544;-235.7683;0.06050247;-0.07921668;0;
20.68863;0;0;-19.27667;-5.191657;5.50159;22.92823;24.77522;-0.3293624;0.115765;0;
624.9266;0;0;553.6422;-6.995101;10.58664;620.5423;623.0746;-0.4589661;0.1156486;0;
577.4472;0;0;553.6481;-10.33698;10.97778;577.5651;578.3456;-0.3935376;-0.339239;0;
185.4388;0;0;213.0753;-1.284259;12.77529;189.3046;192.833;-0.06830546;-0.4688328;0;
197.4963;0;0;223.9181;0.7931367;15.50875;198.6721;207.007;-0.2631389;-0.2734597;0;
-17.84403;0;0;35.66261;-5.03481;1.493981;-11.29712;-3.532725;-0.1329398;-0.07828288;0;
-594.7861;0;0;-507.1004;-5.097099;-1.856545;-579.1878;-572.8055;0.06209584;-0.2081389;0;
-589.3159;0;0;-546.2584;-4.287694;3.972713;-575.4824;-567.8572;-0.2628033;-0.2079298;0;
-231.7157;0;0;-232.492;-6.092047;1.825268;-220.9571;-214.5264;-0.06763718;0.1171159;0;
-234.4189;0;0;-226.9486;-0.3251499;10.93287;-220.5477;-217.8091;0.06236547;0.05203087;0;
21.12582;0;0;-3.582679;0.478484;13.93612;31.48488;33.53355;0.06230281;-0.1429235;0;
628.2369;0;0;565.0101;-8.564326;7.156958;630.777;633.5107;0.1921749;-0.2727145;0;
575.3195;0;0;562.4434;-10.02959;8.556408;580.8555;582.2122;-0.3277569;-0.2074732;0;
187.8733;0;0;224.2355;-17.45425;2.7874;196.902;200.0065;-0.392395;-0.272232;0;
213.3591;0;0;238.9402;-21.25511;0.2393703;218.943;225.6675;0.2576728;-0.2069912;0;
-9.056053;0;0;42.61113;-17.14791;8.477786;1.019927;7.113002;0.3223812;0.1830209;0;
-591.0045;0;0;-503.0949;-18.33613;8.134354;-573.7547;-568.2924;0.1271552;0.3127717;0;
-590.4106;0;0;-549.0035;-14.09717;11.40822;-576.8013;-569.2206;0.2569622;0.3774247;0;
-245.2405;0;0;-252.2883;-12.54277;13.00435;-236.0802;-230.0689;-0.003165427;0.1821435;0;
-238.185;0;0;-242.3522;-11.59216;5.958196;-227.3473;-226.0271;0.1917398;-0.01294156;0;
26.54634;0;0;-5.227711;-9.035891;5.282502;33.12532;33.8195;0.3214818;0.2469408;0;
626.5306;0;0;564.0539;-11.83985;-0.8181307;625.1069;626.7375;0.06128941;0.116758;0;
580.5488;0;0;563.4871;-10.68888;-4.434387;582.3126;581.755;0.1261952;-0.013294;0;
191.9105;0;0;222.2172;-10.94656;1.12953;197.7329;199.4249;-0.1987683;0.116654;0;
205.1485;0;0;230.6146;-10.80184;0.3917049;207.0295;213.7172;-0.1985686;-0.07836521;0;
-5.202049;0;0;43.60173;-7.575801;0.2573454;-0.5118183;5.044717;-0.06843442;-0.01331911;0;
-578.1588;0;0;-496.3582;-7.701911;0.7258453;-566.4144;-561.3632;-0.06836565;0.116629;0;
-586.7607;0;0;-549.8323;-1.464881;-1.418216;-577.8392;-570.2319;0.06163773;-0.1433576;0;
-240.0327;0;0;-253.2411;0.07683188;-1.349808;-235.8677;-229.7048;-0.00339155;0.1166558;0;
-236.2308;0;0;-246.1776;-2.467865;-0.7456052;-230.071;-227.5999;-0.06835549;0.2464733;0;
13.94345;0;0;-22.85488;-1.393658;0.05893921;16.03662;18.25534;0.1266152;-0.4034478;0;
618.5005;0;0;549.9427;-10.03342;-2.017591;612.2833;615.6867;0.3863574;-0.5329771;0;
582.8967;0;0;561.8214;-12.09945;-2.61841;579.8715;581.3975;0.06113245;-0.1426375;0;
196.4424;0;0;220.9279;-11.14928;3.144631;197.6057;199.9422;-0.133831;-0.1424942;0;
208.239;0;0;224.7664;-12.61195;4.816045;206.3402;212.1101;-0.003761847;-0.2073184;0;
-11.8597;0;0;31.01279;-7.240641;4.141376;-10.13342;-3.86957;0.06120927;0.182694;0;
-583.8103;0;0;-507.3728;-6.161639;5.409891;-574.652;-568.207;0.3210171;0.3124451;0;
-586.7219;0;0;-555.7134;-5.686933;5.002557;-580.3839;-572.5711;0.06082521;-0.2076076;0;
-247.8024;0;0;-262.2397;-6.217082;5.332445;-245.5313;-239.7878;-0.004203248;0.05247042;0;
-235.3721;0;0;-247.546;1.223904;5.996795;-230.6044;-229.302;0.1257357;0.1823524;0;
30.10612;0;0;-12.85261;3.634548;5.923786;30.68358;31.73484;-0.004325364;-0.1426676;0;
623.3401;0;0;548.1908;-9.497271;7.994305;615.7961;618.1581;-0.004321018;0.05237782;0;
578.611;0;0;553.1997;-11.76588;8.991015;574.8226;576.1828;0.1905853;0.1172925;0;
198.1581;0;0;225.4333;-16.84427;6.168698;199.8083;203.0412;0.1254265;-0.01276;0;
212.1393;0;0;237.2632;-20.84583;6.095517;212.3511;218.7666;-0.2645036;-0.2076492;0;
-5.339643;0;0;47.80743;-17.47599;7.496034;-0.06809749;5.216536;-0.004368432;-0.1424732;0;
-584.6681;0;0;-497.4041;-18.53015;7.689451;-572.218;-566.8762;0.2555053;0.1175393;0;
-596.137;0;0;-557.124;-13.95718;9.490264;-587.6349;-580.2371;0.06034657;-0.07748084;0;
-245.1517;0;0;-256.7149;-11.46491;10.08357;-240.906;-235.0772;0.1902206;0.2474337;0;
-235.4101;0;0;-243.526;-10.9839;9.738527;-227.483;-225.8455;-0.1997746;0.3121524;0;
16.63737;0;0;-17.02002;-7.691311;9.192879;22.43255;22.56914;-0.6543452;-0.2728673;0;
623.8154;0;0;558.8326;-8.152097;12.26473;621.7338;622.6198;-0.2638837;-0.1426584;0;
587.1442;0;0;570.7648;-6.469943;13.12319;587.8133;588.2612;-0.1336839;0.247289;0;
193.4394;0;0;229.55;-3.448356;7.818473;199.4176;200.8645;-0.3934189;0.1171058;0;
202.5528;0;0;234.8166;-3.311169;7.609668;206.2761;211.0325;-0.2630889;0.05202081;0;
-9.66912;0;0;48.42426;5.935559;2.645407;-2.201438;2.300248;0.1919468;0.2468706;0;
-578.5609;0;0;-483.6695;9.88171;-0.3043782;-563.6046;-559.4197;-0.003148052;0.1166878;0;
-586.5378;0;0;-539.1553;-0.9128374;7.599669;-575.282;-568.1654;-0.587851;-0.4031682;0;
-248.618;0;0;-254.0066;-1.648854;7.525051;-242.1212;-236.6984;-0.5872603;-0.2728284;0;
-240.4347;0;0;-239.7585;-2.785298;7.718438;-231.8205;-230.5885;-0.4567355;0.05228248;0;
23.29946;0;0;-3.323764;-5.796609;7.308785;26.28285;28.76297;-0.3913093;-0.01273739;0;
625.161;0;0;563.0199;3.251545;6.631612;619.7081;623.9974;-0.390916;0.05224275;0;
584.428;0;0;568.3887;4.453727;6.691931;583.291;585.7643;-0.3255559;-0.01277709;0;
199.8463;0;0;231.7365;-0.3735192;-1.084569;202.4585;206.9908;-0.3901961;-0.1426989;0;
208.0787;0;0;236.2513;-0.7752855;-1.887274;207.3775;216.4654;-0.4547714;0.1822812;0;
-7.647007;0;0;46.9839;-3.922338;-9.320361;-4.349575;5.16653;0.0004569293;0.4419674;0;
-579.5394;0;0;-490.9804;-6.999856;-11.99019;-567.8745;-558.6802;0.3252932;0.4415233;0;
-591.9505;0;0;-547.6459;-4.178807;-2.399828;-582.1714;-571.3622;0.06509695;0.1162429;0;
-240.3447;0;0;-243.8105;-6.251689;-0.8568097;-235.1355;-225.899;0.3249009;0.2460608;0;
-237.9792;0;0;-234.6325;-8.054069;8.521418;-230.4015;-225.1098;0.5194764;0.3107809;0;
-5.606771;0;0;-28.31286;-7.442764;13.53645;-1.285081;4.626053;-0.06575157;0.2455013;0;
612.9005;0;0;552.861;-20.69717;15.46536;609.4717;616.5013;-0.2605875;0.3751893;0;
594.6685;0;0;579.5417;-22.48504;19.80359;593.6794;598.6406;-0.130391;0.1149429;0;
193.3974;0;0;230.4471;-24.40483;16.30058;196.5322;202.5503;-0.13026;-0.01510724;0;
212.4434;0;0;243.6463;-28.39977;17.22196;212.9514;222.9614;-0.0001944195;-0.01509206;0;
9.706692;0;0;64.11662;-5.530176;15.86499;13.27519;24.3996;0.06477312;-0.1450116;0;
-583.3799;0;0;-492.543;-0.6354752;14.71046;-571.819;-560.7683;0.1946427;-0.1448659;0;
-604.5953;0;0;-556.7031;-2.041356;15.7003;-594.9825;-583.0684;0.1944471;0.1801164;0;
-254.7259;0;0;-258.3559;2.046532;14.07706;-250.0578;-239.9671;-0.0006502678;0.5697395;0;
-245.0996;0;0;-251.1623;-4.720679;16.67513;-239.2493;-233.5416;0.06431773;-0.08050644;0;
8.706698;0;0;-28.20939;-3.443138;15.98854;9.741028;15.2556;0.1292204;-0.3402949;0;
620.0157;0;0;549.0913;-16.76892;16.03946;613.2404;620.4985;-0.06581143;0.1148184;0;
590.0949;0;0;566.7804;-22.31177;16.49223;586.4498;591.7017;-0.0007779548;0.3096051;0;
197.7614;0;0;224.9449;-9.763422;8.370963;198.3679;204.3641;0.06419017;0.2443266;0;
206.2458;0;0;228.5919;-9.954682;6.420047;204.6028;214.7784;-0.1957437;-0.2106903;0;
-5.1053;0;0;42.89299;-7.532806;5.944715;-3.310875;6.667074;-0.06561233;-0.01557652;0;
-575.376;0;0;-494.0052;-5.917647;4.264291;-565.8373;-556.7439;0.1293556;0.5041779;0;
-588.2286;0;0;-551.6047;-4.304111;9.551536;-580.9484;-569.6152;-0.0007090371;0.4387039;0;
-243.4356;0;0;-254.8243;-1.888888;11.41734;-241.0352;-230.713;-0.06567567;0.3732958;0;
-233.6958;0;0;-242.3244;-8.317351;7.186064;-228.9864;-223.2973;0.1292924;0.1130513;0;
5.106647;0;0;-29.25042;-9.648165;6.040133;5.875728;10.43474;0.0641951;-0.01699697;0;
608.3608;0;0;541.9294;-6.959153;14.47379;601.1956;606.1873;-0.5855428;-0.1469146;0;
588.5717;0;0;568.3713;-7.220581;14.79416;584.5995;587.6497;-0.5849544;-0.4716037;0;
190.7424;0;0;220.2874;-7.414396;14.31042;191.0846;196.1932;-0.06462797;-0.3411951;0;
193.7366;0;0;217.7547;-6.201497;14.96587;192.0795;201.6807;-0.1295304;-0.01601557;0;
1.513511;0;0;47.49635;-11.75399;2.291299;3.66864;13.63498;0.1304691;0.1139352;0;
-569.7634;0;0;-490.5934;-13.61819;-0.9930446;-559.8643;-550.6576;0.5851094;-0.2759833;0;
-598.4261;0;0;-560.2527;-3.556827;-6.484525;-589.9738;-579.9018;0.3896195;-0.4056407;0;
-250.8118;0;0;-259.2158;-3.084739;-10.63083;-245.9286;-237.6159;0.194326;0.179473;0;
-240.5648;0;0;-245.0873;3.683515;-4.859859;-233.6251;-228.8814;0.06419604;0.04935795;0;
5.053588;0;0;-26.57576;8.167792;-4.587044;7.73845;12.41492;-0.1307705;-0.08062635;0;
616.2413;0;0;549.7238;-7.380455;-0.831391;611.0524;615.7242;-0.3255411;0.04938937;0;
590.5722;0;0;571.6601;-8.98063;1.781657;588.512;591.5548;-0.4551487;-0.1455623;0;
194.1152;0;0;226.1341;-11.98572;5.932686;195.8052;200.7816;0.06504737;0.1794207;0;
193.5454;0;0;218.7854;-17.06389;9.610786;192.61;201.0796;0.259884;0.3091751;0;
-11.67103;0;0;37.03186;0.03354014;9.735095;-7.670496;0.5407236;-0.0002464635;-0.08093964;0;
-575.7507;0;0;-491.6147;4.119343;11.80166;-563.5084;-556.3674;0.1296885;-0.1458257;0;
-592.3511;0;0;-548.7792;-7.27165;10.2492;-582.6198;-574.424;-0.1303112;-0.1456791;0;
-251.7393;0;0;-253.7508;-6.662107;9.569191;-246.453;-239.3275;-0.0002455901;-0.08056541;0;
-242.7408;0;0;-244.2505;-6.922857;12.17179;-235.8356;-231.4658;0.1296893;0.3093196;0;
6.627919;0;0;-23.74076;-8.523491;12.29352;9.965414;14.45577;-0.4551471;0.4389435;0;
617.1893;0;0;556.3041;1.465408;8.664214;613.9018;618.4501;-0.129853;0.2436004;0;
597.0165;0;0;582.7315;3.741111;7.851714;597.2305;600.2126;0.2600815;0.04845362;0;
196.4927;0;0;232.0095;-3.161524;8.312705;201.1417;205.6825;0.06491817;-0.2764318;0;
196.5451;0;0;228.3406;-4.833286;8.706249;199.253;207.5373;-0.06508175;-0.1462193;0;
5.381104;0;0;61.75726;-1.5459;7.893706;12.02178;20.92244;0.2598203;0.04882961;0;
-569.5853;0;0;-476.8466;-1.611696;8.153707;-554.0807;-546.7507;0.6493633;-0.3410235;0;
-602.2463;0;0;-552.829;-9.112164;12.96816;-588.2565;-580.2468;0.2589068;-0.4706155;0;
-251.8794;0;0;-252.4867;-10.7106;14.49574;-243.2136;-235.4617;0.06374463;-0.08033861;0;
-240.6943;0;0;-239.2396;-13.6466;18.63399;-231.1627;-226.3546;0.1286479;0.5044482;0;
-3.384156;0;0;-30.54145;-15.50792;21.02653;1.077991;5.818752;-0.1313507;0.1141373;0;
603.2518;0;0;542.3263;-11.60757;19.46492;599.2137;604.4495;0.1286506;-0.7305529;0;
589.8396;0;0;574.4525;-11.66326;20.71792;587.6796;591.9731;0.1285214;-0.3400148;0;
200.255;0;0;235.6702;-5.221176;16.20936;201.2206;208.3833;-0.1964445;-0.1447711;0;
197.1177;0;0;228.3745;-2.603962;14.45164;196.0834;207.0495;-0.3261818;-0.1446256;0;
-1.04334;0;0;49.92208;-0.860033;18.32201;2.546061;12.81397;-0.3908214;0.05042175;0;
-567.8199;0;0;-483.2976;3.495088;18.16963;-556.5505;-547.105;0.1942774;-0.144531;0;
-598.796;0;0;-557.4619;-8.029;16.34284;-589.287;-578.1644;0.1291149;-0.2743204;0;
-261.6135;0;0;-269.9835;-10.56653;16.12547;-255.4249;-245.6253;-0.2608189;-0.2090774;0;
-253.667;0;0;-255.9691;-0.1070616;16.64513;-245.673;-239.6938;-0.06565484;-0.07893267;0;
-5.224362;0;0;-34.51063;-0.3743977;16.96332;-1.736166;3.674824;-0.0006215245;0.2459834;0;
604.3495;0;0;539.2982;5.185684;15.20472;599.5883;606.0558;-0.3904249;0.1807689;0;
591.2485;0;0;572.3644;8.529376;14.31878;588.5536;593.8902;-0.7798367;-0.4041189;0;
204.3486;0;0;238.8316;-4.005125;19.26101;206.0292;212.5473;-0.6491184;-0.7935168;0;
199.4581;0;0;231.97;-6.210927;20.51421;199.7627;209.3353;0.3260439;-0.1430461;0;
3.730991;0;0;54.32604;-3.660067;17.74742;7.783397;17.15891;0.5855857;0.3768364;0;
-568.4851;0;0;-487.0814;-5.933565;18.4664;-557.6902;-548.8863;-0.06467613;0.3114904;0;
-607.8938;0;0;-568.3634;-1.573346;14.62994;-599.3586;-589.3766;0.0003561988;0.5060794;0;
-254.9601;0;0;-266.5063;-1.103251;12.60575;-250.1816;-241.7089;-0.0646115;0.3106689;0;
-239.2117;0;0;-247.8727;-4.719465;19.02332;-232.3765;-227.7229;-0.1944813;-0.07944734;0;
-5.33878;0;0;-39.41579;-4.312581;19.07119;-2.883253;0.9535391;0.06558352;0.2454692;0;
610.7319;0;0;542.2065;-8.595156;16.90858;605.6263;609.3967;0.1954523;0.1802552;0;
602.1223;0;0;579.7675;-9.791967;16.08779;600.645;602.2877;0.2602232;-0.2746973;0;
201.5308;0;0;232.2344;-6.433226;14.86593;204.4902;207.3807;0.3249291;0.2453175;0;
197.8301;0;0;227.0035;-6.761555;14.71715;198.6001;205.1733;-0.1301688;0.5049403;0;
1.479884;0;0;54.7369;-0.7938896;6.463585;6.559492;12.62635;-0.3899073;0.04966157;0;
-570.5466;0;0;-481.7984;2.221994;4.112809;-557.5386;-551.5403;0.1302232;-0.1452904;0;
-599.396;0;0;-553.2781;-4.947535;4.242643;-588.5875;-580.7836;0.3899617;-0.1451444;0;
-255.7786;0;0;-260.744;-5.880568;1.826994;-249.1664;-243.8066;0.1946678;-0.2749332;0;
-246.7136;0;0;-248.488;-0.7844445;11.20253;-237.2968;-236.2528;-0.1303645;-0.274657;0;
-0.2769054;0;0;-27.53676;-0.8500292;13.73662;5.194841;6.237813;-0.2601682;-0.07947896;0;
612.6028;0;0;549.9506;-2.657836;10.44065;608.5739;610.4903;-0.1299721;0.4403397;0;
599.556;0;0;581.4445;-4.061685;12.30569;597.655;597.6331;-0.06487412;0.6347992;0;
210.7737;0;0;244.8416;-2.248943;9.011278;213.2474;215.2869;-0.3246783;0.3093247;0;
205.3145;0;0;235.85;-1.174956;7.930497;205.5369;211.5724;-0.3243521;-0.2107249;0;
-0.03863946;0;0;52.64247;-11.02039;12.94613;4.868641;10.27335;0.1957126;-0.4703825;0;
-570.1895;0;0;-484.2656;-12.28211;13.20105;-556.9788;-551.3922;0.4553853;-0.01513848;0;
-601.7255;0;0;-558.6164;-11.73391;14.3265;-590.4646;-581.4478;-0.06481101;-0.08009063;0;
-253.1707;0;0;-257.706;-12.7265;16.52242;-246.0441;-237.7859;-0.1946806;-0.5347815;0;
-237.0493;0;0;-237.832;-5.278969;7.798275;-228.4306;-224.9283;0.1953191;-0.01450544;0;
-9.737764;0;0;-37.0063;-5.072594;6.65173;-5.250637;-2.376594;-0.1946812;0.2453785;0;
600.6527;0;0;537.3672;8.730255;12.07054;596.827;601.6971;-0.649257;0.1801646;0;
603.9222;0;0;584.8656;15.28557;12.05841;602.5991;606.09;-0.4537026;0.2449509;0;
199.7058;0;0;235.8281;-1.742725;18.00766;203.3815;207.8684;0.06649202;-0.08013194;0;
187.761;0;0;220.8485;-3.348565;19.26224;188.9343;198.3517;0.5861639;-0.5997902;0;
6.975628;0;0;58.14578;-4.349578;21.11828;12.08324;21.99097;0.1308036;-0.7291222;0;
-559.684;0;0;-475.8942;-9.10063;22.16879;-546.2108;-537.6248;0.1956395;0.05121857;0;
-601.9752;0;0;-561.2479;-0.3175753;17.65878;-591.6389;-581.9371;0.585247;0.2460691;0;
-261.666;0;0;-269.9551;0.6880978;16.90422;-255.6504;-247.0829;-0.1949492;-0.3388842;0;
-258.6545;0;0;-259.0017;-11.43638;8.916513;-250.2711;-243.7737;-0.1947533;-0.2735763;0;
-23.88746;0;0;-48.09736;-13.70207;5.558408;-19.94781;-12.89463;0.1952464;0.05153526;0;
601.0099;0;0;538.9684;-10.67419;5.351874;597.5743;604.6829;0.06511555;0.1814182;0;
606.528;0;0;587.9644;-10.59709;3.270147;605.782;611.1343;0.1300175;-0.1436009;0;
213.4283;0;0;247.7319;-9.112574;6.682869;216.1813;223.2773;-0.0650152;-0.4682933;0;
197.6592;0;0;227.8678;-7.764247;7.546932;198.223;209.4973;1.746777E-05;-0.4028554;0;
-4.812754;0;0;47.16707;-2.531533;10.88837;0.1857707;11.26134;0.2598868;-0.2725159;0;
-571.5855;0;0;-483.3637;1.154706;14.09261;-558.3462;-548.7809;-0.0002436853;0.05259464;0;
-604.4944;0;0;-557.8403;-2.797593;13.94449;-593.1424;-582.7747;-0.3250802;0.2474438;0;
-256.4366;0;0;-260.4915;-3.933858;16.20777;-248.4693;-238.7992;-0.1948188;0.1822278;0;
-247.2459;0;0;-247.7985;10.33734;19.00477;-236.663;-229.5638;0.1302136;-0.07782464;0;
-24.48435;0;0;-50.64846;14.01065;20.25823;-17.84754;-12.06734;0.1300828;-0.4675505;0;
591.3557;0;0;527.7992;3.547719;24.12288;589.5526;595.327;-0.06494993;-0.4021133;0;
600.819;0;0;580.8669;3.878946;25.43818;601.3915;605.7233;-0.129852;-0.01190525;0;
199.2293;0;0;234.8944;-6.239008;22.59946;203.9242;209.3136;0.0002131473;0.1830087;0;
185.286;0;0;220.9153;-11.32393;21.50502;187.4774;197.3592;0.1301476;0.1178575;0;
2.941421;0;0;59.96157;0.1416518;19.74186;9.191063;18.50067;0.1300168;-0.0121956;0;
-570.0236;0;0;-477.0163;0.7447219;17.71266;-555.222;-548.358;0.06491886;-0.4019874;0;
-616.8019;0;0;-564.0555;-1.39948;16.7571;-604.1392;-595.8453;-0.0001137121;-0.5315182;0;
-261.423;0;0;-263.2646;-0.7284887;16.40535;-254.4576;-247.1091;-0.06508094;0.05372199;0;
-251.1029;0;0;-251.8182;0.545041;10.49449;-242.7077;-238.0528;0.2598212;0.1836027;0;
-30.83618;0;0;-55.41379;1.61622;9.613163;-27.44694;-21.48482;-0.0003092737;0.2483855;0;
589.6329;0;0;530.3475;1.748318;10.4073;584.648;590.2293;-0.6499824;0.248136;0;
599.5352;0;0;585.9114;2.750939;9.124166;598.1784;600.4433;-0.5193946;-0.3368194;0;
206.3176;0;0;240.9957;-0.4670055;22.57832;209.0227;213.0344;-0.06410131;-0.336481;0;
196.1778;0;0;221.7631;-1.739334;26.37354;196.5688;204.9493;-0.0640369;0.3135305;0;
0.8287855;0;0;49.68918;3.152534;23.8688;5.404789;13.71439;-0.2588746;0.3781828;0;
-564.3255;0;0;-480.032;4.087371;25.92116;-551.7581;-544.5812;-0.1286798;0.1179335;0;
-605.3625;0;0;-562.3831;-0.6057851;24.15368;-594.1821;-585.4507;0.3262209;-0.07708708;0;
-257.4913;0;0;-261.8437;-1.877974;25.53593;-250.5075;-243.0343;0.4558278;-0.2719117;0;
-239.2416;0;0;-239.7791;1.339094;15.79799;-230.4532;-227.6102;0.3904024;-0.3366058;0;
-31.41807;0;0;-56.06787;1.271375;12.23214;-25.69947;-23.23415;-0.06476122;-0.2713002;0;
581.243;0;0;518.762;-1.476569;18.38216;578.835;582.2974;-0.3895329;-0.2060603;0;
609.6445;0;0;587.456;-2.614161;15.61739;608.6131;609.4483;0.1305973;-0.3357879;0;
205.922;0;0;238.8531;-2.07567;26.11777;209.8892;211.723;0.1954334;-0.2704832;0;
201.5297;0;0;231.929;-2.408378;28.77085;204.1811;210.5108;-0.06463234;-0.4001461;0;
35.34813;0;0;88.08066;-4.950577;17.08715;41.80741;47.94338;0.5201386;-0.3347766;0;
-558.5764;0;0;-466.3542;-5.012952;15.73032;-544.315;-539.3096;0.8444527;0.1852985;0;
-620.4213;0;0;-569.521;-7.954676;11.29377;-608.8604;-601.4862;0.3238655;0.2500796;0;
-254.8563;0;0;-256.231;-9.219481;8.938016;-248.1796;-241.2501;-0.1961987;0.05492634;0;
-247.7287;0;0;-246.4158;-5.191729;6.651737;-239.3095;-236.9472;-0.06606683;0.1848058;0;
-35.4613;0;0;-59.94929;-6.057168;5.037463;-30.67381;-29.25092;0.06393424;0.3145548;0;
594.4453;0;0;531.876;0.04448696;8.91729;591.9816;594.0901;-0.06606469;0.3142388;0;
611.7139;0;0;590.6243;1.450962;10.18101;611.9389;611.4217;-0.0659983;0.313923;0;
212.5496;0;0;244.9543;-3.841782;14.25661;216.2101;217.6924;-0.1958667;0.1836729;0;
205.527;0;0;236.3373;-3.369407;16.65367;205.1858;213.2883;-0.2606372;-0.1413484;0;
21.10056;0;0;73.05682;-13.54743;22.1964;23.32094;31.29037;0.1943961;-0.2061737;0;
-555.8182;0;0;-471.1806;-16.54792;25.12122;-545.604;-538.9545;0.3891028;-0.1409992;0;
-604.6724;0;0;-563.5355;-13.9857;23.42153;-595.7178;-586.8885;-0.001092252;-0.01092282;0;
-252.0542;0;0;-261.3083;-14.84231;23.59895;-247.4815;-240.2228;-0.001091154;-0.0758792;0;
-246.1163;0;0;-251.9878;-10.74155;22.43652;-240.1114;-236.9205;0.1288446;0.05413174;0;
-32.72613;0;0;-63.70415;-9.860106;22.01208;-30.41293;-27.66245;-0.1961215;0.2489794;0;
591.7429;0;0;525.3138;-0.7405189;14.0861;586.8074;590.1173;-0.0659898;0.1837618;0;
608.1398;0;0;585.1306;3.479784;11.45973;606.3326;607.7028;0.2589132;0.1835772;0;
198.2344;0;0;228.1593;-0.8779692;10.44347;200.8019;203.7948;0.258653;0.1833927;0;
186.541;0;0;213.9371;-0.5422943;7.820769;186.4823;193.4701;0.1284585;-0.01169355;0;
24.24756;0;0;70.29425;-0.3406786;14.77889;26.87503;32.91885;-0.1965073;-0.1416165;0;
-547.6144;0;0;-466.8814;-1.813229;15.36689;-538.118;-532.4551;-0.2612772;0.05342784;0;
-610.2198;0;0;-567.6739;-4.357002;16.62412;-602.7945;-594.1388;0.1287894;-0.07656054;0;
-244.6652;0;0;-256.8219;-5.625422;17.4782;-241.6201;-235.5342;0.2585947;-0.141451;0;
-225.9286;0;0;-236.7613;-13.72409;14.51339;-220.7626;-219.9928;-0.06650189;0.2484952;0;
-29.17539;0;0;-61.04914;-16.05483;13.36022;-27.26297;-26.30645;0.06349962;0.3132129;0;
582.4215;0;0;513.6608;-16.37349;9.260832;575.5864;578.0412;-0.1314662;-0.01193853;0;
599.6398;0;0;576.113;-17.69718;6.371382;595.3104;596.5133;-0.4561708;0.1829755;0;
199.4257;0;0;229.7705;-11.04797;2.614058;199.3484;202.5492;-0.3907451;0.247759;0;
193.853;0;0;216.4837;-10.23356;0.06608006;190.4025;197.5356;-0.5202872;-0.01235934;0;
16.99702;0;0;60.90674;-2.051605;-5.828362;16.54849;23.73684;-0.259895;0.05262042;0;
-554.4828;0;0;-470.5748;0.7644717;-9.037564;-546.1228;-540.4409;0.06520283;-0.0123998;0;
-609.2728;0;0;-563.6175;-1.514448;-3.937903;-602.2955;-595.37;0.0001699733;-0.4021914;0;
-258.899;0;0;-265.3258;0.02829097;-2.996185;-256.7388;-250.3199;-0.06479754;-0.07695057;0;
-241.7098;0;0;-248.1302;-10.15314;-3.060157;-236.8656;-234.6387;-0.1946671;0.1829961;0;
-32.2596;0;0;-64.09829;-12.48747;-1.114699;-30.16893;-28.44392;-0.2594388;0.1828123;0;
581.3394;0;0;514.1755;-16.49341;-0.2428013;575.6819;579.1542;-0.3241455;0.4424979;0;
606.1175;0;0;584.6232;-19.2235;0.1593402;603.3392;605.9336;-0.1938851;0.2471513;0;
211.5815;0;0;247.1426;-16.59124;8.598785;213.6161;217.8945;0.2610811;0.1819356;0;
200.0621;0;0;232.2766;-17.6463;11.47041;199.9707;207.3057;0.0009493832;0.3116875;0;
25.69861;0;0;75.62182;-5.505752;7.105117;28.48086;35.74607;-0.3238883;-0.01346242;0;
-551.0998;0;0;-466.3693;-0.4763777;8.437515;-540.8241;-533.7536;0.2611432;0.1164858;0;
-617.8872;0;0;-573.5965;-3.958524;1.931936;-608.434;-600.6209;0.1959135;0.2463034;0;
-258.6341;0;0;-265.4872;-1.342578;0.6573194;-253.4382;-248.0068;-0.1291201;0.1161213;0;
-240.7581;0;0;-244.7308;3.481543;1.795369;-234.2556;-233.015;0.130879;0.4408413;0;
-40.55419;0;0;-69.32293;7.095366;0.3199403;-37.24409;-35.75495;0.1307475;-0.1443078;0;
583.9852;0;0;518.5762;-1.485578;8.089517;580.3579;583.2198;-0.06428587;-0.7938362;0;
610.3223;0;0;588.7697;-3.895959;8.885062;610.197;611.2444;-0.1941559;-0.3382671;0;
203.3508;0;0;240.1655;6.825225;13.36399;208.4105;211.3935;-0.1939609;-0.07805787;0;
200.5228;0;0;238.3624;7.287858;15.62786;203.5784;210.6813;-0.3237007;-0.1429468;0;
30.53168;0;0;88.3857;9.356639;8.311139;36.77009;43.1787;-0.1934407;0.05209889;0;
-559.2651;0;0;-466.0495;12.76349;7.1642;-546.7861;-540.9461;0.1965577;0.1819812;0;
-624.6075;0;0;-574.339;-2.856725;2.066421;-615.0146;-607.5563;-0.1934438;0.116831;0;
-257.9763;0;0;-265.3544;-6.872342;-0.8829044;-252.6409;-247.6889;-0.5830535;0.2466483;0;
-236.1655;0;0;-243.2238;3.047549;-2.891383;-229.4611;-228.6994;-0.1276963;0.6362045;0;
-36.65332;0;0;-66.38068;1.771689;-5.031932;-34.70332;-33.06787;-0.32247;0.5705979;0;
579.5113;0;0;512.5201;8.333992;-3.553251;570.8397;574.1602;-0.3871133;0.05028586;0;
609.5386;0;0;582.7195;11.74187;-3.549681;602.1251;603.3807;0.003079709;-0.3395687;0;
209.6893;0;0;235.8081;-0.3263682;0.0708423;208.0928;209.847;0.1979786;-0.2742602;0;
195.7355;0;0;220.1414;-1.866282;2.214225;191.517;197.7671;0.5875838;0.1807868;0;
20.12705;0;0;66.93462;0.3454203;4.489298;18.47392;24.96763;0.5220259;0.3755072;0;
-553.1675;0;0;-470.1127;-1.32889;7.097121;-547.5101;-542.085;0.1316974;-0.07964155;0;
-612.2692;0;0;-571.839;1.284414;9.166339;-607.8669;-600.8854;-0.06333693;-0.2744636;0;
-253.8338;0;0;-267.5421;0.278745;11.97041;-252.5594;-247.2716;-0.193208;-0.07928575;0;
-235.7128;0;0;-246.2213;3.292575;9.613981;-232.6905;-231.0936;0.001888191;-0.3390754;0;
-42.63537;0;0;-75.24722;5.030579;10.40812;-43.61411;-41.20676;-0.1280484;-0.2088001;0;
575.7841;0;0;507.6604;-4.418948;12.27318;566.8729;570.2773;-0.4527564;0.1162465;0;
611.0001;0;0;585.2361;-5.352512;11.99292;604.4716;605.6862;-0.2573995;-0.2087071;0;
201.0294;0;0;227.5775;-6.753654;14.72704;199.0677;201.5929;0.002728525;-0.07856267;0;
195.705;0;0;219.6652;-8.822972;13.3056;191.6838;198.3294;-0.06224156;0.246353;0;
39.58674;0;0;85.57426;-0.6424334;17.78009;39.50507;45.70672;-0.4519831;-0.208666;0;
-544.347;0;0;-461.9241;0.497288;18.09714;-536.3077;-530.7994;-0.2566269;-0.2734236;0;
-614.3896;0;0;-573.4661;1.367444;8.29957;-608.3574;-601.043;-0.061467;0.1166552;0;
-253.7032;0;0;-265.357;2.169378;6.817729;-250.8005;-245.6174;0.06852944;-0.2732661;0;
-238.5808;0;0;-245.4752;4.17693;-5.245806;-232.62;-231.4401;0.32833;-0.2080242;0;
-41.68992;0;0;-72.69028;5.981394;-10.53206;-39.60815;-38.36702;0.328;0.3768909;0;
576.6662;0;0;505.3423;-4.339744;-4.359174;570.6249;571.8648;0.1977358;0.2465775;0;
607.1961;0;0;579.6094;-6.81363;-5.895401;603.3474;602.3995;-0.06233227;-0.01353958;0;
208.4111;0;0;237.6361;-6.941481;0.8756766;208.3768;209.6164;0.1975997;0.1164087;0;
201.0178;0;0;226.9026;-9.813918;3.420026;198.7971;204.5957;-0.06246819;-0.0786103;0;
32.27557;0;0;78.18674;-2.77146;5.225129;33.18054;39.03573;-0.8420135;-0.208466;0;
-540.2816;0;0;-457.0603;-0.7589427;8.769852;-531.3191;-527.3438;-0.06155936;0.1165802;0;
-606.705;0;0;-562.7977;-6.518956;4.273305;-599.7505;-594.2176;0.3283066;0.1814304;0;
-257.4582;0;0;-264.3819;-6.110264;4.871858;-255.5706;-249.9183;-0.2567294;-0.07862128;0;
-238.1465;0;0;-240.1283;-3.090015;3.862219;-233.8871;-231.6762;-0.3864061;0.3112618;0;
-39.69439;0;0;-64.72506;-2.417325;1.982938;-38.43769;-37.47839;-0.3210505;0.6357857;0;
578.2224;0;0;512.6123;-0.07037115;8.879944;570.6073;571.9405;-0.3856953;0.5052122;0;
615.0601;0;0;589.9955;-0.2713712;10.27766;609.5766;609.0344;-0.3203404;-0.01503417;0;
204.1483;0;0;236.5801;6.426707;4.774857;203.5429;204.7503;0.004818201;-0.2748885;0;
192.5739;0;0;221.4749;10.10492;5.372906;189.7202;195.7365;0.3296501;-0.07971021;0;
43.26786;0;0;89.31863;-5.043132;1.348653;43.91526;50.05043;0.1993842;-0.1445975;0;
-539.6077;0;0;-455.4348;-7.650033;-0.3272755;-531.0274;-525.2107;-0.06068556;-0.2094195;0;
-621.399;0;0;-576.3537;-2.418409;8.313607;-614.2642;-606.7043;-0.4504286;0.1156276;0;
-251.6477;0;0;-261.62;-3.286635;10.04681;-248.8304;-242.9647;-0.1251393;0.2454461;0;
-229.2185;0;0;-236.6196;-1.408299;11.30939;-224.4675;-222.4182;0.3297578;-0.07963721;0;
-43.9562;0;0;-73.21381;-2.210191;13.57533;-43.02051;-40.78594;0.1345244;-0.4693612;0;
576.5261;0;0;509.6918;3.150664;12.75801;567.7782;571.3224;0.1343893;-0.1440529;0;
620.7993;0;0;595.3863;3.683362;13.88378;613.2471;615.2885;0.1992216;-0.01397347;0;
219.5019;0;0;248.0873;2.875378;10.9227;217.517;220.7432;0.2639887;0.1159753;0;
201.7901;0;0;227.4733;4.413706;8.366376;198.308;205.8413;0.2637235;0.3757281;0;
37.23247;0;0;83.56695;-10.59491;16.46278;36.12763;43.46595;0.1335238;0.1154812;0;
-537.5161;0;0;-453.622;-14.93754;17.04909;-531.4984;-525.042;0.2633243;0.05039781;0;
-614.1871;0;0;-567.7961;-12.31056;8.927142;-609.6123;-601.2883;-0.06177698;0.1802818;0;
-263.0587;0;0;-269.5002;-14.84379;7.779584;-262.9237;-256.732;-0.3215843;-0.07976867;0;
-235.7455;0;0;-243.6798;-10.20717;-0.1990793;-234.1738;-232.9234;-0.2562938;0.1152135;0;
-31.23627;0;0;-64.15006;-8.991468;-4.485665;-32.35236;-32.41504;-0.580873;0.1800651;0;
583.2363;0;0;510.9379;-9.116156;0.2745085;574.1253;574.6874;0.004416757;-0.1449526;0;
624.3793;0;0;590.0095;-7.700476;-1.534307;616.277;616.3387;0.5891184;0.05009513;0;
222.0788;0;0;242.1537;-3.137411;1.749399;218.295;219.606;0.1987224;0.2449468;0;
203.7397;0;0;222.9199;0.1472953;3.087178;197.5859;202.269;-0.06134665;-0.2750381;0;
44.73983;0;0;86.32695;-6.618007;-1.872539;41.71562;47.01866;-0.06128501;-0.4696637;0;
-540.1986;0;0;-459.3605;-8.28532;-1.602726;-534.849;-529.8011;0.1986459;-0.07938775;0;
-619.4907;0;0;-578.2765;-0.8422558;-2.739703;-615.8331;-610.1032;0.003544313;0.3104961;0;
-251.7403;0;0;-263.7907;-1.04248;-2.669968;-252.7715;-249.0463;-0.2563286;0.1152821;0;
-221.8147;0;0;-231.2918;-1.108782;-2.06456;-221.4082;-221.4973;0.133733;-0.07973581;0;
-35.24802;0;0;-66.89196;-0.1696626;-2.531245;-37.77787;-38.5541;0.1335986;0.05027901;0;
571.5449;0;0;500.5775;-10.55197;6.312802;561.4589;561.9328;-0.06143764;-0.01473885;0;
621.6326;0;0;589.0923;-13.42078;10.12436;614.0555;613.2796;-0.1913106;0.0502433;0;
229.6422;0;0;253.2939;-12.33557;1.473637;227.1327;227.2321;-0.3210531;0.05019281;0;
209.2341;0;0;233.7366;-14.53397;0.3334461;204.4782;208.5755;-0.2557631;-0.01482496;0;
42.42015;0;0;88.69951;-12.50964;10.11238;41.35467;45.82267;-0.0606041;0.1151246;0;
-527.6484;0;0;-443.6846;-13.97094;12.44662;-521.0917;-517.3153;0.4591955;0.2449436;0;
-604.5793;0;0;-558.7432;-6.187366;7.678444;-599.8408;-595.0062;0.2638321;0.04979548;0;
-260.457;0;0;-270.7637;-2.362756;8.474402;-258.7841;-255.891;-0.3211391;-0.5349606;0;
-229.9605;0;0;-240.4443;-15.5559;4.714965;-225.3533;-226.3361;-0.1908817;-0.4694558;0;
-29.14276;0;0;-58.54398;-16.47827;2.566895;-28.66311;-28.64545;-0.2556573;-0.2091147;0;
575.1453;0;0;507.0431;-15.65743;11.74073;566.1917;567.5837;-0.7751391;-0.01400253;0;
622.5433;0;0;592.4904;-17.78515;13.26942;615.91;614.1771;-0.3845562;0.1159462;0;
225.6794;0;0;254.5646;-7.251084;10.44293;225.0498;223.756;0.2005363;0.2457644;0;
204.6506;0;0;233.3194;-4.63183;11.57114;201.5229;204.4157;0.1353675;0.3104848;0;
56.76919;0;0;102.3382;-5.230388;7.741612;55.95595;59.2207;0.005296756;0.3101728;0;
-524.2458;0;0;-442.8032;-1.406739;6.595124;-516.8124;-513.8008;0.07025877;0.3748285;0;
-624.0436;0;0;-581.101;-9.108485;10.4064;-617.8671;-612.3597;-0.1247138;0.3094845;0;
-261.4111;0;0;-270.8603;-9.701569;10.73086;-260.5505;-254.6739;-0.5793599;-0.01566315;0;
-233.9121;0;0;-239.7286;-2.926667;9.38042;-231.4907;-228.8059;-0.1889737;-0.08061478;0;
-54.95438;0;0;-82.19183;-3.459589;8.768147;-55.78378;-53.72637;0.3959222;-0.1455011;0;
576.2211;0;0;508.9062;6.323151;12.51038;566.1472;569.8267;-0.1242143;-0.2103222;0;
643.2956;0;0;614.5914;9.39728;14.0383;634.981;637.0326;-0.3189915;-0.2750783;0;
235.8537;0;0;264.2122;2.422589;7.05821;232.9821;236.0312;-0.1887363;0.1799695;0;
216.5013;0;0;245.2686;3.156113;5.04163;212.1334;219.6772;-0.1235794;0.6345601;0;
56.55156;0;0;106.2169;-4.683939;9.189384;55.49888;63.09752;-0.1234552;0.1141838;0;
-535.0829;0;0;-447.3616;-7.558645;8.309372;-529.3254;-522.3591;-0.1233311;-0.2107677;0;
-622.2512;0;0;-573.5359;-3.867355;7.899125;-618.9358;-609.79;0.2016295;0.1142808;0;
-268.1786;0;0;-275.1093;-4.667752;7.489412;-268.2398;-261.0398;0.3963289;0.1791333;0;
-241.1101;0;0;-247.0344;-2.050117;2.927048;-238.2977;-235.5402;0.3959307;0.113986;0;
-39.9688;0;0;-65.93956;-1.111029;1.316638;-40.03281;-36.8408;0.2655982;0.1788388;0;
580.1971;0;0;516.0842;2.038896;-1.029087;572.3871;577.0751;0.005461936;0.1136918;0;
632.4001;0;0;607.4569;4.515093;-3.171385;626.5969;628.4067;0.005456448;-0.08132453;0;
232.9027;0;0;262.6446;2.434452;-0.8239179;231.4781;233.3485;-0.1244837;-0.01627545;0;
210.5548;0;0;236.3312;2.766798;-0.4881754;208.0072;212.3745;-0.2542933;0.04870824;0;
53.29715;0;0;99.53742;6.648784;-4.77447;54.62519;58.42588;-0.1241031;-0.2761774;0;
-525.7778;0;0;-440.9785;7.646482;-5.975366;-518.1418;-513.7827;-0.1239784;-0.01603054;0;
-618.3278;0;0;-572.7814;2.816027;-0.008002873;-612.3236;-606.5945;0.1360155;0.1139202;0;
-258.3246;0;0;-266.9843;0.8708145;1.666579;-255.6373;-252.5377;0.2658135;0.5036098;0;
-221.9582;0;0;-228.7976;1.272081;-1.349328;-218.2741;-219.3006;-0.1242576;0.5031038;0;
-44.82409;0;0;-72.3337;-1.475863;-0.7451259;-45.45403;-45.66736;-0.2540674;-0.2120425;0;
564.9769;0;0;497.8899;-0.6700971;0.05941803;556.7889;558.0751;-0.2538121;0.1779746;0;
628.9393;0;0;599.8381;-1.874873;0.5952218;622.7585;622.4192;-0.05865509;0.3077305;0;
228.0086;0;0;254.6586;-10.04466;1.331436;225.3322;226.9298;0.4611426;-0.2123175;0;
212.1623;0;0;235.0374;-12.64751;1.665013;207.4272;212.0841;0.3307445;-0.01720209;0;
62.89906;0;0;104.117;-16.18478;4.141586;61.41708;64.57003;0.07054283;-0.0171848;0;
-527.4299;0;0;-446.1486;-18.17727;5.142169;-521.2268;-517.8271;0.2004066;-0.1471022;0;
-626.1001;0;0;-582.7564;-18.2937;4.266224;-620.1531;-614.5704;0.07027058;-0.01701973;0;
-266.6514;0;0;-280.6974;-19.41342;4.395903;-264.8957;-260.8179;-0.1896694;0.1129321;0;
-229.1521;0;0;-243.7463;-14.03528;5.932093;-226.5237;-226.0107;-0.3843808;-0.08208346;0;
-39.26723;0;0;-76.77267;-13.48532;7.064843;-40.38952;-40.25187;-0.0591579;0.04793372;0;
574.9635;0;0;497.5783;-7.176103;2.770836;564.9093;565.9839;0.1358036;0.5026569;0;
631.5446;0;0;595.7787;-3.81999;1.696447;623.7493;622.5115;-0.449039;-0.08255421;0;
226.2384;0;0;250.3534;-11.98783;5.11075;224.1981;223.7111;-0.3186531;-0.60221;0;
206.8957;0;0;229.862;-11.97578;4.971649;202.1713;206.6823;0.3963079;-0.5366375;0;
61.82309;0;0;104.1316;-16.5181;9.05249;60.22691;64.92075;0.2010076;-0.471131;0;
-520.3839;0;0;-437.4508;-18.97975;11.58875;-513.2329;-509.5433;-0.1889984;0.1140485;0;
-621.9972;0;0;-574.0674;-16.88457;4.744964;-614.8533;-609.2934;-0.5136452;0.4387706;0;
-263.4896;0;0;-269.4559;-19.21213;4.13735;-259.7262;-254.9839;-0.5131291;0.113493;0;
-228.1175;0;0;-233.9528;-10.1505;7.549322;-223.171;-221.2446;0.07209258;0.2433137;0;
-48.54093;0;0;-75.73466;-6.724045;7.005873;-47.5974;-46.11018;0.07202014;0.3080365;0;
565.824;0;0;501.3014;-15.09003;11.01769;558.1459;560.5687;-0.3828236;0.112825;0;
632.2843;0;0;608.4936;-13.53365;11.94438;625.6759;627.4716;-0.1875369;-0.1471578;0;
226.9149;0;0;259.3074;-16.53416;8.114349;225.3731;227.6042;-0.05741381;-0.4718466;0;
197.8264;0;0;227.0004;-17.79035;6.632693;195.3492;200.2642;-0.05735612;-0.1465358;0;
51.32621;0;0;97.27493;-5.783381;8.367463;52.78692;57.75948;0.2675382;0.3083828;0;
-527.9342;0;0;-444.0508;-3.164626;8.493021;-518.479;-514.0737;0.3972041;0.502975;0;
-626.354;0;0;-577.1624;-1.017992;-0.2900328;-618.6574;-611.8202;0.4617723;0.1776329;0;
-263.1569;0;0;-268.175;2.331933;-3.03592;-260.2156;-254.1349;-0.05843041;-0.2123496;0;
-227.8476;0;0;-232.236;0.319858;-0.6885884;-222.5979;-221.271;-0.7080451;0.1127005;0;
-47.64661;0;0;-71.52081;2.596712;-1.692641;-45.40074;-44.32497;-0.382497;-0.2122495;0;
567.7794;0;0;505.3861;-2.428763;1.323292;561.09;563.4141;0.4624628;-0.5368729;0;
632.9259;0;0;609.3882;-3.498049;2.862448;627.7425;628.2526;0.5269654;-0.01659475;0;
226.6189;0;0;259.3266;1.997822;0.5822741;226.7505;228.0722;0.1366319;-0.2114801;0;
199.9044;0;0;230.1431;1.125159;0.6486719;197.6621;202.2309;0.2664293;-0.4061697;0;
60.33614;0;0;107.9106;8.156626;6.207481;60.71975;65.34638;0.3960963;-0.2108595;0;
-513.4361;0;0;-428.8031;9.55495;7.607764;-504.6821;-500.2475;0.3307309;0.1141891;0;
-617.1179;0;0;-568.1144;4.923648;6.595498;-609.4971;-603.0679;0.2654313;0.1790417;0;
-265.0494;0;0;-269.4435;4.048045;7.928407;-261.9965;-256.8232;0.07026256;-0.1459749;0;
-230.113;0;0;-236.4392;0.4266551;1.892221;-224.7518;-224.3938;-0.05974273;-0.2107956;0;
-49.34754;0;0;-78.0311;-0.2433589;0.01479715;-47.36504;-46.69505;0.005284646;-0.5354205;0;
565.4556;0;0;499.3821;-13.505;3.162858;558.5031;561.6711;-0.05968801;-0.2750131;0;
637.1011;0;0;608.3253;-19.72072;2.356007;631.7173;632.6957;-0.1245954;0.5698386;0;
227.0417;0;0;253.767;-6.572742;2.554466;225.9736;227.201;0.005464505;0.6342334;0;
196.1415;0;0;222.4651;-6.231345;1.748226;193.2004;198.487;-0.189443;0.5686288;0;
66.32206;0;0;110.9225;-9.707707;4.224716;66.63234;71.91362;-0.25422;0.04831871;0;
-512.7036;0;0;-430.6667;-10.23382;5.024266;-505.0223;-500.9957;0.07087215;-0.4065012;0;
-629.0671;0;0;-584.9063;-6.406116;-0.7411922;-622.9553;-616.6839;0.2007356;0.1786133;0;
-266.492;0;0;-274.6617;-4.792089;-1.879157;-264.5717;-258.9313;-0.05933544;0.1784338;0;
-225.7446;0;0;-231.0325;-12.75788;-2.212184;-221.265;-219.6907;-0.2541778;-0.1465822;0;
-53.91649;0;0;-83.81177;-12.94613;-2.946651;-51.69029;-51.242;0.07091425;0.3733039;0;
559.7667;0;0;488.6722;-19.69827;-2.474932;553.3701;553.8179;-0.05909168;0.2429941;0;
631.5429;0;0;599.8126;-23.42953;-2.271496;625.5275;624.5381;-0.3189017;-0.08208682;0;
226.7365;0;0;253.6336;-10.47889;-2.537146;225.0374;226.3604;-0.3185812;0.2428324;0;
198.5852;0;0;226.9545;-7.922763;-3.338269;194.8264;200.9581;-0.3182611;0.1126537;0;
60.14266;0;0;106.7243;-6.642005;3.965981;59.5735;65.07435;0.2017974;-0.1473289;0;
-512.4425;0;0;-428.489;-1.678838;6.239415;-504.7028;-500.3319;0.5264313;-0.08221349;0;
-623.6839;0;0;-577.7332;-9.514032;1.410497;-616.764;-609.8363;0.2010657;0.04780381;0;
-274.6699;0;0;-285.6742;-10.04034;1.944943;-272.0048;-266.4584;0.265831;-0.2121136;0;
-234.4764;0;0;-246.7191;4.370717;-3.214575;-230.5647;-229.9588;0.3305312;-0.1469331;0;
-51.83251;0;0;-86.30167;8.11737;-5.354799;-51.92269;-51.37992;-0.05960495;0.2430186;0;
563.5978;0;0;489.3707;9.180941;-2.938033;554.3873;556.3038;-0.3843818;-0.2769644;0;
636.4945;0;0;600.0106;13.79342;-4.810603;629.6671;628.958;-0.6438649;-0.4066207;0;
233.4323;0;0;254.7685;3.932943;-0.5189835;232.1089;232.4625;-0.6432179;-0.08137546;0;
202.3382;0;0;224.3402;1.585442;-0.1835473;198.0802;202.6813;-0.5776043;-0.2761957;0;
59.95636;0;0;99.48988;15.3816;-6.881534;58.57616;61.54846;-0.4470892;-0.3408855;0;
-519.4377;0;0;-439.964;17.04108;-10.0227;-512.2583;-511.3504;-0.1218033;-0.340543;0;
-633.3582;0;0;-588.0722;14.74581;-9.208829;-627.4979;-624.467;0.2031558;0.2445053;0;
-276.4634;0;0;-286.8199;15.53528;-11.87889;-275.419;-273.7655;-0.121885;0.5690963;0;
-235.2062;0;0;-242.5539;11.50118;-17.29245;-232.7261;-234.8848;-0.2516972;-0.01618163;0;
-64.93034;0;0;-89.63689;10.55162;-19.61936;-65.57617;-66.73323;0.1383597;-0.08113272;0;
551.5751;0;0;486.4761;8.26384;-28.84304;543.0588;543.4647;0.1382207;0.0488835;0;
632.9172;0;0;604.6777;6.982738;-32.36416;626.2211;624.6899;-0.1867549;0.1138017;0;
223.3617;0;0;251.4973;6.037717;-32.06371;220.6079;220.3902;-0.05663257;-0.01624731;0;
197.7751;0;0;222.9463;4.625131;-33.63896;191.7756;196.1183;0.1383263;-0.1461657;0;
66.95449;0;0;109.8415;8.505249;-26.10331;63.95958;69.17246;0.2031547;0.5036546;0;
-518.8184;0;0;-434.9326;8.564053;-23.19682;-512.44;-507.982;0.4628199;0.8279852;0;
-637.6121;0;0;-588.6055;10.36411;-22.30285;-631.49;-626.3493;0.1375182;0.5023166;0;
-282.0873;0;0;-287.5402;10.88956;-19.86906;-280.0943;-276.7079;-0.3823587;0.3069098;0;
-241.824;0;0;-246.0844;9.203676;-17.10291;-238.0213;-238.5114;-0.3170072;-0.08320263;0;
-65.54445;0;0;-88.7911;9.261778;-16.14797;-64.55676;-65.10876;-0.186754;-0.2130537;0;
551.2114;0;0;487.0712;4.027559;-14.18924;544.2646;544.4628;0.07330304;-0.08290495;0;
632.8038;0;0;602.1487;3.019134;-13.37119;627.2383;624.875;-0.05670529;0.2420151;0;
233.8681;0;0;261.2147;-1.940393;-20.05592;233.2432;232.0068;-0.381485;0.5666086;0;
204.4603;0;0;232.2167;-5.153624;-20.97353;201.7121;206.0991;0.008702344;0.3711373;0;
66.19926;0;0;111.0442;3.826535;-30.06189;66.57724;71.20969;0.1386283;0.1758623;0;
-514.4504;0;0;-430.7951;4.760695;-34.9883;-505.9519;-503.573;0.07352164;-0.1491511;0;
-637.184;0;0;-589.8446;4.688563;-24.23612;-630.6306;-626.2551;0.07344777;-0.2789359;0;
-277.7866;0;0;-285.717;5.95665;-23.80987;-275.9874;-272.0535;-0.3813974;0.1761158;0;
-233.4671;0;0;-240.4525;4.410423;-21.70959;-228.9836;-228.8642;-0.3810142;-0.1488979;0;
-69.8147;0;0;-97.47015;4.874506;-18.13769;-68.1467;-67.90257;-0.1857293;-0.3436503;0;
551.3182;0;0;483.0236;2.056569;-23.94685;543.9891;544.9826;-0.05560802;0.1114664;0;
640.7191;0;0;609.5369;1.250219;-22.85106;635.0215;632.8906;0.009415202;-0.2134824;0;
224.4092;0;0;252.2287;1.383661;-19.74701;223.5274;222.1483;0.1393404;-0.2132679;0;
186.3278;0;0;214.2442;1.113851;-19.05734;182.3234;187.0051;0.07423307;-0.08311889;0;
62.70259;0;0;104.7714;1.917015;-11.87126;60.82621;66.31527;-0.1207435;-0.3429047;0;
-508.0735;0;0;-430.1276;2.652023;-9.313982;-502.2019;-498.1552;0.2042145;-0.4075275;0;
-631.5632;0;0;-587.2412;2.849453;-9.840487;-625.8849;-619.5933;0.1390419;-0.08228133;0;
-283.6032;0;0;-291.8618;2.712868;-8.691889;-280.9291;-275.4559;-0.3808365;0.1776707;0;
-243.9005;0;0;-250.2143;10.61437;-8.080309;-238.2931;-236.636;-0.2505191;0.1125249;0;
-69.3056;0;0;-92.66698;13.3494;-7.067446;-64.70329;-63.54762;-0.05536539;0.1124118;0;
549.4531;0;0;487.1972;9.183773;-12.35187;546.8668;548.5211;-0.3151791;0.4371355;0;
636.2321;0;0;607.7718;9.977853;-14.01404;633.9608;632.9272;-0.3148624;0.371729;0;
231.6708;0;0;259.9606;6.083061;-11.52171;233.0875;232.2424;0.01029065;-0.01844859;0;
195.706;0;0;222.5931;4.134565;-12.3138;193.3731;197.3389;0.07524765;0.1115046;0;
66.07439;0;0;105.6781;8.34997;-8.818441;63.6814;68.01804;0.0102047;0.04642525;0;
-505.0175;0;0;-428.4097;8.341579;-6.666248;-500.2242;-498.2657;0.2050965;-0.4083928;0;
-629.0724;0;0;-586.8994;7.462542;-10.74539;-625.5333;-621.3279;-0.1199463;-0.4079824;0;
-275.5552;0;0;-287.9596;8.459421;-9.796829;-277.3295;-272.4412;0.01010889;-0.2776378;0;
-231.238;0;0;-242.1306;3.695499;-8.715258;-231.2613;-230.3134;0.3999028;-0.1474242;0;
-73.89708;0;0;-103.8317;1.816752;-9.37633;-76.91892;-76.47174;0.009696906;0.1125933;0;
545.1785;0;0;470.6714;11.79526;-0.9942864;532.4771;533.9858;-0.5100515;-0.01745447;0;
648.6409;0;0;606.9422;14.12696;0.1454225;636.452;635.4604;-0.2496697;-0.2773063;0;
226.7634;0;0;248.3248;10.29535;0.2792422;219.5842;219.9055;0.3352872;-0.6018644;0;
183.932;0;0;208.9075;11.82524;1.417672;174.1363;179.2049;0.269983;-0.4063576;0;
75.98884;0;0;114.4949;8.59818;-9.56871;67.88967;72.51586;0.07480969;0.3086915;0;
-503.0465;0;0;-427.5977;8.322097;-13.24303;-502.8292;-499.8943;0.1397019;-0.0164554;0;
-641.2838;0;0;-600.0187;10.25612;-16.84681;-641.3791;-636.5106;-0.2502426;-0.6661123;0;
-280.8828;0;0;-293.9443;9.441529;-22.38922;-285.6631;-281.5491;-0.3799258;-0.470541;0;
-232.4372;0;0;-246.5477;15.32654;-16.07057;-236.6505;-236.9135;0.01026001;0.2445726;0;
-68.78584;0;0;-104.3713;16.04807;-16.18839;-77.68004;-78.4425;-0.05471764;0.3742616;0;
547.0988;0;0;470.7571;14.35701;-25.75044;528.7807;529.8931;-0.1845973;0.04904878;0;
644.3124;0;0;603.3422;13.80672;-27.1312;628.574;627.6237;0.07545751;-0.0809352;0;
242.5541;0;0;261.4075;11.24823;-28.10856;232.5161;232.5664;0.01041434;-0.01588652;0;
199.1446;0;0;220.103;10.63371;-29.75489;186.8054;192.2278;-0.1195308;-0.01587056;0;
65.26166;0;0;102.2534;2.317633;-22.49096;56.30816;62.03753;0.01052399;-0.4056587;0;
-501.0818;0;0;-425.2717;0.03812835;-20.92788;-501.6555;-497.1812;-0.05445393;-0.08041436;0;
-624.8908;0;0;-582.6401;-2.774949;-21.04082;-627.0881;-620.1821;-0.05439921;0.6992745;0;
-279.3738;0;0;-293.3872;-6.523205;-19.3451;-287.0036;-280.9791;0.01062279;0.3087679;0;
-233.6159;0;0;-249.0521;8.085384;-21.87101;-239.2391;-238.7179;-0.1842899;-0.01637909;0;
-69.71344;0;0;-104.0621;11.69361;-21.44714;-77.33;-76.9967;-0.2490721;0.1785394;0;
547.234;0;0;472.6901;5.787359;-23.10004;531.7541;534.1485;-0.3137892;0.1133927;0;
650.7568;0;0;613.3317;7.188063;-23.81364;637.2914;636.9973;-0.4434085;-0.211558;0;
230.314;0;0;254.2706;8.387265;-21.64638;223.1714;222.2529;-0.442963;-0.1463781;0;
183.1686;0;0;204.6025;9.91908;-21.69161;173.7844;176.9273;-0.1176812;0.2435731;0;
76.41316;0;0;109.1948;4.885271;-21.13396;67.41317;71.42744;0.2072738;0.3082957;0;
-498.7495;0;0;-426.7706;3.340121;-21.71556;-500.9939;-499.0451;0.2720328;0.2430185;0;
-639.5524;0;0;-600.3168;7.556323;-16.93796;-642.8564;-639.6602;0.2717595;0.1128397;0;
-277.5289;0;0;-295.3042;6.275933;-14.64364;-286.077;-283.1964;0.1415517;-0.0172084;0;
-230.4611;0;0;-250.155;11.62826;-22.19775;-236.7517;-238.809;0.07644217;0.3076456;0;
-75.05749;0;0;-114.4092;13.0231;-22.24243;-82.65364;-85.77083;0.2063;0.2423691;0;
543.8943;0;0;464.4148;6.111135;-23.22483;529.0594;527.1948;0.1411254;0.1121909;0;
647.1707;0;0;603.7529;5.569131;-24.07227;634.0998;629.9881;-0.05391842;0.04711084;0;
239.6624;0;0;255.3836;1.210255;-18.08672;231.1649;227.6196;-0.1837989;0.04706351;0;
195.1313;0;0;210.7742;-0.3985518;-17.26475;182.9567;184.1626;0.2061898;0.4368203;0;
72.55928;0;0;104.4283;-0.8676419;-10.34841;61.20898;63.35065;0.5308193;0.6312834;0;
-495.6031;0;0;-421.7872;-2.540733;-6.653948;-498.0714;-496.9939;0.4653186;-0.1489591;0;
-625.4146;0;0;-583.0945;4.427069;-12.13974;-627.1933;-624.4302;0.2049817;-0.5386134;0;
-267.3409;0;0;-282.0347;5.762767;-11.45771;-273.553;-272.167;-0.120061;-0.1482682;0;
-221.2827;0;0;-238.7104;6.426562;-12.51793;-226.3643;-228.7902;0.139929;-0.08315185;0;
-67.76244;0;0;-105.5374;7.692902;-13.71104;-77.21166;-79.19789;0.07482108;-0.2779703;0;
549.8702;0;0;471.4037;7.617823;-11.41985;532.1222;531.0125;-0.4449928;-0.082789;0;
650.9541;0;0;611.0471;9.151386;-11.74329;635.2853;631.678;-0.1846763;-0.01773846;0;
230.0738;0;0;251.6135;1.773824;-13.40606;218.7311;216.0645;-0.1195234;-0.2126227;0;
188.7383;0;0;202.5102;0.0980787;-14.19638;175.408;176.4921;-0.44424;-0.4073111;0;
90.2855;0;0;111.29;1.705571;-13.31134;79.15502;80.73783;-0.118957;-0.4069018;0;
-478.6443;0;0;-415.5571;0.2299882;-13.164;-482.1424;-481.0609;0.2059993;-0.4714603;0;
-624.2149;0;0;-589.6143;4.047174;-14.82535;-629.2712;-626.6292;0.01089027;-0.7958232;0;
-257.7716;0;0;-279.365;3.842037;-14.54252;-268.6949;-266.7426;-0.05408802;-0.6650889;0;
-207.7876;0;0;-233.2948;7.924989;-15.86756;-216.451;-218.2488;0.3357704;-0.4045513;0;
-72.27181;0;0;-115.8693;10.46165;-16.52133;-82.30086;-85.22128;0.2054983;-0.2742101;0;
547.4893;0;0;465.7673;3.283838;-10.74444;528.225;526.0571;-0.1195449;-0.4688366;0;
660.757;0;0;614.7866;4.084822;-8.657171;641.4495;637.4098;0.1404446;-0.5333328;0;
238.3675;0;0;252.3508;-2.081225;-9.921148;224.6392;221.5406;0.1403035;-0.0130582;0;
194.0252;0;0;205.7455;-5.093244;-7.901691;178.3117;180.2761;-0.05473951;0.3117916;0;
86.00944;0;0;112.0857;8.241112;-8.496598;72.62303;75.70991;0.07525017;0.1165763;0;
-483.4158;0;0;-413.8875;10.51001;-7.483317;-489.6673;-486.5836;0.2051092;-0.07844286;0;
-623.4844;0;0;-584.1984;9.62879;-3.389961;-631.4788;-626.524;0.01000112;-0.2732661;0;
-268.9109;0;0;-284.949;11.22671;-1.778964;-280.5829;-277.882;-0.2498783;-0.2080241;0;
-223.0386;0;0;-239.9976;12.2198;0.567104;-232.5749;-235.5614;0.0752095;-0.07788044;0;
-75.5135;0;0;-112.3205;13.54669;1.571278;-88.22615;-91.58443;0.07513393;-0.4026389;0;
549.7481;0;0;468.6254;9.581944;4.115051;527.9279;526.7593;0.01009109;-0.4022343;0;
663.5132;0;0;615.0182;9.437618;4.981572;642.6519;639.673;0.399885;0.2478433;0;
243.9321;0;0;255.4556;5.409647;1.560559;229.1512;226.9874;0.2045812;0.572431;0;
200.8336;0;0;212.5954;3.059687;0.3532982;184.9431;187.3416;0.1394083;0.3769538;0;
94.87244;0;0;122.2396;10.42498;-2.460218;80.99689;82.51848;0.3341702;0.181673;0;
-484.0569;0;0;-412.3021;11.75367;-4.534217;-489.6102;-489.7768;0.1389324;-0.273281;0;
-633.9949;0;0;-592.7344;10.60376;-7.07489;-640.2298;-637.6476;-0.1860439;-0.4029411;0;
-264.8556;0;0;-284.6684;11.53014;-8.809338;-275.5819;-274.1893;-0.5106937;-0.3375689;0;
-216.1139;0;0;-237.2811;12.79135;-9.403333;-224.2682;-227.1873;-0.1853438;-0.5321317;0;
-84.40031;0;0;-119.914;13.04692;-9.929748;-94.67039;-98.08625;0.1396791;-0.2067603;0;
541.37;0;0;464.5378;11.42622;-6.905538;523.1143;519.8268;-0.1203306;-0.1415852;0;
665.5134;0;0;621.6793;9.002864;-4.755267;648.3379;643.3046;-0.3151117;-0.4013123;0;
245.6803;0;0;261.173;12.27635;-4.08066;232.0204;229.241;-0.1198931;-0.011105;0;
192.1478;0;0;209.1241;11.72815;-1.531208;175.9403;177.4741;0.2700315;0.2487755;0;
82.8845;0;0;114.3365;3.008827;1.082543;68.62991;69.78729;0.2047928;0.1185909;0;
-486.6001;0;0;-416.0118;1.866728;2.689045;-493.6565;-493;-0.1202497;-0.2713324;0;
-631.8504;0;0;-591.9427;-9.253583;9.853273;-638.9622;-636.0574;-0.1850962;-0.2710597;0;
-272.8956;0;0;-290.749;-13.79961;12.38872;-284.4355;-282.3458;-0.1849102;0.2489514;0;
-220.5226;0;0;-241.2941;-4.474997;12.64421;-230.8015;-232.6494;-0.2496918;-0.07613549;0;
-70.18895;0;0;-109.9925;-5.073713;14.70785;-82.51901;-85.05225;-0.1195062;-0.1410263;0;
550.5696;0;0;468.5148;5.849725;2.770477;529.6312;528.5998;0.01054857;0.5087888;0;
661.7102;0;0;617.344;11.3362;-2.791768;643.5416;640.762;-0.3142987;0.1834409;0;
246.8161;0;0;264.7131;4.224866;6.588403;235.3498;233.2602;-0.3789503;-0.4664169;0;
194.6566;0;0;214.4098;6.029283;4.371346;180.4533;184.0504;-0.2486348;-0.2060789;0;
79.95611;0;0;114.1196;8.903612;-1.795231;67.89093;73.10866;-0.3783197;0.05399759;0;
-487.2766;0;0;-417.9776;11.43929;-4.338779;-491.3962;-488.1202;-0.3129722;-0.07599136;0;
-631.0895;0;0;-595.4682;6.270227;-13.84575;-636.4543;-632.7443;-0.2476904;-0.2058497;0;
-266.1385;0;0;-286.9622;5.1922;-18.38656;-276.4954;-274.4758;-0.2474415;0.05422653;0;
-215.1466;0;0;-235.7619;14.43038;-19.90869;-223.8064;-225.3496;-0.1172582;0.5739108;0;
-87.18212;0;0;-123.5188;15.68868;-22.5009;-98.20703;-99.68619;-0.1171404;0.6383014;0;
532.9063;0;0;451.8786;21.96956;-23.08113;512.7721;512.1689;0.07787938;0.1179213;0;
658.5574;0;0;610.8445;26.77025;-23.45984;639.1931;636.9664;0.1427685;-0.2070339;0;
234.0463;0;0;249.537;16.02608;-20.89104;220.4484;218.7237;-0.1822117;-0.07689115;0;
182.2745;0;0;198.7491;14.67081;-19.06151;166.5039;169.4661;-0.05209393;0.1180881;0;
87.7013;0;0;118.7146;22.22453;-16.16209;73.57076;77.46699;-0.1819763;0.05300215;0;
-482.975;0;0;-410.2014;22.80541;-13.60062;-488.908;-486.5774;-0.2467608;0.1179162;0;
-639.2859;0;0;-596.6953;22.38036;-9.5681;-644.9006;-641.198;-0.05161079;0.05283041;0;
-270.4536;0;0;-283.5653;22.76001;-6.477271;-280.8102;-277.5487;-0.1165263;-0.4019941;0;
-212.9606;0;0;-227.6833;21.46434;-7.475506;-222.2449;-222.3599;0.0135255;-0.5964922;0;
-83.43665;0;0;-115.8856;20.90691;-6.396268;-94.89796;-95.26274;-0.05145543;-0.07615409;0;
531.4631;0;0;459.0669;22.62722;-5.519185;512.1423;512.465;-0.3762404;0.2487592;0;
659.0522;0;0;619.3373;23.14034;-5.446656;640.7503;638.5115;-0.05102568;0.1835419;0;
246.9718;0;0;266.8293;17.62474;-3.364712;232.8112;230.1998;0.1439276;0.3132921;0;
191.314;0;0;214.4624;15.06143;-2.021673;175.356;176.308;-0.05111903;0.24801;0;
83.98813;0;0;119.2947;22.01252;-6.775308;71.9817;72.93273;-0.116035;-0.1420433;0;
-478.2512;0;0;-406.3735;22.79371;-6.902466;-481.8123;-481.7993;0.01401627;0.2479035;0;
-627.258;0;0;-586.9992;18.01539;-7.096479;-632.2523;-629.5531;0.4038062;0.5724911;0;
-270.4942;0;0;-288.3717;18.53315;-9.031854;-280.481;-279.0339;0.2084985;0.2470792;0;
-216.0622;0;0;-236.4204;11.61565;2.632008;-225.1643;-228.2164;-0.1165477;-0.2079405;0;
-82.28721;0;0;-120.1787;8.187726;4.839678;-95.06588;-97.36529;0.01350405;-0.4026336;0;
534.1107;0;0;453.9036;19.56635;1.217859;514.2859;513.3007;-0.05147687;-0.01242496;0;
663.946;0;0;617.4276;21.02056;2.355345;647.2021;643.0944;-0.1813598;0.3124242;0;
243.8647;0;0;259.5493;15.9756;-5.617868;232.1975;228.4688;-0.2461449;0.247143;0;
185.8362;0;0;202.6294;15.28996;-8.09047;171.4946;172.7046;-0.1159629;0.5717313;0;
90.13495;0;0;120.3421;16.14525;-7.61346;77.74434;80.38991;0.338925;0.4412222;0;
-477.108;0;0;-404.5775;15.86159;-8.677537;-481.4902;-479.5969;0.2086498;-0.0789599;0;
-634.5493;0;0;-593.3884;10.35232;-11.68293;-640.114;-637.0356;-0.181364;0.1160215;0;
-265.4094;0;0;-283.5101;8.333158;-13.81464;-275.7161;-274.2651;0.07868765;0.1808722;0;
-209.0459;0;0;-228.7526;8.257437;-4.624344;-217.6556;-220.329;0.1435759;0.05075581;0;
-86.5848;0;0;-123.8254;7.378483;-2.610209;-97.62212;-100.7926;-0.2463724;0.1806395;0;
528.2557;0;0;447.5119;6.500413;-3.009484;508.4839;506.5035;-0.1161902;0.2454253;0;
663.844;0;0;612.604;6.360159;-0.1932991;644.6542;641.1141;-0.05110606;0.3751134;0;
256.9436;0;0;263.9135;9.635323;-6.020376;243.3329;240.7334;-0.4408588;0.6346059;0;
194.9665;0;0;205.49;11.63537;-6.349241;179.8701;181.6461;-0.5053831;0.2441642;0;
79.64095;0;0;106.3333;13.16392;-3.127803;66.80865;69.08255;0.01486342;-0.1458852;0;
-476.2222;0;0;-409.1395;16.03108;-2.990694;-480.4209;-479.4612;-0.05011885;-0.01580396;0;
-621.358;0;0;-585.9518;16.48349;-0.3754767;-626.4271;-624.2814;-0.2449705;-0.08075544;0;
-269.8475;0;0;-292.1979;18.00814;0.2947299;-280.1589;-279.0148;0.08011234;-0.01570694;0;
-207.4826;0;0;-233.1214;22.00854;2.839785;-216.0345;-218.5147;0.2749339;0.04927618;0;
-72.8417;0;0;-115.6961;22.38857;4.17659;-83.88371;-86.61137;0.3396249;-0.2106427;0;
522.9321;0;0;441.5776;26.92042;0.4883324;504.0301;502.5546;-0.180455;-0.1454637;0;
654.4652;0;0;606.2385;27.49658;-0.6507461;636.8317;633.3586;-0.3751757;0.1795192;0;
247.3869;0;0;258.991;21.9766;0.0196151;233.8315;231.3614;0.01500529;-0.2104653;0;
183.4828;0;0;196.0123;19.81106;-1.386924;167.2549;169.7223;-0.1149445;-0.1452865;0;
88.28374;0;0;114.044;14.56624;-2.122343;74.2585;77.97282;0.01510571;0.8293696;0;
-474.1473;0;0;-404.4351;12.40815;-2.254176;-479.5378;-476.8892;0.2099926;0.3737649;0;
-638.2132;0;0;-595.8698;2.4827;-8.8831;-643.0985;-640.0153;-0.1150552;-0.2113167;0;
-268.9447;0;0;-284.5522;-1.739354;-10.28082;-278.1354;-276.4296;0.2748645;0.3736017;0;
-204.5192;0;0;-222.5473;3.55368;-9.935571;-212.4513;-214.6827;0.209621;0.04838959;0;
-91.99516;0;0;-126.122;2.478382;-11.80099;-103.1677;-105.5843;0.2094103;-0.1465611;0;
516.9787;0;0;442.0316;10.98236;-1.407019;496.2597;496.0945;0.5340366;0.1784229;0;
667.9456;0;0;626.0573;13.91906;1.474539;648.122;646.0828;0.07872865;0.04830895;0;
261.1036;0;0;279.3522;16.24862;-1.072172;246.9221;244.5102;0.01368219;-0.1466416;0;
195.3117;0;0;212.7298;20.6539;1.206203;179.9575;181.6085;-0.1812336;-0.01655958;0;
84.54604;0;0;115.1275;11.3224;-4.287488;72.01837;74.29236;-0.7007902;0.0484244;0;
-475.1326;0;0;-402.2906;10.50674;-5.622838;-479.7767;-478.0047;-0.11538;-0.08155896;0;
-625.5169;0;0;-579.797;13.57764;-2.268042;-630.0938;-626.512;0.3395073;-0.3413464;0;
-280.0617;0;0;-288.1107;12.76069;-3.538439;-289.0693;-287.0528;0.2092315;-0.4709381;0;
-220.1228;0;0;-229.1007;15.96305;-0.9225487;-228.3092;-230.3552;0.5988253;-0.3405302;0;
-79.59711;0;0;-107.1192;16.61659;-0.65369;-90.02419;-92.44299;0.4033216;-0.08031865;0;
516.3708;0;0;446.5226;17.20214;-3.667265;498.1457;496.5414;-0.3766917;0.1796314;0;
653.5328;0;0;615.9261;18.32393;-2.993751;636.4504;632.9112;-0.2463786;0.3093856;0;
261.3229;0;0;282.537;15.75992;-10.15779;250.7544;248.718;0.2736077;0.04920538;0;
201.0905;0;0;221.5961;14.60598;-11.95601;189.9704;192.059;0.4032675;-0.08077876;0;
104.8117;0;0;134.9169;18.34235;-6.987377;95.51437;97.41345;0.2079603;-0.1456649;0;
-468.6929;0;0;-397.0763;17.72071;-7.181304;-469.6726;-469.462;-0.1820527;-0.2754532;0;
-649.6307;0;0;-603.0111;18.64091;0.5956874;-650.9843;-649.6495;-0.3767718;0.04966025;0;
-278.9765;0;0;-289.4375;20.22977;4.212167;-287.0752;-286.5539;-0.1165239;0.374447;0;
-211.2925;0;0;-222.1179;5.741127;0.3899077;-218.9459;-222.4231;-0.2463415;0.1791688;0;
-100.5733;0;0;-127.3173;0.979936;1.796157;-110.5927;-114.004;-0.440996;-0.01591327;0;
516.0304;0;0;440.088;12.76697;2.598148;497.6502;496.1165;-0.2456508;0.3739068;0;
677.3055;0;0;625.3025;14.36173;2.528554;660.4431;656.3497;-0.1154693;0.6334004;0;
266.2063;0;0;274.0379;5.506043;5.071243;254.9205;250.7687;0.07954871;0.2429599;0;
198.3478;0;0;211.9187;3.022265;5.401062;184.762;185.7993;0.2743708;0.1127811;0;
98.01132;0;0;123.3127;14.60715;4.257047;85.43864;86.59983;-0.1157089;0.3725372;0;
-473.0502;0;0;-412.9792;16.40114;4.587563;-478.1765;-479.5776;-0.18056;0.04732614;0;
-640.6779;0;0;-607.9661;10.7576;1.166945;-645.1743;-644.9499;0.2743928;-0.2775581;0;
-287.149;0;0;-306.4439;10.21093;0.2280117;-294.7643;-295.2898;-0.115687;-0.01740986;0;
-223.2049;0;0;-244.7918;6.584324;3.509946;-229.5633;-234.461;-0.3754401;-0.08235973;0;
-86.54923;0;0;-127.6046;4.769046;4.511163;-96.21201;-101.8544;-0.05022612;-0.2122117;0;
523.731;0;0;437.1148;-0.59438;4.372665;505.6447;500.0704;-0.2450777;0.3077403;0;
664.8835;0;0;608.3393;-3.675242;5.439876;647.4401;639.1852;-0.1798641;0.2424638;0;
259.7938;0;0;265.0253;-1.862888;7.845796;247.8651;240.1807;0.275088;-0.01764923;0;
196.7518;0;0;204.6017;-3.133813;8.507741;183.3358;180.6567;0.2098443;0.3072052;0;
99.228;0;0;119.4388;-1.053584;13.38882;87.13735;86.21004;0.01473141;0.2419292;0;
-467.212;0;0;-406.7917;-0.115496;15.04982;-470.7948;-473.2829;-0.1152181;0.1767188;0;
-640.905;0;0;-612.0296;0.2867616;10.88188;-644.859;-646.8448;-0.3100043;0.2415085;0;
-275.9442;0;0;-308.317;2.027786;9.933186;-286.3909;-288.812;0.01514387;0.04636383;0;
-208.2008;0;0;-238.9169;0.3517849;8.583668;-216.8879;-222.6799;0.1450633;-0.2785195;0;
-94.98592;0;0;-137.6651;0.6862241;7.302368;-105.6008;-111.512;0.01498289;-0.343207;0;
518.6761;0;0;431.1248;7.182269;3.946006;497.5771;492.9838;0.07993518;0.04694196;0;
674.0766;0;0;618.7222;10.9261;2.937297;653.1862;646.3486;0.2097895;0.1768295;0;
260.9816;0;0;269.1508;5.623832;-0.2138526;245.9218;239.216;0.1446114;0.04671711;0;
196.0018;0;0;206.5992;6.82363;-1.821106;178.5209;176.507;-0.1154033;-0.01829717;0;
99.85314;0;0;125.7447;11.2374;5.079722;84.63863;84.18847;-0.1802547;-0.1482135;0;
-472.3971;0;0;-402.5537;11.76198;6.347293;-478.7883;-480.05;-0.3100082;0.3067068;0;
-644.3358;0;0;-602.8608;22.3337;8.819284;-651.3452;-650.9815;-0.5045987;0.371366;0;
-283.6193;0;0;-300.0945;25.86124;10.41789;-295.3069;-295.9431;-0.1142877;-0.4086153;0;
-216.5554;0;0;-234.5757;22.68742;10.8763;-226.7319;-231.9902;-0.04920549;-0.27827;0;
-90.40112;0;0;-125.1449;24.07114;11.80314;-104.0657;-109.2562;0.01581129;-0.018121;0;
516.822;0;0;439.1973;19.09046;5.829917;493.6135;489.8026;0.3406321;-0.1480375;0;
664.978;0;0;617.1663;17.39634;3.27883;642.48;635.8618;0.2753225;-0.2778234;0;
261.3874;0;0;271.8444;18.24952;3.208552;243.7845;237.985;-0.1797255;-0.08264224;0;
197.4692;0;0;212.8508;17.49425;1.19584;177.7601;177.5261;-0.569349;0.3072449;0;
102.1936;0;0;134.1139;12.98869;-4.29784;85.56522;86.01866;-0.3738749;-0.01790057;0;
-465.6237;0;0;-391.4443;10.36367;-7.97746;-473.6147;-474.8484;-0.0486625;-0.3427193;0;
-641.1299;0;0;-594.3862;18.52493;-3.615676;-650.0499;-649.1584;0.01635373;-0.2124403;0;
-278.2928;0;0;-294.0647;19.37697;-4.013941;-293.3257;-292.56;-0.3084994;0.04764258;0;
-207.1113;0;0;-231.5505;17.14767;-8.497642;-221.8792;-226.9239;-0.3081894;0.4373988;0;
-90.4617;0;0;-132.5549;17.73268;-9.426865;-107.5262;-115.127;0.1468916;-0.1477468;0;
516.6366;0;0;431.4823;12.42358;-9.015494;490.7187;485.1245;0.0817767;-0.6673371;0;
673.4134;0;0;618.7669;10.06657;-8.671521;648.2087;642.2454;-0.3081095;-0.01699313;0;
258.5699;0;0;267.4464;12.6694;-10.2704;241.5115;235.1168;-0.2428326;0.3078606;0;
188.1579;0;0;201.7731;12.25453;-9.456284;170.8043;168.0392;0.01728078;0.1776166;0;
107.3843;0;0;132.8549;5.47706;-7.973157;90.23555;89.59719;-0.04770393;-0.01746386;0;
-455.6281;0;0;-388.2668;2.925961;-6.357555;-465.9506;-466.151;-0.242558;0.04752102;0;
-641.1393;0;0;-602.3313;5.066475;-2.399297;-652.6383;-650.09;-0.372249;0.1124406;0;
-281.3007;0;0;-305.9373;3.453794;-0.05260499;-298.4727;-297.1138;-0.3069076;0.0473603;0;
-201.9952;0;0;-233.1038;3.651394;5.439926;-217.5883;-222.2903;-0.2416319;0.04731271;0;
-83.72662;0;0;-128.9843;1.839064;8.85059;-101.4905;-106.9373;0.148415;-0.2126042;0;
509.5593;0;0;423.4926;3.645878;8.305833;482.8179;480.375;0.0832985;-0.3423253;0;
662.7825;0;0;605.5379;4.110729;9.436197;636.1304;632.4407;-0.3715566;0.1127901;0;
266.5654;0;0;269.6605;-5.336897;12.03893;245.0625;241.5638;-0.3062159;0.2426115;0;
201.8924;0;0;209.6695;-6.26954;13.09856;178.9743;180.4142;-0.04603886;0.04746566;0;
105.4255;0;0;127.8749;-10.88494;7.324986;85.40394;87.90437;-0.1109599;-0.1474841;0;
-462.8948;0;0;-399.2387;-12.28052;4.973224;-473.6509;-474.0266;-0.0458811;0.1775008;0;
-643.1514;0;0;-608.7321;-8.182346;7.915476;-653.6468;-654.022;0.2790017;0.2422898;0;
-286.6215;0;0;-311.457;-8.978408;7.237693;-302.0414;-303.1659;-0.04611535;-0.5375617;0;
-207.748;0;0;-238.1807;10.79021;3.412515;-222.0904;-227.774;-0.5658078;-0.4720542;0;
-85.10084;0;0;-132.0571;19.15211;2.136411;-101.8026;-108.9797;-0.04550048;-0.2117106;0;
510.4978;0;0;420.6728;5.602562;2.469179;485.1922;479.1467;-0.1104221;-0.0165958;0;
670.5917;0;0;609.1552;5.999075;1.997817;646.061;638.1476;-0.8249519;0.3732249;0;
267.8699;0;0;270.338;12.69085;0.1872705;249.2985;242.1426;-0.3043843;0.1779479;0;
190.3271;0;0;195.1041;12.74545;-1.755301;169.7129;167.4367;0.2156603;0.2427364;0;
105.3035;0;0;119.5709;12.59892;4.877529;86.02182;85.18473;0.2154436;0.3074599;0;
-451.2101;0;0;-392.4169;13.25585;6.145304;-462.6014;-464.2497;0.5400638;0.1772162;0;
-641.2235;0;0;-608.6013;3.529636;-0.09016147;-652.9156;-653.5629;0.4745539;0.3069729;0;
-285.3203;0;0;-313.8251;0.1108137;0.04389499;-301.9982;-304.3314;-0.04566172;0.2416971;0;
-202.5125;0;0;-235.1741;4.597705;-5.783542;-217.612;-224.1907;-0.4354199;0.1115195;0;
-92.23939;0;0;-135.9251;2.985495;-7.586148;-109.4476;-115.4575;-0.4999497;-0.2134293;0;
504.7408;0;0;420.4944;4.858505;-3.29174;479.4289;475.4241;-0.3695127;-0.4081168;0;
670.8373;0;0;613.662;3.915618;-2.618603;646.1132;639.8635;-0.109272;-0.3427394;0;
265.804;0;0;270.9049;8.131242;-0.6066058;245.1652;239.1716;0.1507071;-0.2124603;0;
198.758;0;0;210.7878;10.66867;0.06383307;175.7661;174.3388;-0.04434632;0.1125899;0;
111.3521;0;0;137.4877;-2.001705;5.690213;90.50724;90.70555;0.02066558;0.04750939;0;
-458.161;0;0;-391.697;-3.338864;6.555274;-471.2389;-471.9778;0.6053509;0.112429;0;
-641.5458;0;0;-602.0725;-4.474585;10.43357;-655.61;-655.1613;0.2799059;0.1772834;0;
-286.8291;0;0;-306.1785;-6.546194;12.96844;-305.7517;-306.3029;-0.3050814;-0.01779679;0;
-209.3922;0;0;-237.0929;1.229916;-0.3739474;-226.6716;-231.5326;-0.1098728;0.04718843;0;
-84.1821;0;0;-127.3472;1.898265;-2.449921;-104.2553;-108.924;0.08513959;0.1121084;0;
507.4177;0;0;426.0652;11.14073;-7.672006;478.5566;475.3293;0.2149887;-0.08290633;0;
660.2682;0;0;607.1083;16.6219;-11.34824;632.4981;626.1507;0.3447074;0.04711168;0;
261.9921;0;0;268.1059;7.830309;-5.040682;240.3719;234.2807;0.2793937;0.1120317;0;
189.2653;0;0;199.7457;9.362682;-5.504497;165.9801;164.955;0.2141456;-0.01801557;0;
108.6156;0;0;131.7666;5.602231;3.208693;87.04042;86.3287;0.4088325;-0.08296482;0;
-442.5916;0;0;-378.0471;1.980255;7.023374;-456.149;-458.984;0.3434543;0.2419553;0;
-636.1118;0;0;-600.0555;15.77602;5.676658;-650.5927;-651.8007;0.08323985;0.5015815;0;
-285.711;0;0;-309.7231;16.89924;8.618203;-304.8;-306.1941;0.2780582;0.1112735;0;
-204.1522;0;0;-231.8884;12.19321;5.260397;-221.5979;-226.3639;0.08287682;-0.01877302;0;
-96.68852;0;0;-138.952;13.25269;5.389077;-117.0527;-122.0013;-0.3719778;0.2411152;0;
500.4835;0;0;415.9713;0.6470673;5.718577;471.769;467.9498;-0.3066368;-0.08396379;0;
675.7048;0;0;620.4503;-3.037278;4.641104;647.8937;642.0168;0.01850808;-0.1488468;0;
266.981;0;0;274.8752;-0.1548142;6.511962;243.4457;237.8246;0.08345682;0.1111722;0;
202.0577;0;0;212.6927;-2.431834;5.969556;175.4226;173.6178;-0.3064311;-0.01887421;0;
137.1996;0;0;156.4446;3.465107;5.963558;112.2156;110.8498;-0.6959272;-0.0838226;0;
-443.5214;0;0;-383.2539;5.136565;5.622651;-459.5474;-461.5989;-0.4353586;-0.01877102;0;
-652.7828;0;0;-620.8117;2.317388;4.210482;-668.9177;-668.7182;0.08481759;-0.08371951;0;
-294.4942;0;0;-325.5235;2.449758;4.005302;-315.7352;-316.4106;-0.1101697;0.1112666;0;
-212.177;0;0;-250.5464;7.068996;-1.826116;-232.0848;-237.3197;-0.304961;0.1111548;0;
-92.58629;0;0;-145.9721;8.735857;-4.972478;-115.0353;-120.3899;0.02018215;-0.2787609;0;
504.7066;0;0;411.8317;1.560759;1.328791;473.7219;469.1223;-0.1097728;0.1113233;0;
668.3044;0;0;605.0706;-1.053753;1.327456;637.6008;631.0693;-0.04469517;0.3710808;0;
270.3951;0;0;268.8813;1.29183;-2.089885;244.4074;239.6316;0.3451538;0.04587119;0;
195.9107;0;0;198.5838;-1.321436;-2.087785;168.4499;167.6144;0.08493761;0.1107924;0;
112.818;0;0;121.7978;1.024416;-6.439456;86.63416;86.23682;-0.04508242;-0.08422092;0;
-444.9525;0;0;-395.877;2.563628;-8.040576;-464.1136;-464.8229;0.2148322;-0.01916894;0;
-646.8412;0;0;-620.1787;-13.91602;-4.41554;-665.8581;-665.0049;0.0846817;0.110785;0;
-295.2427;0;0;-330.1385;-17.45201;-3.741274;-319.5503;-319.4476;-0.04533808;-0.214163;0;
-208.6769;0;0;-248.4727;-12.54533;-5.613037;-231.6482;-235.6061;0.3445115;-0.08401316;0;
-102.2081;0;0;-151.7715;-14.27403;-5.808346;-125.5937;-130.7345;0.669002;0.04600595;0;
502.7155;0;0;413.222;-4.413079;-2.989227;471.3575;468.0335;0.1485911;-0.6037137;0;
682.8696;0;0;623.7009;-2.399889;-2.986223;652.7925;647.8476;-0.04646021;-0.5381398;0;
265.0182;0;0;267.0656;3.094879;0.5667511;241.2806;236.0283;0.01855382;0.04710707;0;
192.2258;0;0;195.7704;8.384031;2.57567;165.6385;165.1391;-0.4362362;0.2419618;0;
133.8119;0;0;147.7228;-4.217672;-4.794919;108.1884;108.3767;-0.2408959;0.111784;0;
-437.5354;0;0;-380.0979;-4.548227;-5.526913;-454.5125;-456.5733;0.1491502;-0.2131651;0;
-655.2361;0;0;-622.2191;-5.145893;-6.860897;-671.6964;-672.2559;-0.1758363;-0.3428856;0;
-305.5656;0;0;-333.801;-7.618969;-8.863491;-327.0069;-328.3779;-0.1756597;-0.2126064;0;
-224.924;0;0;-258.2534;1.832182;-2.826243;-246.1563;-251.8988;-0.1105158;-0.0174907;0;
-105.0082;0;0;-151.36;2.969417;-2.220556;-128.6554;-134.5795;-0.2403394;0.1774289;0;
507.3521;0;0;418.1933;4.105509;-1.816428;475.1704;471.1263;0.1497061;0.3071853;0;
683.1912;0;0;622.2328;5.976418;-0.4080829;651.4166;644.8779;0.214523;0.371844;0;
281.144;0;0;284.652;2.018298;-2.818936;255.5232;247.6168;-0.1105292;0.111601;0;
212.7082;0;0;221.4601;1.681477;-2.079292;185.6765;181.7135;0.3443532;-0.2133479;0;
136.2828;0;0;154.6461;2.283;-5.158417;110.4651;108.755;0.3440072;-0.01823147;0;
-435.9416;0;0;-376.7423;2.882942;-6.626737;-453.9247;-456.3828;-0.3060119;-0.0831805;0;
-649.521;0;0;-616.1182;-2.210169;-0.5918581;-666.6115;-669.0046;-0.04583503;-0.2130316;0;
-302.2301;0;0;-325.9572;-3.078605;-0.1223829;-323.3639;-326.8791;0.4739498;0.1120192;0;
-220.5298;0;0;-245.6074;0.07232048;1.48533;-240.7678;-247.0905;0.2136042;-0.01802807;0;
-112.3625;0;0;-151.2204;-0.4636157;3.091428;-135.0789;-141.2079;0.01848751;-0.08297731;0;
501.5669;0;0;419.1449;5.900839;-1.667344;470.44;464.8795;-0.1114657;0.3069101;0;
694.2158;0;0;638.1135;5.961283;-2.268515;663.7449;655.8786;-0.1763211;-0.08320232;0;
276.6028;0;0;280.5267;11.64872;-1.663389;250.9726;244.3011;-0.2411113;-0.4729228;0;
191.9923;0;0;197.0991;13.91419;-1.92965;163.7017;162.3467;-0.5657057;-0.2125782;0;
130.3927;0;0;143.9902;0.772043;-1.45883;103.3799;103.1508;-0.3052679;0.1124721;0;
-432.7678;0;0;-375.5185;-1.238465;-0.854518;-451.6325;-453.0484;0.2147776;0.2422938;0;
-646.6002;0;0;-610.8351;-11.95351;-0.183952;-664.7589;-664.2993;0.08462706;0.3070177;0;
-295.1893;0;0;-315.6819;-18.10442;0.620028;-317.5776;-317.6182;-0.2402947;0.6315459;0;
-208.3112;0;0;-236.342;-11.32107;3.901569;-228.5531;-232.5916;-0.1101185;0.3710419;0;
-99.21915;0;0;-148.2112;-13.31845;5.304168;-121.5021;-125.2867;0.2148288;0.1757671;0;
497.2682;0;0;406.7214;-7.075782;7.643241;465.8873;463.2309;-0.1102238;0.1755905;0;
678.1149;0;0;618.1437;-3.586048;9.310134;647.0779;641.3007;-0.305015;-0.1494227;0;
277.3847;0;0;278.3181;-9.275871;8.229053;250.8765;244.9802;-0.1098065;-0.0843052;0;
196.7713;0;0;202.2641;-7.72631;8.890614;166.6666;166.0236;0.02023849;0.04571421;0;
118.1131;0;0;131.9086;-3.096846;6.470294;89.10055;89.39525;0.2151202;-0.01929906;0;
-439.5379;0;0;-389.7743;-0.4144171;5.191117;-459.7132;-461.3553;0.1499367;-0.08424703;0;
-644.1182;0;0;-620.5789;0.3902826;8.802979;-663.9608;-663.29;0.08481869;-0.2140971;0;
-300.1436;0;0;-333.6618;2.063854;9.39698;-324.7139;-324.4185;0.2146681;0.04598745;0;
-211.9486;0;0;-248.744;3.736719;4.363819;-235.1824;-239.3226;0.08451776;-0.0190261;0;
-104.4771;0;0;-153.4794;3.197101;2.484034;-128.6246;-132.8855;0.08443284;-0.4088111;0;
492.0156;0;0;398.46;12.97315;7.572119;460.2087;457.8886;0.2142827;-0.1485309;0;
685.7361;0;0;617.0745;16.10795;7.832442;653.8362;649.5819;0.08413269;0.3063897;0;
274.0037;0;0;268.8792;5.776636;5.27922;246.7586;243.0083;-0.1758212;0.3060819;0;
181.8995;0;0;181.0905;5.905529;5.340899;152.3705;153.1216;0.2141595;-0.01906238;0;
131.0547;0;0;137.0556;-5.420886;0.2449512;102.5548;104.4297;0.2139443;-0.1489779;0;
-424.2979;0;0;-375.5745;-12.18059;-2.233541;-443.8986;-444.4619;-0.4359441;-0.3437302;0;
-652.1943;0;0;-622.8226;7.122731;2.524369;-670.0262;-670.2141;-0.240604;-0.4083522;0;
