Fp1;Fp2;O1;O2;POLY3;POLY4;A1;A2;Video;Audio;event;
-582.5466;0;0;-560.9753;-10.00809;-1.172066;-573.1058;-566.3521;0.3714833;0.3295144;0;12:36:01 Рука;
-242.3819;0;0;-260.4374;-11.47092;0.16877;-236.8862;-232.5755;-0.3435308;0.004346544;0;
-245.3242;0;0;-258.8014;-2.886558;4.455386;-238.0849;-238.4637;-0.2782182;-0.3204945;0;
49.4617;0;0;10.38598;-0.4717835;7.331175;52.19603;52.25488;-0.148004;-0.1252705;0;
650.5474;0;0;584.462;-4.489798;2.501038;645.6578;646.5911;-0.1478553;-0.06017726;0;
564.1868;0;0;543.4575;-3.681979;1.761835;562.2381;561.7338;0.17713;-0.3849535;0;
178.9382;0;0;199.7714;-0.1956547;7.989233;180.0525;181.9849;-0.1478847;-0.1896647;0;
206.4945;0;0;220.7476;2.216415;8.048188;204.6716;210.4751;-0.3426381;0.005427929;0;
-41.27608;0;0;-2.54962;-0.8672705;10.7864;-37.84976;-32.98909;0.3073796;0.07038983;0;
-626.0032;0;0;-559.0798;-0.5316064;12.65096;-614.4594;-610.9779;0.6319074;0.1352865;0;
-589.9545;0;0;-567.0138;5.297053;3.260885;-582.5452;-577.3806;0.0465664;-0.05975153;0;
-237.0388;0;0;-253.9761;5.961316;1.65014;-234.0722;-230.3495;-0.1483824;-0.05969149;0;
-245.2963;0;0;-256.9068;10.50968;0.9786529;-239.834;-240.9252;0.1766034;0.1352705;0;
50.4891;0;0;7.343638;11.1687;-1.433716;50.69857;49.48357;-0.01847609;0.005199907;0;
655.9465;0;0;584.5461;10.75631;5.13193;648.3472;648.3203;-0.1483922;-0.2546747;0;
558.6485;0;0;539.6061;11.14667;6.399449;555.0548;553.2788;-0.2781778;0.07041793;0;
179.8398;0;0;204.8569;2.294213;2.30706;180.7474;181.2221;-0.3428656;0.6550533;0;
209.3317;0;0;227.8269;0.5505952;1.702017;208.1769;213.5237;0.1122503;0.459493;0;
-51.68508;0;0;-11.21952;-8.894429;6.054076;-47.77868;-43.12445;0.2420722;0.1341946;0;
-623.0334;0;0;-560.8694;-14.51157;7.454512;-611.3224;-607.4849;0.3067963;0.004125083;0;
-581.9277;0;0;-563.4918;-3.713347;4.031014;-573.0396;-567.3943;0.2415207;-0.2557484;0;
-247.0735;0;0;-265.1378;-4.178131;5.366622;-241.3177;-238.052;0.241278;-0.3204588;0;
-250.6359;0;0;-264.4341;-1.360893;-1.202975;-243.574;-244.4345;0.3060029;-0.3201368;0;
49.09044;0;0;7.882377;0.6502061;-3.479064;50.08578;49.78837;-0.149076;0.005021589;0;
647.2404;0;0;580.7115;-4.240567;5.70085;640.3013;642.3155;-0.2138935;0.1999186;0;
558.9466;0;0;540.1481;-4.303655;5.561155;555.95;556.7128;0.1761255;0.1347504;0;
174.6404;0;0;200.151;-8.050375;13.19138;176.2069;177.6561;0.4358179;0.134615;0;
197.7657;0;0;218.8154;-10.11839;16.72822;196.8319;201.9653;0.3704126;-0.06042234;0;
-42.49986;0;0;1.07987;-11.64847;7.133094;-38.18533;-34.86866;0.2401057;0.1345404;0;
-618.8549;0;0;-552.2056;-14.85194;6.991961;-607.6107;-604.9846;0.4347665;0.06943788;0;
-591.684;0;0;-571.9531;-8.340284;0.4877133;-585.511;-579.764;0.3693623;-0.1255339;0;
-241.6401;0;0;-262.4086;-5.987379;-3.598614;-239.2214;-236.2913;0.2390565;0.004526896;0;
-250.0804;0;0;-265.7682;-18.64102;2.902103;-244.5408;-245.8615;-0.08602044;-0.1903797;0;
34.65289;0;0;-7.505791;-19.89411;1.626633;35.37687;35.61921;-0.5407054;-0.1901884;0;
645.2487;0;0;576.1459;-16.0567;1.290084;637.4137;638.0931;-0.3452601;-0.0600626;0;
564.0782;0;0;540.772;-16.7775;0.9538729;560.1243;557.3047;-0.1500111;0.004965095;0;
177.3931;0;0;198.0256;-5.306438;-0.3867442;178.8153;178.2475;-0.4097297;0.06992746;0;
195.3307;0;0;210.3828;-1.483689;0.1495079;194.815;200.3072;-0.1494487;-0.2549795;0;
-58.17574;0;0;-21.7745;-3.02244;-5.611053;-54.69293;-48.89392;0.0456035;0.005146048;0;
-627.5186;0;0;-563.168;-0.2727366;-6.342227;-616.4806;-611.6244;-0.279279;0.2000429;0;
-591.6558;0;0;-568.6616;-2.684336;-4.795247;-583.315;-576.4022;-0.4089331;0.1998419;0;
-252.6688;0;0;-271.3018;-1.743634;-4.388531;-249.0841;-244.2397;-0.3435549;0.1346738;0;
-254.414;0;0;-272.3411;-2.277745;-0.566216;-249.4585;-249.0543;-0.08334029;0.06957111;0;
42.94234;0;0;-3.577387;-1.67322;0.8409945;42.70795;45.04826;0.1116455;0.0695012;0;
646.6582;0;0;575.3852;-3.747644;7.002457;639.3651;642.6401;0.1115333;0.004464009;0;
565.2366;0;0;542.011;-5.75361;9.138753;562.386;562.222;0.04645389;0.5241983;0;
181.5487;0;0;201.4498;6.443309;12.67954;182.3867;183.5971;-0.08352748;0.3937369;0;
204.8544;0;0;219.3008;8.446567;15.74802;202.3183;207.5879;-0.2133782;-0.2563322;0;
-34.60613;0;0;4.063555;7.030584;6.823709;-32.45459;-27.44012;-0.1481965;-0.1911073;0;
-614.0301;0;0;-547.8506;8.765807;5.812108;-603.0726;-599.3126;-0.01811289;-0.515752;0;
-586.9265;0;0;-565.3536;0.450628;3.729797;-578.4163;-573.2232;-0.2129967;-0.7101358;0;
-234.0138;0;0;-254.4415;-0.9563443;1.716683;-229.3852;-226.009;-0.08284801;-0.1896835;0;
-246.5847;0;0;-263.0564;-5.844527;6.001744;-240.5865;-242.0237;0.2420719;0.2652785;0;
35.39645;0;0;-8.669769;-9.723421;6.665543;35.39167;34.45564;0.1768614;0.654816;0;
652.4257;0;0;579.6058;-2.547331;9.472007;644.2375;644.8642;0.04674897;0.3942887;0;
575.371;0;0;550.7875;-2.611144;12.14181;571.8763;570.6907;-0.01826534;0.1989905;0;
183.5521;0;0;204.3455;-0.5997647;14.27294;184.8709;186.6225;-0.3430837;0.06885585;0;
201.3586;0;0;214.0727;2.281226;17.54064;200.1773;206.2375;-0.342739;0.133754;0;
-44.53273;0;0;-9.717562;-3.950357;18.59474;-41.71482;-36.97255;0.1773442;0.393489;0;
-614.514;0;0;-551.9977;-3.946388;20.25063;-605.7643;-601.5266;0.177166;0.003289532;0;
-585.6607;0;0;-567.2476;-0.191378;25.72276;-580.1058;-574.2481;-0.01791409;-0.1266485;0;
-252.4269;0;0;-274.7619;-0.6597002;27.84024;-249.6887;-246.2107;-0.08286343;-0.06155386;0;
-258.7325;0;0;-275.7352;7.981151;26.87463;-253.4982;-254.3341;-0.4725842;0.13341;0;
36.12942;0;0;-6.530786;11.12194;26.98159;36.73571;36.9002;-0.796946;0.328178;0;
644.0375;0;0;573.9965;1.598943;26.28465;636.4598;638.3108;-0.2764066;0.003011527;0;
574.4875;0;0;547.7451;0.05709546;25.38746;570.3532;568.954;0.2436099;0.06797586;0;
192.477;0;0;207.9902;1.999421;21.47707;193.1569;192.8211;-0.341341;0.002940199;0;
202.466;0;0;215.9646;0.5908926;19.0441;200.9588;205.0586;-0.6658347;-0.3218995;0;
-38.5539;0;0;-0.9559267;0.6566717;18.28815;-35.43687;-32.27829;-0.3403289;-0.1916413;0;
-613.7885;0;0;-550.5537;1.058154;16.86326;-602.9285;-600.4603;-0.2100523;0.133388;0;
-598.1168;0;0;-577.3618;-4.703686;14.10001;-589.8914;-585.0518;-0.1448739;0.1982213;0;
-241.5697;0;0;-262.627;-5.904408;12.94714;-237.2881;-233.8277;-0.01479363;0.3929241;0;
-240.8273;0;0;-258.6775;-2.147431;12.39826;-235.4255;-235.4668;0.1151559;0.2625946;0;
29.71634;0;0;-13.79054;-2.480066;10.84532;29.42803;30.6986;0.1800075;-0.06250596;0;
638.443;0;0;565.9944;4.220231;16.19293;629.7842;632.3029;0.04989199;-0.1274105;0;
571.1475;0;0;544.4362;6.225722;16.37761;566.4329;566.2004;0.3746786;-0.06231513;0;
189.2028;0;0;206.3713;4.478155;16.42814;187.9287;189.5705;0.5042368;-0.1272199;0;
212.8132;0;0;223.7177;5.075891;17.81815;208.6669;213.7428;0.1788934;-0.2570267;0;
-37.8997;0;0;-1.081761;2.860964;6.413516;-36.54467;-32.91061;0.04877897;-0.2567684;0;
-623.2549;0;0;-557.4885;2.991811;2.923959;-614.6548;-611.3368;-0.1461721;0.003358921;0;
-597.3913;0;0;-576.8558;-4.445934;5.600338;-592.2982;-586.7346;-0.1460252;-0.1265791;0;
-254.4007;0;0;-274.0531;-7.120784;3.451257;-252.0612;-248.5647;0.1139909;-0.2563866;0;
-257.8932;0;0;-272.5908;-1.754995;5.122363;-253.1823;-254.1245;0.1788437;0.0687077;0;
37.09284;0;0;-5.388595;-1.150995;5.251182;36.61409;35.42292;-0.08120537;-0.256198;0;
642.5637;0;0;573.2635;0.4577519;1.494983;634.3394;634.0864;-0.4059605;-0.5807773;0;
566.7059;0;0;542.3902;2.534373;0.0198563;562.1754;559.299;-0.2106505;0.06947967;0;
186.7022;0;0;206.5762;1.727543;5.244383;187.0488;185.4247;-0.01553685;0.3942465;0;
201.2572;0;0;219.9868;0.6540803;6.511789;200.7914;203.9165;-0.2104233;-0.06092099;0;
-45.63358;0;0;-2.310131;13.91629;0.9457847;-41.22636;-37.91696;-0.2751792;-0.2557618;0;
-619.3618;0;0;-550.2199;17.586;0.408971;-608.8996;-605.7809;-0.2749027;-0.1255701;0;
-595.3137;0;0;-572.2806;7.922787;0.7434747;-588.1729;-582.6835;0.05021026;0.1993928;0;
-245.8909;0;0;-265.6095;9.522416;0.9436764;-243.4423;-239.7076;0.3100292;0.1342251;0;
-245.8313;0;0;-260.6575;-5.892494;-0.4639134;-242.2607;-242.4028;0.1148156;-0.1257792;0;
26.15417;0;0;-15.39371;-12.11586;-0.7983619;25.72314;25.956;0.04973292;0.06924925;0;
633.7599;0;0;562.6437;2.899511;3.422243;625.8331;626.0657;0.1146503;-0.255657;0;
579.775;0;0;552.0834;2.762876;3.753719;575.5417;573.7751;0.1145351;-0.6452042;0;
189.5133;0;0;205.765;4.63611;9.57734;189.4073;190.3286;0.309322;-0.3197192;0;
200.005;0;0;213.3043;5.56848;12.38088;197.0255;202.1938;0.1141092;-0.2544306;0;
-33.51619;0;0;4.132511;6.969405;5.134525;-31.87001;-26.89435;-0.01594014;-0.1892076;0;
-614.2531;0;0;-548.219;8.838412;4.325571;-604.9249;-600.3915;0.3089126;0.2657539;0;
-597.9562;0;0;-575.0294;-0.8160113;3.383463;-592.4481;-586.5449;0.3086022;-0.1243172;0;
-244.5952;0;0;-262.8582;-2.824923;1.169749;-244.4024;-240.1294;0.04842273;-0.5139963;0;
-248.6598;0;0;-261.907;-7.175365;2.575093;-246.6556;-246.01;-0.0815606;-0.1886431;0;
23.39092;0;0;-14.70541;-11.58879;1.232969;22.26971;22.47733;-0.08147866;-0.3183883;0;
633.2484;0;0;568.5787;0.3455774;-0.5098262;626.0688;626.9634;-0.1463641;-0.253101;0;
574.079;0;0;551.4532;4.698511;-1.179143;571.0296;569.7369;-0.08124971;-0.1878794;0;
185.7596;0;0;204.948;-9.572477;-5.263795;186.149;185.982;-0.1461354;0.007211445;0;
198.6288;0;0;215.6741;-10.09872;-7.201011;196.0194;200.1629;-0.2759233;0.1371389;0;
-34.64109;0;0;5.375444;-1.582108;-4.112561;-32.75017;-28.61084;-0.08074399;0.007066402;0;
-610.3169;0;0;-542.9793;-2.518524;-3.505704;-600.182;-597.5461;0.4390759;0.07202666;0;
-591.2754;0;0;-564.3602;15.30122;-7.85595;-583.2747;-579.3295;0.3736674;0.1369216;0;
-241.1695;0;0;-253.9489;19.97392;-9.187593;-237.2997;-234.7328;-0.4063162;0.2667187;0;
-249.173;0;0;-257.4418;11.44738;-2.748244;-244.1827;-244.6169;-0.405908;-0.05838599;0;
21.50393;0;0;-14.92993;12.9771;-0.8699602;20.61721;21.8076;-0.08066338;-0.383164;0;
633.2998;0;0;562.7947;-4.652084;-3.74923;624.6054;625.8571;-0.2754844;0.2019271;0;
577.941;0;0;547.1118;-10.60926;-2.071012;573.0659;570.8181;-0.01533818;0.5265608;0;
186.3693;0;0;200.6734;-10.19646;-4.949075;186.0593;185.5628;0.3744813;0.5260318;0;
197.8012;0;0;208.5927;-14.67419;-5.479965;195.8048;199.6817;-0.01569905;0.3306012;0;
-29.15861;0;0;4.548052;-9.568253;2.429283;-25.53074;-22.09507;-0.2105853;0.2003343;0;
-608.1508;0;0;-545.0552;-9.358543;4.235381;-596.4681;-593.5981;0.4392997;0.200133;0;
-598.1069;0;0;-576.9913;-6.602474;5.637767;-589.6844;-585.1306;0.373891;0.2648993;0;
-239.9357;0;0;-260.5078;-4.519735;7.172587;-236.2067;-232.9694;0.04867857;0.5894698;0;
-234.1349;0;0;-252.9372;-2.238018;6.562656;-229.3477;-229.8617;-0.08130503;0.1990735;0;
30.52995;0;0;-15.11496;-0.2924097;7.02482;30.50223;29.23911;-0.3410927;-0.1259633;0;
632.3218;0;0;562.8597;1.515569;5.142362;625.1727;625.0352;-0.2108153;0.1340327;0;
581.1493;0;0;558.2961;3.92592;5.070212;577.5056;576.4938;0.04926591;0.2638327;0;
191.3235;0;0;212.2214;-4.450769;-0.8292588;191.744;192.1074;-0.08071828;-0.3861059;0;
194.3797;0;0;210.5089;-5.986538;-4.043484;192.051;195.7875;-0.08063717;-0.7755219;0;
-36.01245;0;0;2.401846;-3.971767;1.921816;-33.52864;-30.04584;0.04937854;-0.1900366;0;
-605.9398;0;0;-538.4537;-5.105876;0.6473308;-595.7123;-592.358;-0.01563842;0.1999584;0;
-592.9622;0;0;-565.9611;-2.488778;4.397603;-586.0558;-581.0182;0.04934464;-0.1250793;0;
-246.8525;0;0;-260.2333;-3.29056;6.536638;-242.8267;-239.0435;0.1792297;-0.1899209;0;
-244.4181;0;0;-251.1013;2.005008;-4.186955;-235.8361;-236.4295;0.1140823;0.2650413;0;
26.31657;0;0;-4.347848;3.342164;-5.321458;31.64155;30.11173;0.04900033;0.264775;0;
628.4874;0;0;565.4951;0.2583229;-6.588787;624.8116;624.7825;-0.01601624;-0.3851645;0;
578.0684;0;0;552.6205;2.065748;-8.25674;573.959;572.2433;-0.2758695;-0.1249081;0;
197.1788;0;0;214.5474;-11.46664;-3.492777;193.7606;193.9832;-0.5354617;0.2650215;0;
211.4734;0;0;227.1379;-16.14319;-3.556129;204.8727;209.9052;-0.6648583;-0.1250489;0;
-22.43417;0;0;15.26608;-4.539041;3.413425;-23.28103;-18.9408;-0.2743862;-0.3198253;0;
-606.4305;0;0;-543.0936;-4.869273;6.826003;-599.2806;-596.0692;0.2456282;-0.1895692;0;
-594.9517;0;0;-573.7822;-1.716548;1.058856;-591.8069;-586.6622;0.05047937;-0.2543461;0;
-233.2854;0;0;-255.6153;1.030867;1.325724;-234.1417;-229.9392;-0.0145387;-0.1241558;0;
-229.6152;0;0;-248.8617;-5.735323;2.46298;-227.9719;-227.2094;-0.1444588;0.005903611;0;
24.67532;0;0;-17.22797;-5.795933;2.326539;22.06905;22.39355;-0.209281;-0.318939;0;
628.6594;0;0;556.8758;-3.915076;1.520528;618.6844;619.196;0.4406027;-0.5784879;0;
582.738;0;0;553.4427;-3.509;1.251069;576.2713;574.8459;0.7649966;-0.1881026;0;
195.7217;0;0;212.9949;-3.103333;-0.6257105;193.4469;194.2718;0.1145546;0.1369231;0;
203.8334;0;0;217.466;-2.765422;-2.165689;199.4369;204.3839;-0.4052992;0.2017529;0;
-28.69216;0;0;8.852279;0.4525378;2.257238;-28.64891;-23.83188;0.04987944;0.07161548;0;
-601.8127;0;0;-533.6964;1.724881;2.589885;-593.9609;-589.5861;0.374666;-0.1883259;0;
-595.8358;0;0;-567.6428;0.9862134;1.783487;-590.8654;-585.0581;-0.01551448;0.006765393;0;
-249.9106;0;0;-262.9128;0.1809392;2.920405;-249.1931;-245.5156;-0.1454336;0.266628;0;
-238.1653;0;0;-249.2179;5.003529;-1.838195;-235.8868;-235.5238;-0.0803201;0.4612621;0;
33.93737;0;0;-2.778737;5.802784;-1.769365;31.84076;31.95351;-0.0802394;0.5907333;0;
632.6024;0;0;568.7493;-0.7671298;-1.968536;623.2615;623.1867;-0.4049955;-0.1894684;0;
583.2412;0;0;561.3063;-1.503293;-2.23449;577.283;574.9595;-0.2096865;-0.5790821;0;
211.6541;0;0;229.9085;-8.334286;3.193251;209.8249;208.4407;0.3102629;-0.1886961;0;
219.6873;0;0;232.8634;-10.87151;3.658923;216.2982;219.0383;0.05008179;-0.05857186;0;
-23.41135;0;0;12.17775;-7.510705;10.21945;-21.04997;-18.00026;-0.07990322;-0.1884477;0;
-604.0334;0;0;-541.5562;-7.369436;12.08458;-593.6785;-592.6308;-0.1447903;-0.318193;0;
-600.553;0;0;-579.4927;-4.548992;11.00084;-594.0814;-591.848;-0.4045141;-0.1879386;0;
-241.6296;0;0;-262.9442;-3.405345;12.86518;-239.2875;-238.0558;0.1805984;-0.5125865;0;
-233.3909;0;0;-251.623;3.630674;1.465522;-229.7393;-231.3823;0.5702209;-0.4471041;0;
16.96792;0;0;-25.04648;6.306344;-0.4784552;15.24353;14.1019;0.2448113;0.1380513;0;
627.394;0;0;557.0611;6.501078;-3.693033;618.4875;617.222;0.2445653;0.07294519;0;
594.3424;0;0;566.3714;8.034787;-7.373384;588.2559;584.9927;0.04941755;0.007904543;0;
200.8177;0;0;219.9761;2.199564;2.346306;198.1106;198.349;-0.2105015;0.2027986;0;
204.2391;0;0;222.2539;0.7908346;1.808085;199.4108;204.2092;-0.1453226;-0.05727451;0;
-19.35382;0;0;19.19499;-4.367524;10.91582;-19.67952;-16.82253;-0.3400786;-0.3170863;0;
-598.106;0;0;-533.1716;-7.846736;15.05768;-591.0601;-590.1425;-0.0149002;-0.1218657;0;
-598.1921;0;0;-575.0521;-6.163912;4.459487;-593.777;-591.2361;0.1800168;0.3979955;0;
-248.6414;0;0;-266.5041;-7.832658;5.057853;-247.604;-246.1902;-0.08003345;0.5275303;0;
-242.5196;0;0;-255.0544;-6.819434;-3.520923;-239.9215;-240.9453;-0.0149857;0.4620329;0;
21.96629;0;0;-16.48044;-6.67886;-7.000375;19.25194;18.29161;0.3098661;0.1367319;0;
627.0776;0;0;560.9958;-7.475456;-3.376385;616.4324;615.473;0.5044568;0.006659823;0;
588.0293;0;0;568.5531;-7.535293;-5.851239;580.1434;577.9981;0.4389825;0.3314899;0;
211.7523;0;0;235.4614;-5.98748;3.732956;208.1222;207.3534;0.3086067;0.07128741;0;
223.0337;0;0;238.848;-5.713044;6.274557;218.7202;220.4508;-0.08150739;-0.3185883;0;
-12.25974;0;0;24.77802;-7.382243;0.1729269;-11.6964;-10.40474;-0.2763275;-0.4482028;0;
-604.8246;0;0;-537.027;-7.910689;-0.09517855;-597.0154;-595.7251;-0.08114784;-0.3827851;0;
-606.7156;0;0;-578.029;-9.442982;1.579368;-600.601;-597.8126;-0.211001;-0.05756382;0;
-241.6641;0;0;-256.1722;-9.969357;1.912696;-240.1783;-238.7047;-0.1458216;0.007461359;0;
-234.4873;0;0;-246.4196;-12.77238;-2.509977;-232.3783;-234.1545;-0.08070777;0.2673233;0;
14.99804;0;0;-22.03463;-14.03234;-2.440472;12.91953;10.95773;-0.2755287;0.2020873;0;
628.1122;0;0;559.3828;-9.932406;-7.528601;617.6026;616.0176;-0.1453172;-0.1879198;0;
595.1849;0;0;570.5023;-8.113765;-9.597385;587.8092;584.4766;0.04973088;0.2020731;0;
198.1611;0;0;221.6042;-13.06211;-1.215119;196.1651;195.0223;0.04968091;0.20187;0;
203.2094;0;0;221.8188;-14.38913;-0.6780347;199.2788;202.1352;-0.2752057;0.07173249;0;
-11.1372;0;0;29.19261;-2.25088;7.092423;-10.75342;-9.024382;-0.3398965;0.1366277;0;
-591.6467;0;0;-522.6843;1.033912;10.76936;-584.1419;-582.4771;0.2451511;-0.3182809;0;
-597.2991;0;0;-570.135;-5.062696;4.730195;-593.6749;-588.6384;0.2449047;-0.1880264;0;
-242.1271;0;0;-258.9058;-4.856538;5.127339;-243.0043;-240.5341;0.309626;0.1369992;0;
-234.3251;0;0;-250.7121;-2.708205;2.107955;-233.015;-235.6073;0.6991189;-0.05804048;0;
22.28144;0;0;-16.32791;-0.8977982;0.6323346;20.02954;18.50186;0.1786777;0.2018872;0;
622.8322;0;0;559.2742;-8.532706;-1.779686;614.2732;613.6841;0.04856351;0.3316191;0;
588.9106;0;0;566.8956;-9.59586;-4.256145;583.9209;580.6462;0.3733514;0.2013512;0;
211.1334;0;0;232.0565;-3.89279;-1.438707;209.4596;207.8124;0.04813957;0.006246787;0;
223.7898;0;0;239.4445;-3.754181;-2.308039;219.6814;222.2213;-0.1468108;0.07120787;0;
9.047782;0;0;46.61322;5.894157;-0.5641639;9.753591;11.91608;0.2431407;0.201071;0;
-587.1616;0;0;-519.2117;9.505557;0.5081299;-578.523;-577.9869;0.5677331;0.07093428;0;
-616.8689;0;0;-587.2805;8.960143;-1.635835;-610.9251;-608.3906;0.242326;-0.2539737;0;
-255.9927;0;0;-270.162;11.56311;-0.02660045;-254.6775;-252.8326;-0.01778689;-0.3836532;0;
-249.4886;0;0;-265.2679;5.054755;-4.78224;-246.3632;-248.0809;-0.01776902;-0.1883657;0;
-10.1081;0;0;-50.92148;2.705151;-5.447264;-10.54655;-12.13756;-0.1476858;0.1366603;0;
624.0833;0;0;554.0756;5.314401;0.5865513;615.7118;613.6226;-0.4723742;-0.1883137;0;
616.3348;0;0;587.5018;2.898164;0.9878595;610.1581;604.9476;-0.2769975;-0.5129612;0;
214.6671;0;0;232.0898;1.488732;8.421728;212.6195;209.6006;0.1780522;0.007292937;0;
224.2589;0;0;237.9161;0.08071665;11.15957;220.0895;221.1966;-0.08199605;0.5270243;0;
12.82728;0;0;51.02083;-7.488802;8.669985;13.40963;14.01587;-0.146881;0.2016581;0;
-589.3204;0;0;-518.1818;-10.09325;10.06791;-580.1805;-579.8872;0.308038;-0.1233813;0;
-605.9072;0;0;-579.1927;-13.02986;3.627559;-600.1497;-598.4199;-0.01710824;0.0066774;0;
-242.2933;0;0;-261.5202;-16.23195;1.346616;-241.9764;-242.4972;-0.08205839;0.3964747;0;
-239.801;0;0;-252.4493;-6.972242;3.689544;-237.0481;-240.8168;0.3727955;0.07123967;0;
8.565251;0;0;-28.30819;-3.750056;2.882041;8.129469;5.55148;0.04758415;-0.2536686;0;
628.9948;0;0;560.2369;-12.6549;0.1329672;621.0007;619.175;-0.08239834;-0.1234791;0;
606.0615;0;0;579.3516;-13.04432;-1.206825;601.3863;597.1261;0.2425212;-0.2532897;0;
218.2096;0;0;234.9423;-5.261683;2.277378;217.4747;214.5931;-0.08255924;-0.3180025;0;
224.6121;0;0;236.143;-3.782527;2.543021;220.6919;221.8737;-0.2773783;0.2020558;0;
1.810749;0;0;37.06818;-0.02768215;3.411244;1.89256;3.635319;-0.01723023;-0.1879513;0;
-583.0846;0;0;-517.4404;2.584314;4.680492;-575.6315;-573.8906;0.04775443;-0.4476318;0;
-591.6816;0;0;-567.0203;-1.50412;0.7239184;-586.9847;-583.3088;-0.08222824;0.2024914;0;
-237.0775;0;0;-254.4198;-1.033118;0.1203447;-236.3833;-234.9601;-0.147113;0.07235323;0;
-225.5325;0;0;-238.1722;-3.979817;2.799419;-223.4646;-226.8529;-0.2768998;-0.3175235;0;
24.63103;0;0;-14.73262;-6.252994;3.734367;22.94865;19.06402;-0.08171956;-0.05733512;0;
628.8651;0;0;557.3696;-0.2858394;0.5155562;619.8755;616.6819;0.1132646;0.00768983;0;
604.4951;0;0;573.9885;-0.1508543;-0.1547912;597.701;593.2613;0.3730201;0.1376168;0;
213.4589;0;0;226.3986;-2.495227;5.069911;209.7327;207.0465;0.307678;0.07251118;0;
212.4948;0;0;223.9223;-2.225276;5.935595;206.2735;207.838;-0.08243523;0.1374057;0;
3.948538;0;0;39.53984;-5.705665;8.608826;3.043331;4.731102;0.2424843;0.0073329;0;
-577.5132;0;0;-510.5359;-6.369517;11.21251;-569.0472;-568.9853;0.307208;-0.3175112;0;
-596.9853;0;0;-568.0563;-5.55981;4.369107;-591.2764;-589.7778;-0.01793739;-0.05732277;0;
-233.7552;0;0;-253.4558;-5.889016;3.29299;-234.4863;-233.489;0.3069173;0.07266952;0;
-223.8377;0;0;-242.9563;-2.600569;8.78216;-222.9439;-225.6957;0.3066089;-0.2522402;0;
14.45504;0;0;-24.82169;-1.7273;9.57713;11.66228;9.662905;-0.01853584;-0.2519868;0;
628.132;0;0;558.4101;-0.3863936;7.691985;616.9088;616.5981;-0.01851721;-0.1217989;0;
608.9477;0;0;580.775;0.5519997;7.215375;601.5464;599.6118;0.04646873;-0.3165785;0;
215.7207;0;0;234.865;1.690521;10.42331;213.6991;213.8904;-0.0185453;-0.3162604;0;
216.5034;0;0;230.6935;3.563856;11.01568;212.2975;216.549;-0.08349401;-0.05607328;0;
2.268471;0;0;35.87199;-0.9277031;8.593225;2.377043;4.62533;-0.01844277;-0.3158863;0;
-578.0671;0;0;-513.9502;-0.1224877;8.517608;-570.3375;-571.0275;-0.01842424;-0.5104709;0;
-592.4787;0;0;-565.4702;-1.864653;5.96382;-588.1302;-586.758;-0.08337307;0.009780732;0;
-239.7479;0;0;-252.6839;-2.934506;4.685152;-240.4012;-239.0929;-0.01832195;0.2046729;0;
-231.5735;0;0;-242.1851;8.255202;6.221051;-229.9772;-232.9806;0.1116311;-0.1203694;0;
19.84544;0;0;-20.80294;10.25566;5.946868;17.50454;14.19188;0.111519;-0.1852158;0;
627.3951;0;0;555.1785;14.66599;6.476635;616.9981;614.5634;0.1763743;-0.1200624;0;
600.0281;0;0;568.801;18.0675;7.072973;593.3272;589.2083;0.1112297;0.00999294;0;
220.3658;0;0;228.9625;10.0114;7.668713;218.4192;216.3034;-0.4735881;0.0099829;0;
230.8265;0;0;234.7919;8.461096;9.402563;226.3206;227.3928;-0.603047;-0.05499447;0;
16.45217;0;0;45.21363;9.524321;6.847764;17.51059;17.45726;-0.01773494;0.2698975;0;
-567.8956;0;0;-507.8663;9.046236;6.639935;-557.9678;-558.7082;0.2421522;0.009756933;0;
-594.249;0;0;-570.949;-2.014915;12.25971;-587.8918;-586.2576;0.1769416;-0.1851549;0;
-239.8922;0;0;-255.6586;-7.572596;12.38135;-238.289;-237.0313;0.04682911;0.07490053;0;
-223.4718;0;0;-232.8505;5.831599;18.06234;-219.8712;-221.3634;-0.14812;-0.05510943;0;
15.32034;0;0;-17.03739;7.16491;20.32161;15.04426;12.49158;-0.2129385;0.009913288;0;
624.3113;0;0;561.7513;1.063118;10.92383;617.2264;614.2391;-0.3426592;-0.05506402;0;
609.1288;0;0;588.4232;1.664286;9.037327;606.299;602.0027;-0.01747819;-0.314878;0;
218.3379;0;0;243.6299;-3.762393;5.478273;221.5703;218.7152;0.3723434;-0.184627;0;
228.7382;0;0;251.4436;-6.907421;1.721724;230.8429;231.1765;0.2420346;0.01046056;0;
23.6738;0;0;62.97304;1.941755;1.786977;27.7754;27.04673;0.04688939;0.4002541;0;
-564.8667;0;0;-502.8683;2.408319;-1.228928;-556.209;-558.3737;0.176777;0.789656;0;
-593.1596;0;0;-569.2045;-4.560327;-0.3569154;-588.0089;-588.0474;0.111632;0.5289932;0;
-242.8643;0;0;-259.1006;-6.297056;-1.160352;-242.279;-243.5669;0.1764872;0.3985269;0;
-230.4389;0;0;-243.3481;-8.902698;-5.780886;-229.5418;-233.7645;0.1763098;0.5930285;0;
15.10679;0;0;-22.90172;-10.70241;-7.047753;10.81812;7.911529;0.2411;0.2675959;0;
627.4088;0;0;559.2037;-14.30898;-9.652884;615.5033;614.0989;0.3707924;0.007457686;0;
612.0983;0;0;588.0645;-16.10327;-11.71966;604.0778;601.113;-0.1493189;0.007450193;0;
228.4883;0;0;248.3316;-14.1447;-7.421094;225.4108;223.3861;-0.6689076;-0.317394;0;
237.8788;0;0;253.8917;-12.99141;-6.408894;233.4302;234.9057;-0.1484967;-0.2521077;0;
25.30905;0;0;65.04385;-13.44687;-10.22036;26.11222;28.71073;0.1764892;0.397819;0;
-561.7338;0;0;-494.4278;-12.16154;-10.00914;-552.9979;-549.8398;0.3062465;0.2025173;0;
-588.4681;0;0;-558.5236;-5.384166;-10.26702;-582.6771;-577.773;0.2409715;-0.122523;0;
-237.0532;0;0;-248.8677;-2.498368;-10.92653;-235.5783;-234.3648;-0.08410735;0.007534835;0;
-232.1923;0;0;-243.6202;-1.892645;-5.757985;-228.4076;-232.8175;0.1758465;0.007527265;0;
5.609052;0;0;-27.60883;-2.560329;-5.015388;5.829324;2.17347;0.1107025;0.007519701;0;
635.2244;0;0;574.3039;9.163891;-5.144314;626.6989;625.6704;-0.2792128;0.2673815;0;
624.6536;0;0;605.7108;13.97745;-4.201384;617.8858;615.1092;-0.2139649;0.3970475;0;
219.3544;0;0;240.1606;-9.680956;-8.818984;217.4659;214.1924;-0.4086519;0.3316813;0;
231.6277;0;0;238.9197;-14.15921;-9.613796;228.6167;228.3449;-0.343274;0.006511249;0;
36.1806;0;0;62.76809;-12.13622;-9.805085;38.73228;38.58573;-0.08305968;-0.05846263;0;
-559.3065;0;0;-499.1376;-15.74038;-9.862216;-547.6994;-549.0327;-0.4078129;0.2014655;0;
-592.4775;0;0;-567.5389;-11.70607;-10.6561;-584.2554;-584.0256;-0.3424358;0.006361017;0;
-235.124;0;0;-251.0024;-13.3019;-10.71238;-232.7197;-232.99;-0.1471897;0.006354625;0;
-229.5154;0;0;-240.4429;-4.446299;-4.204391;-225.302;-228.2581;-0.01710712;0.1362829;0;
7.471166;0;0;-27.55821;-1.897211;-1.587954;7.744838;4.791696;-0.08205727;0.006211302;0;
625.4655;0;0;557.6754;-4.172481;-0.6485971;617.8054;615.1675;-0.3418442;0.3960091;0;
613.905;0;0;588.3492;-0.7520368;1.428403;609.1262;605.1167;-0.211566;0.4605786;0;
227.6695;0;0;247.3667;-14.34894;4.039302;227.3932;224.887;-0.2113534;0.1352791;0;
234.5622;0;0;247.7428;-16.81277;5.7768;232.1622;232.5321;-0.08120639;0.1351431;0;
24.24459;0;0;58.65131;-12.30789;6.239876;26.21982;25.77722;0.438614;-0.2547967;0;
-560.9856;0;0;-496.5661;-14.30526;8.242972;-551.3912;-552.0208;0.3082385;-0.5144101;0;
-590.9691;0;0;-565.782;-4.912787;2.407296;-585.1324;-583.3251;-0.2767773;-0.1890565;0;
-238.1773;0;0;-253.2454;-3.769751;1.333151;-236.9692;-237.0377;-0.1465645;0.2659049;0;
-227.1309;0;0;-234.7501;-0.1486409;5.752685;-222.6132;-226.6796;0.3733215;0.135703;0;
-0.3290843;0;0;-30.67917;2.99934;5.211041;1.685377;-2.127116;0.3079791;-0.1243027;0;
615.7991;0;0;553.6205;-6.314423;13.17653;609.6281;607.0688;0.1127676;0.2656263;0;
615.805;0;0;594.1685;-6.374451;16.17752;610.4523;607.0211;0.04768695;0.3303267;0;
215.8869;0;0;238.1876;-16.01359;10.40086;214.725;212.2342;-0.147263;-0.05980929;0;
229.2257;0;0;244.3201;-21.69093;10.45739;226.6282;227.888;-0.2120824;-0.2546512;0;
50.33516;0;0;83.09303;-6.866024;9.643085;51.6758;53.24669;-0.01696724;0.005474021;0;
-542.2301;0;0;-480.957;-5.251534;7.824857;-532.2701;-533.1996;0.1129845;0.2653379;0;
-591.0979;0;0;-564.6189;-10.73861;10.22838;-583.147;-582.8261;-0.1469984;0.2650713;0;
-239.1806;0;0;-250.834;-9.924517;9.816205;-236.5474;-235.977;-0.211818;0.06990292;0;
-228.7579;0;0;-237.5885;-6.699364;3.443085;-225.2528;-228.4935;0.1781988;-0.255004;0;
3.792722;0;0;-29.14194;-2.941588;0.6934474;3.046385;-1.065648;-0.2117843;-0.1897805;0;
617.3555;0;0;553.0322;-7.091818;2.032287;609.4885;606.3176;-0.5364082;0.07027961;0;
614.7986;0;0;586.6469;-4.204304;0.8246744;609.8131;605.8958;0.1787716;0.2001437;0;
232.4978;0;0;243.9793;-0.1142429;-0.9846934;230.5782;227.7268;0.2435593;-0.1248942;0;
239.1982;0;0;245.4208;2.029326;-1.11767;234.7818;235.1816;-0.2114568;-0.4496054;0;
39.12075;0;0;67.01379;17.03146;-6.341094;39.39395;39.35609;-0.08130968;0.005617783;0;
-547.6237;0;0;-488.8367;21.5687;-9.0809;-539.3547;-540.8293;0.04870671;0.2654815;0;
-594.8619;0;0;-568.0554;31.25992;-1.301999;-588.9126;-587.5746;-0.276179;-0.05962196;0;
-249.4999;0;0;-259.327;37.59152;-1.166725;-247.3048;-246.7178;-0.3408688;-0.3194314;0;
-234.2568;0;0;-239.5763;26.03317;-2.23728;-229.3777;-233.3515;0.04927778;-0.1891758;0;
-1.763147;0;0;-29.3161;25.47115;-1.900117;-0.3871894;-4.044646;-0.1456738;0.005916341;0;
618.9891;0;0;558.293;16.26853;-8.261464;612.1803;609.9633;-0.4053968;-0.1240243;0;
626.8629;0;0;601.8973;8.817445;-9.860632;622.4972;617.8461;0.04978198;0.1359697;0;
229.0576;0;0;246.9082;18.78892;-14.74036;229.0067;225.0474;0.244634;0.2657678;0;
231.7635;0;0;244.4737;17.16245;-17.87374;228.5891;229.3815;0.2443882;0.07059871;0;
52.74549;0;0;86.12;8.906183;-16.04724;53.07257;54.48883;0.5689793;0.2654298;0;
-533.2005;0;0;-467.2509;7.892856;-17.70569;-523.8783;-523.9627;0.2435709;0.3950978;0;
-588.5117;0;0;-554.7372;-1.760617;-16.81712;-580.6981;-579.3456;-0.08151054;0.2647661;0;
-235.6599;0;0;-240.7748;-6.045755;-18.0729;-232.1645;-231.7504;0.04850604;-0.06033667;0;
-222.0548;0;0;-225.8528;5.213452;-13.70097;-217.5009;-220.1483;0.0484573;0.004691298;0;
2.680444;0;0;-27.22558;6.279941;-11.94565;2.669544;0.524639;-0.1464934;0.3944907;0;
623.1783;0;0;559.6318;5.938838;-21.57895;616.1085;614.2781;-0.2113136;0.3291269;0;
625.863;0;0;602.2353;7.540461;-22.62899;622.0486;617.5339;0.1787028;0.1338942;0;
232.9938;0;0;254.5546;7.733955;-25.28545;233.4311;228.7336;0.04858857;-0.1910771;0;
239.4438;0;0;253.2369;9.93601;-27.13556;238.1941;236.812;0.1784744;-0.1908851;0;
44.9259;0;0;79.1323;2.625009;-20.81202;47.48797;46.54461;0.2432624;0.1341434;0;
-537.5765;0;0;-471.358;0.8137103;-18.64778;-527.8956;-529.775;0.04811599;-0.06089338;0;
-582.2635;0;0;-552.4059;8.649774;-17.75826;-575.4659;-575.1571;0.113035;-0.2557342;0;
-239.538;0;0;-251.5019;10.11495;-14.92714;-237.5573;-237.686;-0.146948;0.00439211;0;
-226.991;0;0;-236.3816;6.823234;-11.6301;-222.8883;-226.3278;-0.1468003;0.1343224;0;
1.434884;0;0;-28.87329;5.944746;-9.675905;2.222595;-1.2134;-0.1466528;0.1991548;0;
616.6242;0;0;556.9238;13.44086;-2.231321;609.2902;605.7952;-0.5363095;0.06901997;0;
621.252;0;0;600.3421;15.03495;0.9191185;616.2992;610.6213;-0.3408686;0.06895062;0;
224.2645;0;0;245.4794;12.94373;-2.631901;223.5645;219.7664;-0.2105914;0.1338487;0;
233.1596;0;0;244.4207;15.27525;-2.160375;230.3988;229.8529;-0.2753471;-0.2560899;0;
57.88826;0;0;84.31793;0.992661;-6.846888;58.87841;58.1456;0.2446683;-0.1258979;0;
-536.746;0;0;-480.358;-4.835485;-9.385238;-527.8234;-528.3055;0.6342265;0.2640327;0;
-596.1766;0;0;-572.4538;11.11058;-9.777705;-589.2618;-588.4318;0.2437852;-0.191004;0;
-236.7579;0;0;-251.6646;10.96569;-12.78211;-234.9101;-235.8924;-0.3411659;-0.3207468;0;
-229.2112;0;0;-239.9174;11.15575;-10.49185;-226.3033;-230.1581;-0.2758557;0.3942163;0;
-16.2128;0;0;-50.33406;14.0913;-10.95019;-18.1179;-21.09433;0.2441602;0.3938202;0;
608.1771;0;0;540.4821;-4.007521;-17.70434;598.4029;595.8668;0.5037842;0.06858776;0;
617.8109;0;0;585.8534;-9.29478;-20.03083;611.7321;606.7623;0.1784413;-0.06141586;0;
221.7639;0;0;233.7539;2.636301;-19.13993;221.4383;217.4105;-0.1465747;-0.3861909;0;
234.1597;0;0;242.577;3.639006;-20.72828;231.6481;231.6223;-0.2763621;-0.1909008;0;
50.1418;0;0;79.41515;-1.589563;-20.30556;50.38133;50.04319;0.04875229;0.1341278;0;
-541.3613;0;0;-479.5712;-0.516239;-20.55309;-533.6257;-535.4003;0.3085727;-0.1258764;0;
-595.04;0;0;-567.6074;1.627734;-22.60891;-588.8116;-589.5848;-0.01657409;-0.3206519;0;
-251.3646;0;0;-263.1273;3.702203;-21.98334;-249.8275;-250.4751;0.1133772;-0.06046038;0;
-242.4289;0;0;-248.2452;8.722324;-26.64993;-240.3311;-243.0395;0.1782307;0.06953507;0;
-12.55075;0;0;-42.16175;11.19181;-28.0298;-14.70294;-17.53356;-0.3416871;-0.0604695;0;
609.3368;0;0;547.8965;17.81199;-20.7676;600.1902;597.2375;-0.2763765;0.004558602;0;
620.1563;0;0;597.5707;20.0049;-19.34009;614.5172;609.1936;-0.08119676;-0.1253807;0;
229.5417;0;0;248.9577;25.67822;-16.77543;227.4065;224.3996;-0.1460825;0.004680005;0;
233.4964;0;0;244.9595;30.20678;-14.14624;228.115;229.2966;0.1139336;0.06964266;0;
53.28976;0;0;82.91968;12.62763;-16.00755;52.53644;52.03016;0.2437538;-0.3851987;0;
-541.0276;0;0;-476.7574;8.863894;-14.51784;-532.4723;-534.4774;0.1135742;0.1998944;0;
-606.7007;0;0;-576.353;15.82121;-15.1061;-599.7157;-599.8447;-0.2763439;0.5894976;0;
-245.085;0;0;-259.4329;15.46955;-14.95695;-242.4174;-243.6082;-0.4060009;-0.06076815;0;
-233.2821;0;0;-243.2427;14.98549;-11.45893;-228.2433;-233.4309;0.3740151;-0.4505111;0;
-26.83881;0;0;-58.02879;15.90844;-10.57664;-25.80314;-31.17291;0.308672;-0.5150258;0;
605.4329;0;0;539.7916;16.76311;-9.762218;597.2221;593.4195;-0.7311157;-0.3845736;0;
629.8745;0;0;599.1566;15.67454;-9.484476;624.7329;619.3099;-0.6654137;-0.1892852;0;
224.2576;0;0;236.7989;26.71085;-6.32687;224.3061;220.3878;-0.01507167;0.005807042;0;
226.4685;0;0;234.312;27.0188;-4.444991;224.1432;223.4772;0.04991081;0.2007032;0;
52.64074;0;0;80.40385;25.51779;-10.13395;54.12835;51.65141;-0.01510668;0.2654689;0;
-539.4896;0;0;-478.0837;24.42042;-10.32472;-531.2568;-535.0431;0.3097452;0.3951369;0;
-606.601;0;0;-579.2398;8.856815;-8.773737;-601.0002;-602.4713;0.04956461;0.5896419;0;
-262.1643;0;0;-276.1848;3.957796;-7.894265;-260.4422;-261.8494;-0.4702239;0.7189841;0;
-251.0938;0;0;-260.1652;-19.6232;-6.814605;-247.8742;-251.7162;-0.2098821;0.3284576;0;
-28.26586;0;0;-60.3166;-33.66965;-6.003963;-28.54772;-33.07309;0.2451002;-0.3215459;0;
602.8203;0;0;535.632;-12.26863;0.1643777;593.7307;590.4592;0.1149192;-0.1912881;0;
626.7648;0;0;593.6268;-10.91713;1.436888;618.8712;614.6035;-0.1450656;0.3286428;0;
232.7078;0;0;242.644;-26.3115;6.191111;229.6322;225.9935;-0.2098872;0.1334106;0;
231.4744;0;0;240.4637;-25.7492;7.591409;226.8402;226.9533;-0.339611;-0.1915602;0;
45.1479;0;0;77.17899;-19.69511;5.038552;45.32841;45.0041;-0.07940035;-0.1264004;0;
-543.9764;0;0;-481.6802;-16.46014;5.636336;-536.4872;-537.7482;0.2455161;-0.1262734;0;
-599.6515;0;0;-572.4003;-8.405649;-8.368395;-595.8555;-594.679;0.05036741;0.06875556;0;
-248.3503;0;0;-259.1699;-5.651513;-13.3166;-248.8684;-248.0679;0.1802515;0.1986212;0;
-243.9778;0;0;-250.5387;11.97031;-12.2986;-241.6843;-244.8201;0.115103;-0.1264151;0;
-34.96258;0;0;-68.75315;20.12996;-16.30509;-35.23265;-38.98997;-0.2098493;-0.06132078;0;
592.0699;0;0;522.5812;5.039181;-9.858472;584.1165;581.175;-0.07970379;0.06867553;0;
621.0851;0;0;590.0844;5.436259;-8.776839;615.5759;610.326;-0.07962371;0.3284759;0;
231.0942;0;0;243.0407;-1.134263;-12.25113;230.3382;225.5934;0.05039098;0.00330912;0;
234.6102;0;0;239.798;-5.620126;-11.43503;230.4191;230.4267;-0.01462699;-0.3215309;0;
58.21296;0;0;85.07217;-2.735066;-11.69147;57.14956;57.71934;-0.07957964;0.1985309;0;
-534.2353;0;0;-472.2957;-6.683457;-12.08162;-525.8648;-527.0447;0.245337;0.1983314;0;
-600.165;0;0;-570.459;0.8253468;-7.514762;-593.3023;-592.8568;-0.01477885;-0.3865739;0;
-247.5514;0;0;-257.4179;1.560476;-6.100569;-245.5056;-245.248;-0.2746334;-0.4511529;0;
-239.4941;0;0;-244.8529;-1.991066;-11.11804;-236.2635;-239.0046;-0.07945539;-0.06089549;0;
-27.98468;0;0;-55.51446;0.08801591;-11.44178;-29.44243;-32.18082;-0.1443429;0.1340677;0;
598.1662;0;0;538.7426;-11.63372;-12.97089;588.9638;587.3526;-0.07923052;0.2638677;0;
620.2413;0;0;597.0468;-14.23497;-14.02946;613.9841;610.6254;0.3756205;0.4585046;0;
220.2563;0;0;240.3758;-4.842573;-10.13048;218.5032;215.3353;0.5701451;0.3281092;0;
221.4718;0;0;236.2612;-3.297465;-8.579692;218.7834;218.7421;-0.01513387;-0.1269919;0;
56.14471;0;0;87.97324;0.7916849;-10.37961;57.08223;57.1659;-0.4698901;-0.256799;0;
-526.6813;0;0;-461.7139;4.809377;-9.565385;-519.248;-519.914;-0.3394832;0.2631978;0;
-596.1169;0;0;-564.9478;4.268682;-6.541664;-589.2532;-589.1066;-0.2092074;0.2629333;0;
-247.0681;0;0;-261.1576;5.80561;-6.535091;-243.3972;-245.4995;0.3757088;-0.2570696;0;
-240.8853;0;0;-249.8382;13.50196;0.2366299;-236.2811;-241.4423;0.505266;-0.3217786;0;
-40.11903;0;0;-70.48973;15.3644;2.111914;-39.76736;-43.79889;-0.1449151;-0.256488;0;
589.1675;0;0;520.4716;16.95655;-3.583635;579.9611;576.7457;-0.2097368;0.2635085;0;
624.8698;0;0;591.7875;19.21669;-3.914949;618.0464;612.6479;0.2452453;0.3282111;0;
220.8197;0;0;235.9339;7.542109;-7.996852;221.1246;216.5436;0.1800316;-0.1268901;0;
220.7852;0;0;232.6359;4.655119;-8.457697;218.841;218.325;0.3097853;-0.2566973;0;
61.70568;0;0;92.6599;3.712436;-14.00866;61.51254;61.18449;0.3744414;-0.3214067;0;
-531.933;0;0;-467.4642;-0.3097819;-15.80312;-523.8801;-525.7695;0.1791631;0.1336876;0;
-605.4238;0;0;-576.0022;6.053542;-8.218295;-599.0656;-598.3295;0.1140158;0.45839;0;
-244.1217;0;0;-254.5847;5.377874;-7.741279;-242.6425;-241.2824;0.04893388;-0.1267767;0;
-239.1288;0;0;-241.2105;6.175777;4.390166;-235.4647;-238.2914;0.1138521;0.003285409;0;
-39.67618;0;0;-65.74369;8.044606;9.074438;-40.07618;-43.08742;-0.01619703;0.003282108;0;
592.1086;0;0;531.0225;-1.742741;6.520091;582.6511;581.2046;0.1137539;-0.3865252;0;
626.746;0;0;601.8904;-3.14751;9.125751;619.6093;616.665;0.178607;-0.1262675;0;
234.7504;0;0;252.9608;-3.47914;1.011891;233.1806;230.864;-0.1464092;-0.1261406;0;
230.1418;0;0;243.2738;-6.489754;-1.668443;226.637;226.9464;-0.01632741;-0.2559485;0;
53.24931;0;0;83.672;6.37749;0.007807212;52.93396;52.68079;-0.08127835;-0.1257567;0;
-531.1355;0;0;-466.5106;10.25585;-1.599791;-523.7669;-524.582;-0.08119667;-0.1905977;0;
-602.0034;0;0;-566.3664;-1.342382;-6.688765;-596.3913;-594.8943;0.308689;-0.2553735;0;
-254.2605;0;0;-257.8271;-2.279039;-9.16029;-252.2148;-251.0941;0.1134768;-0.3200842;0;
-240.8241;0;0;-239.0773;0.8720592;-7.074737;-236.7815;-238.9103;0.1133627;-0.1898279;0;
-30.93754;0;0;-55.30436;-0.4689638;-8.407165;-30.95939;-33.46085;0.2431835;0.07023218;0;
590.4063;0;0;525.8966;3.349901;-3.107188;582.0761;580.0144;-0.08189754;-0.1247404;0;
621.2972;0;0;590.7103;3.948771;-1.228665;614.8494;610.7908;0.04811943;-0.1895824;0;
226.7459;0;0;240.7924;0.06003717;-6.719909;225.0523;222.2471;-0.1468309;-0.1244246;0;
220.3961;0;0;229.1187;0.5294674;-7.182037;217.6422;217.9633;-0.3415854;-0.05933223;0;
60.13014;0;0;87.70941;-6.638361;-8.179443;60.37749;59.51138;0.1784965;0.2005968;0;
-529.6964;0;0;-465.7256;-8.707795;-9.778814;-522.7026;-524.3799;0.1783172;0.1354279;0;
-614.6212;0;0;-583.5107;-2.00124;-9.166142;-609.5085;-608.1857;0.2431053;0.07032445;0;
-248.8121;0;0;-262.7728;-0.9948514;-10.42961;-248.3898;-247.1307;0.1778937;0.1352211;0;
-237.6926;0;0;-246.0795;2.288678;-10.62008;-235.2092;-237.6995;-0.1471217;0.2000526;0;
-47.3618;0;0;-75.79272;4.898346;-10.60941;-48.25421;-51.24179;0.2428301;-0.06001779;0;
587.1169;0;0;526.918;4.15649;-16.29217;577.8546;576.3693;0.3725208;-0.2548595;0;
621.6968;0;0;600.6638;4.487107;-17.74943;615.5048;612.9589;0.2422118;-0.1896361;0;
222.5224;0;0;244.7388;10.98031;-14.38245;221.2092;219.6029;0.1770011;-0.05951086;0;
228.2958;0;0;244.8677;12.77794;-13.49722;224.6725;227.0034;-0.3429155;0.005516279;0;
60.77551;0;0;97.50809;6.468458;-14.8903;60.52917;62.92022;-0.2776036;0.0704781;0;
-528.8018;0;0;-460.8093;5.256509;-14.67439;-521.9889;-522.3489;0.1124794;0.200342;0;
-605.4816;0;0;-574.4139;1.366462;-7.626676;-600.4871;-600.6594;0.1773338;0.46001;0;
-258.5473;0;0;-269.6772;-1.5153;-4.872712;-257.2435;-257.1032;-0.01774646;0.1347111;0;
-248.1051;0;0;-252.6021;-0.1072575;-4.26497;-244.9286;-247.4121;0.1771734;-0.4501303;0;
-47.45653;0;0;-74.12539;-0.9104568;-0.9786427;-48.2812;-51.0121;0.3069301;-0.1248414;0;
580.9003;0;0;517.5267;-2.584481;-6.671087;570.019;569.2274;0.1117196;0.07018613;0;
623.6699;0;0;595.7172;-2.11337;-7.869954;614.1113;611.259;0.1116074;-0.5145904;0;
224.2436;0;0;243.7327;-5.125356;1.783252;221.0665;217.6549;0.1114952;-0.1892367;0;
219.5206;0;0;235.6792;-7.330033;3.522894;215.3472;215.2498;-0.01855149;-0.05911189;0;
64.00307;0;0;97.1994;8.886958;1.242057;63.70689;63.98442;-0.08350019;-0.2539545;0;
-532.5114;0;0;-466.2401;14.23569;1.843655;-523.8743;-524.4091;0.0465184;-0.3186667;0;
-624.6797;0;0;-593.4575;0.4909795;0.7030927;-619.2372;-618.6471;0.3713084;-0.2533791;0;
-259.8601;0;0;-275.4582;-0.3137971;0.4344545;-262.4815;-262.6416;0.1110659;0.1366795;0;
-244.8565;0;0;-254.6917;0.8255941;-0.1688284;-245.7261;-249.1344;0.04598696;-0.1882945;0;
-56.14265;0;0;-84.39624;-1.720831;-0.5705564;-58.26076;-62.04044;-0.1489613;-0.2530727;0;
581.2809;0;0;518.4481;6.251501;-1.038864;570.7941;568.5175;-0.5386156;0.3318877;0;
628.7352;0;0;602.822;8.589745;-1.573683;619.4459;614.9851;-0.1482704;0.07168484;0;
226.4928;0;0;244.7709;-3.006812;1.44213;222.2727;218.0663;0.2416826;-0.1232892;0;
222.4546;0;0;232.9683;-4.276588;2.512408;216.3023;216.4105;0.6312438;-0.058198;0;
58.81323;0;0;89.24382;-2.128838;3.313556;56.47767;57.21042;0.6955769;0.07179518;0;
-529.3878;0;0;-463.2557;-3.063728;5.855578;-522.7255;-523.0554;0.1101719;0.2016577;0;
-617.9985;0;0;-584.9788;5.445817;0.2902334;-613.7792;-612.3597;-0.0848408;0.1364878;0;
-272.6758;0;0;-283.1049;8.588177;-1.049717;-273.8955;-273.1646;-0.2146902;0.2662853;0;
-250.038;0;0;-257.2083;6.302372;9.534397;-249.32;-252.8377;-0.2144745;0.4609197;0;
-52.51097;0;0;-81.97535;7.702559;11.19939;-54.97955;-58.61863;0.04561035;0.5254239;0;
574.2268;0;0;508.123;10.44149;11.65702;563.3899;562.2532;-0.2792722;0.329994;0;
633.0574;0;0;600.1909;11.56909;13.58769;623.7932;620.6586;-0.3439589;0.2646951;0;
246.2405;0;0;259.6336;10.48574;6.206156;241.9205;238.7266;0.04619075;0.1344944;0;
245.5558;0;0;256.3118;10.07306;3.9225;239.6784;239.6112;-0.01882301;0.004424576;0;
79.70476;0;0;107.0042;10.7335;6.262962;77.70639;76.45233;0.1111306;0.06938749;0;
-530.5686;0;0;-472.3122;10.92379;4.716061;-524.6315;-526.1966;0.2409536;-0.3204863;0;
-628.1112;0;0;-599.6484;3.946589;2.367042;-623.6168;-622.1194;-0.1490926;-0.3851316;0;
-269.4725;0;0;-280.0187;0.8611644;0.9580219;-269.168;-268.4218;0.2408613;0.07002678;0;
-260.5811;0;0;-265.8693;8.295038;-0.3825994;-258.9026;-261.6553;0.3055866;0.004989055;0;
-75.4122;0;0;-102.9339;9.693223;-0.9180784;-78.35806;-80.67075;-0.2794265;-0.189918;0;
568.9022;0;0;504.3018;2.918329;-3.261436;557.2762;557.0273;-0.3441131;-0.1247598;0;
631.8612;0;0;603.3076;2.514231;-4.061954;623.3078;620.9977;0.1110041;0.1352349;0;
230.865;0;0;249.6913;4.253017;-0.4409168;228.1298;225.2598;0.2408272;0.4599358;0;
220.8255;0;0;235.5099;3.51181;0.4303043;216.094;215.7881;-0.1492188;0.1346369;0;
55.37415;0;0;89.40911;8.799566;1.233667;53.52098;52.71564;0.04583316;-0.1253678;0;
-538.7579;0;0;-470.087;9.326588;1.96924;-532.6757;-533.98;0.1107544;0.06966025;0;
-618.4887;0;0;-582.9327;9.920429;2.235193;-614.6614;-612.4037;-0.2141936;0.1995249;0;
-263.1705;0;0;-271.2534;10.98219;2.29993;-265.0942;-262.0267;-0.2139783;-0.06054493;0;
-250.4748;0;0;-256.4881;3.670135;1.694772;-250.8349;-251.2062;-0.2137633;-0.1254514;0;
-54.13421;0;0;-81.63065;2.527372;1.157206;-56.7428;-57.11372;-0.08361384;0.06957666;0;
568.1074;0;0;506.8431;-2.431661;-2.528018;556.6309;556.5727;0.2413069;0.4593108;0;
617.8238;0;0;590.1667;-5.443327;-4.400878;607.6707;603.8644;0.1760971;0.3289146;0;
232.334;0;0;247.8705;-0.6150867;-4.463439;228.7503;224.8229;0.3708222;-0.451024;0;
219.4194;0;0;227.8813;-1.485125;-5.195766;211.8413;211.3536;0.5003842;-0.5155382;0;
54.71911;0;0;78.7272;2.468482;-6.597187;47.21108;46.41156;-0.08482463;-0.1252161;0;
-528.2303;0;0;-470.5134;3.269309;-6.188661;-527.9223;-529.5331;-0.4745435;-0.06012294;0;
-624.7758;0;0;-597.0392;5.275756;-8.92862;-626.8419;-625.4525;-0.2791646;-0.06006253;0;
-277.1974;0;0;-292.3422;8.418287;-10.25931;-285.2584;-283.683;-0.01901473;0.004965162;0;
-254.4927;0;0;-268.2479;-5.254202;-0.6037006;-262.7954;-265.9068;0.04597172;0.3297969;0;
-69.95459;0;0;-103.8734;-8.396754;1.138462;-82.9341;-86.2298;-0.2139438;0.2644982;0;
560.6113;0;0;490.0575;-0.1502706;2.677804;538.7743;537.0436;0.0461405;-0.06060432;0;
632.6365;0;0;589.3899;0.05095121;5.287447;610.0093;605.2819;0.1760288;-0.1904781;0;
233.0763;0;0;232.7892;-2.226276;-3.8273;212.7832;208.0606;0.1108846;0.06958267;0;
214.5388;0;0;210.5038;-3.965351;-5.832942;190.643;190.3603;-0.0191615;0.2644148;0;
59.2762;0;0;72.2367;3.272302;-3.348713;36.40383;36.80862;-0.2140443;0.004279709;0;
-532.4235;0;0;-485.3057;3.201665;-4.149143;-549.4008;-550.1833;0.1110075;0.004275409;0;
-626.2161;0;0;-612.8162;1.791929;-7.159206;-647.2993;-646.1445;-0.01903871;0.3291078;0;
-263.5813;0;0;-294.86;3.196648;-8.424566;-291.7648;-290.1739;0.1109151;0.06890778;0;
-240.0781;0;0;-268.077;-15.8956;-6.004838;-269.2328;-270.8918;0.6955097;-0.06109616;0;
-57.86588;0;0;-109.6371;-21.84148;-6.333719;-93.48795;-96.01989;0.1101048;-0.1260021;0;
567.6279;0;0;477.0532;-16.79569;-0.9688421;520.9847;518.7051;-0.4747119;0.2639286;0;
635.0858;0;0;572.9629;-19.79292;1.912398;587.7399;582.9639;-0.2793329;0.6534674;0;
244.2688;0;0;222.0008;-14.74919;-6.328303;200.3437;195.9474;0.04578449;0.3279741;0;
228.0939;0;0;202.5999;-13.3952;-7.795446;181.3394;180.6331;0.1756732;0.06777518;0;
69.88161;0;0;64.71552;-13.38174;-1.960343;24.61086;24.15513;0.04556197;-0.2571296;0;
-514.7073;0;0;-487.3845;-10.95642;-1.623458;-553.6857;-554.7032;0.1754509;-0.581708;0;
-607.5807;0;0;-612.8315;-11.81607;-5.037834;-650.3929;-649.8477;0.3052092;-0.06138474;0;
-254.9596;0;0;-304.5579;-11.00089;-6.975277;-304.3506;-305.3051;0.1749679;0.133579;0;
-236.5875;0;0;-287.3853;-4.961616;-2.748344;-285.2417;-290.5681;0.1098248;-0.191392;0;
-56.50271;0;0;-131.7372;-2.076242;-1.874926;-110.7926;-116.1137;0.04474706;0.003702366;0;
569.6768;0;0;457.4741;-8.973032;-12.38912;504.2596;500.7555;0.1096694;0.003698646;0;
641.1932;0;0;561.5869;-10.43788;-15.25681;576.0291;571.1542;-0.1503101;-0.1262397;0;
247.4965;0;0;211.5108;-2.590515;-12.62927;186.3334;182.7752;-0.2800938;0.003821776;0;
236.2533;0;0;191.5582;-1.114044;-13.6212;171.9033;172.2218;-0.08491031;-0.1261168;0;
89.08979;0;0;57.93277;-5.132389;-12.93769;27.67798;26.24703;0.110077;-0.320892;0;
-501.8278;0;0;-501.0945;-4.524019;-12.52291;-555.7441;-558.5479;0.3048685;-0.1256676;0;
-605.6461;0;0;-636.3977;-6.662927;-12.44335;-662.7566;-661.8719;0.2395948;-0.1905087;0;
-251.2154;0;0;-323.2903;-7.325818;-12.22989;-312.9536;-312.1948;0.04445201;-0.3852193;0;
-232.4098;0;0;-297.3534;-1.290237;-8.734493;-291.2749;-294.9521;0.1093747;-0.5797342;0;
-53.14123;0;0;-136.0105;0.586094;-7.587007;-115.8203;-120.1185;0.3691342;-0.3842497;0;
577.7201;0;0;457.6403;-1.356878;-7.445539;505.2964;501.8771;0.1738612;0.2658099;0;
645.4802;0;0;557.8799;-1.556585;-5.696502;575.4407;568.6515;-0.3460522;0.07064074;0;
249.0931;0;0;206.0584;4.87534;-9.843597;184.3713;177.4015;-0.1508025;-0.3192343;0;
240.2221;0;0;190.7339;6.478032;-9.163877;173.3789;171.2887;0.1092184;-0.1889789;0;
93.74175;0;0;62.98138;3.390064;-10.89623;30.40151;29.56275;0.1091087;-0.05885428;0;
-497.1805;0;0;-489.0544;4.19094;-11.82304;-551.0868;-552.9242;0.4338357;-0.05879514;0;
-605.1264;0;0;-624.6821;-2.377354;-2.43367;-658.8536;-658.6277;0.4983672;-0.2536381;0;
-251.3833;0;0;-312.8359;-4.049904;-1.158671;-308.8047;-308.9538;0.3029644;-0.3183506;0;
-228.1423;0;0;-282.849;-3.509972;6.076528;-283.2571;-287.1542;0.3676273;-0.1231287;0;
-48.8156;0;0;-122.2079;-5.850969;10.55816;-106.3113;-110.7042;0.2373232;0.07189709;0;
581.2293;0;0;469.1178;4.135244;-0.4374092;516.1702;512.7812;0.04218274;0.2667269;0;
653.1088;0;0;572.0319;6.676685;-1.709645;589.5519;584.7295;0.2370424;0.1365242;0;
252.3412;0;0;216.0733;0.03854386;-2.511601;193.9081;189.0906;0.1718369;-0.1234824;0;
236.9702;0;0;197.303;-0.4973583;-5.858223;179.4704;177.094;0.2366315;0.006576377;0;
96.5526;0;0;77.28998;3.120464;-0.2928759;44.10805;42.04634;0.3013611;0.2664391;0;
-495.247;0;0;-478.2585;4.322777;0.6451795;-539.1431;-542.1398;-0.08874574;0.07126941;0;
-610.3163;0;0;-624.0169;-4.321754;-9.000767;-655.1678;-656.3499;-0.2835586;-0.0587369;0;
-251.3207;0;0;-307.0489;-6.729286;-10.59931;-301.1871;-301.8058;-0.2183063;0.006289457;0;
-229.7039;0;0;-278.5046;-3.373621;-7.574431;-276.5842;-279.701;-0.2830543;-0.1236515;0;
-62.99425;0;0;-129.5495;-5.044195;-7.700786;-111.7015;-115.065;-0.1528352;0.1363421;0;
571.2502;0;0;467.3432;1.323886;-2.870399;513.5965;511.2358;-0.1526816;0.1362051;0;
647.3877;0;0;575.1942;4.202944;-0.9251322;591.9158;587.9958;0.1073411;0.2660029;0;
244.5019;0;0;218.3578;-5.245751;0.4154561;195.9573;191.4165;-0.02270141;0.2657356;0;
236.8225;0;0;206.4568;-5.708994;2.156595;187.4521;184.8524;-0.2175806;-0.3192375;0;
87.9717;0;0;76.68946;-5.435814;2.154428;42.77383;39.86445;0.4972787;-0.2539494;0;
-505.8183;0;0;-481.7319;-8.31074;2.75511;-542.0377;-546.131;0.5617464;-0.1237595;0;
-608.6331;0;0;-615.4929;3.888748;1.680614;-646.6277;-648.5306;0.04144325;-0.5134392;0;
-261.4457;0;0;-310.465;5.827224;1.54496;-303.5876;-305.9883;-0.08853307;-0.3180213;0;
-239.6938;0;0;-283.7288;-1.345927;-1.202893;-278.1077;-283.8793;-0.2833461;0.202037;0;
-57.7943;0;0;-120.5881;-1.143504;-2.474238;-98.23103;-103.2472;-0.3480288;0.2668014;0;
567.0747;0;0;467.3626;-8.644444;-1.132215;518.6826;514.9209;-0.2827117;0.2015659;0;
642.9665;0;0;575.5259;-10.24335;-1.265043;597.1842;591.4272;-0.2174603;0.006461358;0;
250.205;0;0;231.8701;-13.38089;-1.531704;211.8401;206.9635;0.1725622;-0.7081859;0;
231.4004;0;0;212.1469;-15.37717;-1.463182;192.7617;192.4502;0.1074215;-0.642507;0;
84.05437;0;0;82.18643;-6.988978;-0.6579166;48.51542;47.57954;-0.1525558;0.2676814;0;
-510.981;0;0;-476.9276;-4.972224;-1.193119;-537.239;-541.3597;-0.02246783;0.5922492;0;
-635.4048;0;0;-629.559;1.060992;3.831678;-661.5739;-663.8165;-0.2823146;0.2668174;0;
-281.1316;0;0;-318.3325;5.346834;5.636367;-311.6471;-313.3253;-0.476933;-0.1232548;0;
-252.9256;0;0;-284.3421;7.417566;-0.4646214;-281.0367;-285.5243;0.04328498;0.07177109;0;
-83.75641;0;0;-133.8819;11.16116;-0.3301887;-114.4005;-118.8835;0.1731762;0.1366663;0;
555.2566;0;0;465.2641;7.733691;-4.750608;516.5224;512.2938;-0.1518345;-0.1233404;0;
644.2786;0;0;585.5484;7.056334;-7.023255;608.5194;601.9836;-0.4115514;-0.1232165;0;
240.6463;0;0;231.4502;11.60457;-0.5859582;211.2324;205.5777;-0.3461705;-0.3179947;0;
222.6634;0;0;210.9778;11.12342;-0.3174377;192.1546;190.3787;-0.08595327;-0.1227731;0;
78.51205;0;0;84.39186;6.2231;1.625386;51.84444;50.44514;0.1090351;0.2671543;0;
-517.4548;0;0;-474.1622;3.068039;2.896307;-535.2251;-537.1852;0.1738929;0.3968205;0;
-633.5637;0;0;-617.6759;2.931235;1.55386;-651.2537;-651.5252;0.04378349;0.07158511;0;
-283.9151;0;0;-309.21;1.254326;2.155145;-304.6482;-305.1693;0.1087068;-0.3832582;0;
-256.7683;0;0;-277.7899;-6.18265;-0.9282354;-275.5441;-279.3755;-0.08630442;-0.3179058;0;
-77.22541;0;0;-118.6532;-7.985099;-1.99903;-99.54303;-104.0577;-0.151185;0.007250361;0;
548.2253;0;0;470.9198;-10.5217;-1.126243;518.6213;515.2356;0.1738036;0.3320798;0;
623.199;0;0;580.3289;-11.11434;-1.660975;596.7482;591.4293;0.04369425;0.2018114;0;
232.0191;0;0;236.4183;-8.825992;-2.998842;211.342;206.2783;0.1086177;-0.1232281;0;
221.2913;0;0;220.8759;-8.950845;-3.866607;199.2606;197.5129;-0.08639347;-0.0581369;0;
75.45462;0;0;88.9702;5.39274;-2.054305;56.44456;54.51118;-0.151274;-0.3829152;0;
-514.9495;0;0;-465.2781;10.20912;-2.32005;-524.8824;-527.8134;0.238682;-0.2525958;0;
-632.3103;0;0;-604.7403;7.85531;-1.045166;-641.4212;-642.3502;0.1734749;0.07249478;0;
-278.4775;0;0;-291.3524;10.19097;0.0276116;-290.6402;-291.7557;0.1083332;0.07242193;0;
-251.8359;0;0;-261.9492;4.621996;-3.52239;-261.8;-265.7879;0.04325703;0.2022838;0;
-90.22647;0;0;-121.6314;2.272828;-2.916004;-104.366;-108.3499;-0.02175378;0.1371132;0;
545.0449;0;0;473.1294;2.806407;-6.195238;522.174;519.1312;-0.411536;-0.05792656;0;
637.0757;0;0;596.7166;1.263346;-7.394583;617.9135;612.5623;-0.5410571;-0.05786836;0;
228.0159;0;0;234.049;-6.976946;-0.689104;215.4945;210.3986;0.1091599;0.07212449;0;
207.7968;0;0;209.3886;-10.05139;-0.08556515;192.7268;192.5711;0.4338869;0.007084659;0;
77.15357;0;0;96.17254;-9.505431;5.942863;64.09773;65.19151;0.04364694;-0.1878245;0;
-513.2522;0;0;-457.271;-11.03612;9.285916;-518.174;-518.1433;0.04360308;-0.1226684;0;
-638.4233;0;0;-609.4223;-6.336959;2.645519;-643.715;-642.7473;0.173494;0.007389525;0;
-283.5224;0;0;-295.4674;-5.66003;2.508895;-292.4944;-293.4642;-0.2164844;0.2022841;0;
-245.9438;0;0;-253.0042;0.2401547;1.769562;-251.7209;-257;-0.08633222;0.3320156;0;
-71.03443;0;0;-101.7634;3.85626;-0.1077384;-79.49187;-85.14053;0.3685259;0.1367799;0;
552.0363;0;0;480.4213;-2.108486;2.772636;534.6544;530.1358;-0.02164843;0.2665772;0;
633.9401;0;0;594.0062;-1.30306;2.233987;618.5746;612.1866;-0.1515613;0.201342;0;
240.5006;0;0;245.4592;-3.712648;1.160015;229.9606;224.1412;-0.2163764;-0.3185991;0;
222.6428;0;0;226.0347;-5.651301;1.694713;210.4268;208.4238;-0.2811264;-0.3182789;0;
79.74081;0;0;102.9943;1.119532;-3.263605;71.65999;69.28419;0.1089602;-0.1230571;0;
-508.1064;0;0;-449.1442;1.921714;-3.930155;-507.1836;-511.2437;0.04388337;-0.1879008;0;
-628.0353;0;0;-594.9943;-0.02260017;-3.993189;-627.4882;-628.7332;-0.5408668;-0.3176467;0;
-272.0204;0;0;-282.2409;1.383942;-5.730733;-276.284;-277.4026;-0.08555195;0.007509192;0;
-233.2039;0;0;-242.9144;-6.588051;4.791102;-235.3393;-241.0795;0.4992401;0.3973057;0;
-76.29834;0;0;-103.1155;-10.1314;7.465605;-79.99329;-85.22802;-0.4108043;0.2669718;0;
541.2805;0;0;478.2585;2.739498;2.970247;528.7187;525.8005;-0.7352282;0.1367689;0;
641.8107;0;0;609.0244;4.54443;4.03899;629.5115;624.2849;0.2400206;0.3965008;0;
239.7426;0;0;255.4649;-0.215558;-0.4528034;233.765;228.2939;0.2397795;0.5910044;0;
215.0141;0;0;228.659;1.258527;-1.992956;208.7301;207.0126;-0.2152329;0.3955086;0;
88.23662;0;0;119.6715;-8.053487;-0.9862094;85.45724;83.86636;-0.1500493;0.2002091;0;
-503.867;0;0;-434.108;-11.93016;-2.324755;-497.5856;-500.924;-0.1498985;0.1350406;0;
-630.5468;0;0;-588.7189;1.344691;1.227554;-625.8959;-627.8566;-0.1497479;-0.1249645;0;
-276.2159;0;0;-280.282;4.222752;2.967755;-277.0045;-279.6505;0.04530462;-0.1898062;0;
-242.2054;0;0;-245.018;-3.551023;-4.336123;-240.7443;-247.6354;0.3700958;-0.05968083;0;
-73.98393;0;0;-96.5963;-2.408379;-6.140305;-75.77268;-82.40702;0.1748219;-0.1245882;0;
539.2822;0;0;479.2738;-3.477686;1.769729;527.9376;523.996;-0.1501905;0.1354064;0;
628.1329;0;0;599.8564;-4.412197;2.102865;618.049;612.9246;-0.02010487;0.265205;0;
248.5672;0;0;266.6709;7.648676;4.177101;243.8033;239.3711;-0.1500193;0.1999712;0;
230.5139;0;0;246.1631;11.32469;5.780495;224.1931;223.5135;-0.08490127;0.2647376;0;
79.35812;0;0;113.9196;10.97851;-0.3206385;76.66682;75.86297;0.2400208;0.06956955;0;
-511.5496;0;0;-442.6027;15.38811;-0.4542822;-505.805;-508.0448;-0.08505713;-0.06043505;0;
-629.0388;0;0;-588.397;5.660736;-7.151997;-624.9866;-624.7878;-0.344841;0.004593013;0;
-283.0179;0;0;-283.896;2.908381;-10.49384;-283.5924;-283.3939;0.1752442;0.1994904;0;
-247.6886;0;0;-248.1286;16.16832;-1.775754;-245.7638;-248.7514;0.3699701;0.1343226;0;
-75.71354;0;0;-96.95512;16.21943;-0.6352596;-76.91409;-79.64881;0.04476168;-0.06071436;0;
541.24;0;0;483.9753;20.48906;-2.041263;531.6698;529.3127;-0.1501853;-0.1256207;0;
637.2101;0;0;609.7381;24.0858;-0.6995532;629.7735;624.795;-0.02009973;0.06940757;0;
235.7713;0;0;254.866;6.713869;-1.234714;234.8389;229.3032;0.04488781;0.1992725;0;
206.1741;0;0;221.8763;3.693013;-1.836319;204.5555;201.5866;0.1747774;0.1990723;0;
88.08875;0;0;120.0795;3.755675;5.131629;88.22089;86.5668;0.2395691;0.06893757;0;
-497.1432;0;0;-426.2042;-0.4003087;6.935011;-488.6404;-491.6046;0.2393284;-0.0610664;0;
-635.6987;0;0;-590.2557;10.04894;-2.181514;-626.7047;-628.8539;0.2390879;0.003962303;0;
-282.9245;0;0;-281.4426;10.97685;-5.059466;-278.4372;-280.4593;-0.2159237;0.133893;0;
-241.7233;0;0;-238.8685;10.09419;-4.116621;-235.5539;-241.1971;-0.4106088;0.4585952;0;
-78.43732;0;0;-95.45049;12.09378;-6.590853;-75.70992;-81.5349;-0.08535949;0.393167;0;
539.8932;0;0;486.4155;7.928441;-9.397391;534.3096;529.0527;-0.1502411;0.06793529;0;
638.0511;0;0;617.2982;9.32797;-10.99554;634.9718;626.7217;-0.2800248;-0.127035;0;
245.6694;0;0;272.2885;1.414367;-17.1468;247.5907;239.9111;0.04509329;0.06799467;0;
220.1853;0;0;243.1544;-1.935957;-19.60782;220.1056;216.8065;-0.149854;0.1328937;0;
78.28523;0;0;117.5357;9.319121;-16.64099;81.51649;78.97034;-0.2146708;0.002825461;0;
-509.3731;0;0;-436.6165;8.371752;-16.42332;-498.3365;-502.8166;0.1103816;0.06778998;0;
-634.3607;0;0;-591.5996;18.34368;-14.66526;-624.8969;-627.6859;-0.1495987;-0.06221284;0;
-292.3324;0;0;-292.2179;23.61653;-12.775;-287.8756;-289.5373;-0.5392524;-0.3220197;0;
-255.557;0;0;-252.5066;2.694124;-10.7528;-249.3555;-254.264;-0.3438085;-0.1267941;0;
-84.51103;0;0;-101.3287;-0.389066;-8.59854;-81.00198;-87.02991;0.04634097;0.2631374;0;
536.2619;0;0;482.1674;1.352637;-3.49932;530.9594;525.5621;0.2411964;0.1979056;0;
636.8597;0;0;612.8669;-1.730181;0.6570162;632.8119;625.1088;0.3059214;0.06777208;0;
239.919;0;0;262.1146;3.094329;-4.501208;241.185;234.1144;-0.01922268;0.002736632;0;
214.8779;0;0;232.3661;3.09122;-4.563668;213.9563;211.1406;-0.2790727;0.1976359;0;
90.66181;0;0;123.9994;3.155463;2.273055;93.30183;90.17661;-0.3437597;0.2624047;0;
-503.0059;0;0;-431.4085;2.883872;2.404737;-491.2481;-495.807;-0.4083816;-0.06269571;0;
-645.3662;0;0;-602.8262;8.373331;7.894799;-635.5568;-637.9246;-0.4079712;-0.5174041;0;
-291.5203;0;0;-296.3742;11.38;10.4321;-288.2799;-289.7083;-0.08272461;-0.7767535;0;
-249.4983;0;0;-250.5992;0.5839504;1.647093;-244.637;-249.4998;0.3071626;-0.386169;0;
-88.76578;0;0;-106.2324;-0.4883632;1.511472;-85.97083;-92.7028;0.1119519;0.2638924;0;
540.9445;0;0;485.5145;-1.29118;-5.456149;535.6781;529.5151;-0.2129973;0.1336926;0;
653.5315;0;0;627.5175;-3.9692;-9.804436;650.0821;642.3011;-0.08284859;-0.1912785;0;
251.0143;0;0;273.1898;5.21084;3.199739;252.6908;245.6048;-0.2127;0.003815731;0;
226.3994;0;0;245.9288;6.813195;4.4692;225.388;222.557;-0.4073883;0.06877925;0;
106.7944;0;0;142.3586;3.189027;4.196777;108.7201;106.0168;-0.1471096;0.1986448;0;
-497.0719;0;0;-424.4371;3.119449;7.005843;-485.5905;-490.5399;-0.1469618;0.1334779;0;
-652.3691;0;0;-607.5433;3.7859;0.5015813;-641.4615;-644.0945;-0.0818468;-0.191493;0;
-299.3907;0;0;-301.3365;3.648374;0.2331456;-293.9288;-295.4973;-0.01679721;-0.1263332;0;
-256.4239;0;0;-255.4941;-0.4411285;1.505587;-249.0309;-253.3464;0.243089;-0.1911736;0;
-98.2456;0;0;-113.9959;-2.383068;0.09743264;-93.17137;-97.23268;0.4377468;-0.1909815;0;
536.5341;0;0;481.4444;-2.782815;6.795506;532.9201;529.55;0.0475029;0.1340471;0;
655.8098;0;0;628.0742;-4.052817;7.659456;653.5737;646.8962;0.1124225;0.2638471;0;
260.2868;0;0;279.9303;-4.785679;5.508306;262.988;255.8174;0.1772769;0.1336473;0;
232.1642;0;0;251.3508;-4.646173;6.105618;232.4265;228.9487;-0.08277061;0.003578318;0;
100.8718;0;0;136.7807;-4.240338;-0.5986887;103.3202;100.9704;0.04724725;-0.2562946;0;
-496.9291;0;0;-424.3873;-1.958902;-2.607453;-485.3003;-489.022;0.3720365;-0.3859718;0;
-647.6038;0;0;-598.9354;-3.296104;-1.667194;-634.8622;-637.0186;0.241728;-0.4505513;0;
-300.1898;0;0;-295.111;-2.019994;-2.737124;-292.7085;-293.9881;-0.148319;-0.3201639;0;
-258.7839;0;0;-254.0225;5.952638;-1.46182;-251.3725;-255.6493;-0.08320259;0.004994493;0;
-100.6032;0;0;-115.7116;7.285828;-0.8575046;-97.07237;-101.7196;0.2417177;-0.2548799;0;
537.1773;0;0;485.2276;19.00113;-1.92837;532.7711;529.5653;-0.08336187;-0.3845585;0;
654.8906;0;0;634.9771;23.46904;-2.529157;654.1121;648.0359;-0.1482455;0.200534;0;
246.7499;0;0;272.6458;14.80527;4.908246;251.2819;244.2124;-0.08312915;0.1353652;0;
215.9548;0;0;235.6404;14.72304;7.247717;216.7966;213.6073;-0.148013;-0.05967287;0;
98.92155;0;0;133.205;6.402855;3.02051;101.9489;99.6373;0.1769725;0.2002565;0;
-488.7575;0;0;-416.6526;2.511655;3.620321;-476.6752;-480.8586;0.5665987;0.07012057;0;
-637.1291;0;0;-588.5848;-2.112569;-0.6701023;-624.809;-628.1136;0.2411927;0.2649521;0;
-288.6637;0;0;-284.4584;-8.004944;-2.745778;-282.1656;-284.7798;0.1110156;0.3296533;0;
-238.024;0;0;-235.697;0.8443584;0.4050569;-231.345;-236.5177;-0.0190306;0.1993873;0;
-79.05209;0;0;-96.21764;0.7097882;-0.6000941;-74.56626;-80.4834;-0.3438482;0.1342196;0;
531.6579;0;0;479.9644;-2.840898;0.6731846;529.0803;523.6064;0.2412034;0.06911744;0;
642.3802;0;0;620.8486;-1.900039;1.342337;641.4294;633.4623;0.3708957;0.3289174;0;
253.43;0;0;276.6475;-7.190391;-3.347695;256.8529;248.7063;-0.1492157;0.3285868;0;
217.7556;0;0;237.7639;-7.71903;-3.880194;219.3635;214.8483;-0.1490658;0.2632894;0;
90.2883;0;0;126.1435;-5.56782;-3.340432;95.26786;91.81918;-0.148916;0.1980575;0;
-486.575;0;0;-413.6495;-4.959013;-3.67199;-472.9173;-476.8623;-0.01883167;-0.451815;0;
-633.1371;0;0;-584.5228;0.940468;-0.3862588;-620.3053;-621.935;-0.01881275;-0.5163283;0;
-291.235;0;0;-287.6469;5.226431;1.087754;-284.2881;-285.6038;0.1761082;0.06889655;0;
-242.3418;0;0;-236.4459;-0.8743897;-0.5209295;-232.8407;-239.3399;0.5657353;-0.06110737;0;
-93.92281;0;0;-101.651;-1.811516;-0.8553208;-85.49315;-92.86044;0.2403301;0.3287581;0;
523.1115;0;0;476.9729;14.13249;6.312591;522.0999;517.0513;-0.08474808;0.4583624;0;
648.5225;0;0;627.4802;17.46719;9.119409;648.3865;640.7194;-0.1496303;-0.3217062;0;
243.5741;0;0;271.4034;15.17246;2.613145;249.1229;241.3385;-0.4743166;-0.2564156;0;
207.4099;0;0;234.649;17.63546;2.744485;211.1415;207.1756;-0.4088727;0.2635807;0;
106.6271;0;0;145.5829;6.431959;3.344452;114.0406;109.7663;-0.2135598;0.3282833;0;
-484.3705;0;0;-410.4714;3.746178;3.676006;-468.0315;-473.3635;-0.1483779;0.262986;0;
-650.6125;0;0;-600.7756;2.938131;3.806278;-636.1639;-638.8669;-0.01829412;0.3276891;0;
-290.7643;0;0;-284.0184;-0.4137238;2.998658;-282.0149;-284.2154;-0.08324309;-0.06244419;0;
-244.9326;0;0;-233.8206;5.146397;11.77029;-234.3804;-240.0144;-0.0181921;-0.1273488;0;
-102.0707;0;0;-108.586;4.538014;14.10274;-94.7774;-101.4053;0.04679352;0.1976159;0;
528.9023;0;0;480.727;7.011701;11.00748;527.1927;521.3836;-0.01822084;0.2623847;0;
649.0602;0;0;626.6078;8.344802;11.80021;648.8516;640.9868;-0.08316987;0.1321863;0;
247.4845;0;0;271.1566;2.910433;8.841106;252.5235;244.1669;0.1118157;-0.06284852;0;
215.4393;0;0;237.7758;2.036853;8.229377;218.8491;214.8737;0.241638;0.1321167;0;
92.22218;0;0;133.2143;1.365221;3.800356;98.93935;96.7795;0.04649323;0.5217879;0;
-490.8275;0;0;-413.7072;1.029056;0.5144961;-475.4964;-480.1528;0.04644651;0.196427;0;
-635.1365;0;0;-586.7668;-1.852366;5.537577;-621.445;-624.9723;-0.2134695;-0.3235092;0;
-291.1709;0;0;-286.0781;-1.583061;4.125371;-282.4282;-285.7021;-0.1482877;0.001652621;0;
-248.4621;0;0;-241.5629;-3.657575;5.862782;-237.167;-244.4356;0.1117307;0.196553;0;
-96.28883;0;0;-108.6993;-4.725627;7.263533;-88.56575;-95.26482;-0.148251;0.06642082;0;
528.369;0;0;477.5528;8.206218;-4.666483;525.9644;521.5209;0.1767347;0.1313214;0;
653.0876;0;0;630.9955;11.68157;-7.742887;651.4976;644.7472;0.3064918;-0.06371257;0;
242.6374;0;0;270.1676;11.93728;-4.252117;246.4212;239.6776;0.2412165;-0.06364855;0;
203.3507;0;0;227.6674;14.33716;-5.788452;206.6934;203.33;0.4358762;0.1313174;0;
109.1311;0;0;145.4798;12.64781;-3.505216;115.9687;112.2963;0.04563414;-0.3235859;0;
-477.3713;0;0;-402.9533;13.17097;-2.831864;-462.607;-468.5871;0.04558828;-0.6480975;0;
-647.8682;0;0;-597.263;7.799098;-5.37437;-634.0558;-638.5306;0.5652812;-0.5824789;0;
-288.46;0;0;-283.3829;5.581435;-5.502936;-280.596;-284.1293;0.2398765;-0.3869916;0;
-240.819;0;0;-233.3106;6.446483;-2.751107;-231.9009;-238.3042;-0.1501686;-0.3216354;0;
-104.333;0;0;-112.1995;6.105213;-1.74372;-98.54731;-105.0691;0.04488434;-0.1913776;0;
519.7083;0;0;474.4309;2.414407;-3.282454;515.9304;510.8519;-0.08509544;-0.06125059;0;
645.6849;0;0;626.8774;1.005461;-2.676309;643.5975;635.838;-0.474814;-0.3210584;0;
248.2981;0;0;275.9236;7.233741;-2.740602;251.8974;243.9583;-0.2794349;-0.1908011;0;
208.506;0;0;234.6045;6.89168;-2.268968;209.9153;206.1695;-0.2141867;0.1991947;0;
91.97992;0;0;131.358;13.24777;-0.4582712;95.94904;91.95717;-0.6037756;0.1340272;0;
-480.9496;0;0;-406.6286;14.64195;0.4129674;-468.4887;-474.9753;-0.3432995;0.1988598;0;
-635.0761;0;0;-584.1306;9.469676;2.42204;-622.2529;-627.2963;0.04684946;0.19866;0;
-295.8582;0;0;-287.5674;9.526534;3.156297;-287.7955;-291.397;-0.3430017;0.1984604;0;
-254.3941;0;0;-245.487;-4.816654;7.172101;-246.0272;-252.1237;-0.537559;0.003358951;0;
-109.7735;0;0;-119.7409;-10.37152;9.576159;-104.6009;-111.7533;-0.2121822;-0.3214811;0;
519.0208;0;0;469.021;-7.74913;4.877853;516.1297;510.4213;0.04790038;0.06864596;0;
657.9292;0;0;633.0295;-10.42066;5.207866;656.9151;648.0264;0.3726889;0.458381;0;
248.0363;0;0;271.9496;-10.07442;3.394094;252.5829;241.4544;0.1124451;0.3279858;0;
197.5623;0;0;222.3887;-10.40007;1.314335;200.1054;193.8605;-0.01760256;0.3926235;0;
104.473;0;0;143.8921;-5.499497;11.15926;109.3248;104.0858;0.04738247;0.392229;0;
-478.0267;0;0;-400.6664;-2.412512;13.49233;-465.3712;-472.4166;-0.3424692;0.06699821;0;
-655.3945;0;0;-602.662;-4.352471;6.445808;-642.6892;-646.2293;-0.2121904;-0.1929385;0;
-298.2277;0;0;-293.0868;-3.008927;6.104417;-288.5961;-292.7573;0.1128595;-0.06280994;0;
-242.9556;0;0;-236.0708;3.424458;6.902078;-231.897;-240.4893;0.1127461;0.06718787;0;
-107.7794;0;0;-116.2687;6.435127;6.694194;-99.293;-108.4389;0.2425675;-0.1277817;0;
512.2673;0;0;466.118;4.687348;5.079877;512.5618;505.0493;0.1123891;-0.06268594;0;
645.9976;0;0;628.3803;6.490324;3.936063;645.8545;638.412;-0.2125605;0.2622138;0;
253.2331;0;0;284.359;3.738112;7.147289;256.8383;249.2158;-0.08241227;0.3269176;0;
212.8114;0;0;241.6571;2.394209;7.006142;214.4763;210.6722;0.04760522;-0.06321492;0;
90.90869;0;0;132.2192;9.023236;6.73117;96.9448;94.39383;-0.01740995;-0.5828901;0;
-486.0177;0;0;-409.2666;9.147891;6.858372;-470.9297;-476.2892;0.04757489;-0.3874024;0;
-638.0777;0;0;-586.4536;9.741912;2.832505;-625.691;-629.2335;0.1124944;0.1327256;0;
-299.4189;0;0;-292.1369;10.40171;1.155208;-292.9167;-295.8935;0.1773487;-0.06230981;0;
-252.3291;0;0;-243.6801;3.7608;2.493706;-243.8969;-249.8067;0.2421379;-0.2571492;0;
-104.025;0;0;-114.3127;2.082082;2.625166;-97.78767;-104.0663;0.1769272;0.06794588;0;
515.1434;0;0;465.1985;-0.1308127;-4.075644;512.3789;506.4814;-0.2130546;0.4576817;0;
652.494;0;0;629.6481;-2.47423;-6.148019;650.7318;643.8407;-0.08290584;0.3272871;0;
260.0977;0;0;286.1253;-0.9315023;-1.051261;265.084;258.1373;0.1120795;0.06708887;0;
212.9225;0;0;237.737;-2.002293;-0.8492555;215.8422;212.3383;-0.2778372;-0.06291324;0;
104.263;0;0;141.9836;-1.397069;2.098847;108.804;106.1782;-0.2125907;-0.3227194;0;
-483.234;0;0;-406.5709;-1.865156;4.173087;-469.3897;-474.6366;-0.2123771;0.00244159;0;
-659.0973;0;0;-604.875;-0.0546204;1.355733;-645.7042;-650.0712;-0.6019677;0.1973412;0;
-290.2451;0;0;-284.5529;1.351954;1.756268;-282.4876;-286.9128;-0.4714282;0.002240847;0;
-229.9211;0;0;-224.1722;-6.151493;1.285623;-220.5473;-227.904;0.1137516;0.002238595;0;
-112.499;0;0;-121.4984;-7.953973;-0.1223107;-106.1956;-112.7328;0.1136373;-0.1926657;0;
510.3635;0;0;461.2683;-4.060239;5.236325;506.7906;501.8841;-0.2113136;-0.1924721;0;
658.1512;0;0;635.1547;-4.390952;6.637705;655.269;648.4934;-0.2760686;-0.1922787;0;
251.3815;0;0;278.1331;-3.784303;-0.4690335;254.3742;247.3556;-0.6006279;0.002816537;0;
206.4014;0;0;231.1271;-3.244637;-0.6025282;205.7055;203.379;-0.2751877;0.2626831;0;
104.745;0;0;143.5013;-4.982689;-4.419828;105.9238;104.5367;0.3747622;0.06751712;0;
-479.0669;0;0;-402.2437;-5.714617;-6.759789;-465.5204;-471.154;0.04954897;0.197384;0;
-651.7485;0;0;-599.6151;-2.091552;2.289577;-637.8408;-643.0314;-0.3403049;0.3271203;0;
-307.3289;0;0;-300.0378;-0.951351;3.358881;-299.6821;-304.2428;-0.4049303;0.06692225;0;
-256.5454;0;0;-248.6995;-6.911266;5.364994;-247.7819;-255.3365;0.24515;0.1318223;0;
-116.8577;0;0;-126.9482;-8.310842;7.235126;-109.4773;-117.3367;0.6347077;0.3915593;0;
513.0681;0;0;466.1938;-3.144927;3.275862;512.9449;505.4058;-0.1455381;0.5211005;0;
663.9764;0;0;646.5095;-1.266732;3.138605;662.7914;654.3853;-0.2753266;0.1957402;0;
265.3843;0;0;297.3475;-5.953533;0.7911707;269.6352;262.1121;0.0497868;-0.06432587;0;
219.0158;0;0;247.0739;-5.010522;-0.4823;223.3249;217.7459;-0.2750999;-0.06426124;0;
112.7865;0;0;150.8114;-3.330548;-0.9506959;119.2777;113.0171;-0.2098562;-0.1941313;0;
-479.2793;0;0;-404.7485;-3.796692;-1.418621;-465.923;-473.8015;0.3750608;-0.0640016;0;
-655.8962;0;0;-604.3662;11.2113;-3.694494;-644.6773;-650.1116;0.5046186;0.1959321;0;
-300.2905;0;0;-293.1026;16.89346;-5.231389;-292.3313;-297.1354;0.1143075;0.5205719;0;
-252.6376;0;0;-242.7708;8.101602;1.338073;-241.5005;-249.1109;-0.1456767;0.4550815;0;
-128.1337;0;0;-133.5191;8.965093;2.140524;-121.8178;-127.3591;-0.08056301;-0.1300818;0;
508.9874;0;0;461.1287;10.02781;3.009029;505.1145;499.1415;-0.08048206;-1.645882E-05;0;
669.1452;0;0;644.5104;9.347175;4.680579;666.713;655.0613;0.3094029;0.4547549;0;
267.3619;0;0;291.8523;9.47248;-2.223244;270.4919;260.5386;0.4390267;0.259396;0;
219.6172;0;0;240.5222;7.720674;-3.694513;220.7449;216.2365;-0.08115321;0.1292007;0;
116.0734;0;0;151.0753;11.26289;-5.432356;119.1991;115.5072;0.04886301;-0.1307985;0;
-472.1226;0;0;-395.2394;11.98851;-8.441008;-461.3789;-465.0671;0.3086833;-0.5204712;0;
-651.9326;0;0;-597.7403;4.274278;-4.145741;-641.9493;-644.6343;-0.08143093;-0.3900135;0;
-299.9541;0;0;-292.5428;2.862487;-4.677439;-294.3537;-297.4108;-0.01638177;-0.2596869;0;
-243.1811;0;0;-237.1515;0.1139206;-8.155729;-236.0871;-242.5768;0.1135694;-0.3243933;0;
-116.6877;0;0;-128.2803;-3.503516;-9.018312;-111.7872;-121.5188;-0.2763488;-0.1291654;0;
504.3049;0;0;454.4307;5.677032;-12.02348;500.4549;492.6071;-0.4060058;-0.1940029;0;
656.9712;0;0;633.5714;6.273564;-13.61887;651.6259;646.7219;-0.3406305;-0.193808;0;
257.9488;0;0;283.2979;5.061811;-11.32789;256.2945;250.8333;-0.2753209;0.001288787;0;
209.4639;0;0;231.1019;8.339255;-9.976847;208.0611;201.0437;-0.01517488;-0.1936145;0;
107.6795;0;0;142.0393;-7.342886;-14.45456;111.8378;103.2657;0.0498077;-0.0634853;0;
-472.9494;0;0;-398.3318;-10.61804;-13.30132;-459.55;-468.0509;-0.08017702;0.2614152;0;
-645.6996;0;0;-594.2704;-1.631412;-11.47954;-634.0003;-637.8076;0.04983822;0.1312179;0;
-292.7279;0;0;-287.0774;-3.304712;-10.86516;-287.0998;-290.0287;0.2446902;-0.1937507;0;
-240.4599;0;0;-233.9405;11.97023;2.140203;-234.8374;-241.7614;0.04954228;-0.06362135;0;
-119.1542;0;0;-128.9456;18.32121;6.424838;-116.4109;-123.2654;-0.2753442;0.2612793;0;
505.2143;0;0;455.6402;4.17026;8.494731;500.5835;493.4235;-0.4050022;-0.06381996;0;
663.3144;0;0;639.4023;4.433513;11.90233;657.4389;649.599;-0.07975857;-0.1936905;0;
255.9773;0;0;282.7512;5.233342;7.871512;254.3556;248.7724;0.05025625;0.06637348;0;
206.5573;0;0;230.3058;3.687842;7.930585;205.3745;200.5466;-0.1446963;0.06630679;0;
118.394;0;0;151.3015;8.57328;1.157463;118.5242;112.9515;-0.2095182;0.1312075;0;
-471.4286;0;0;-401.4477;8.162524;-3.331435;-462.1156;-470.0565;0.115529;0.1310757;0;
-660.4221;0;0;-612.0008;9.159677;0.7577495;-649.0571;-656.6777;0.4402496;-0.1289254;0;
-298.69;0;0;-296.1693;9.485266;-1.319483;-294.4578;-298.1977;0.5047746;-0.06382853;0;
-238.1702;0;0;-236.2142;6.662695;-4.533216;-232.6928;-239.1151;0.3743327;-0.06376439;0;
-122.0516;0;0;-134.4029;7.258237;-5.131507;-116.5797;-127.0561;0.1790546;-0.1286677;0;
497.822;0;0;447.9395;-1.590315;-11.08771;493.6682;484.9515;-0.0809947;0.3912004;0;
663.1135;0;0;639.3304;-5.40711;-12.75102;658.9014;650.4434;-0.1458807;0.3908073;0;
264.4597;0;0;292.2997;4.110143;-9.456166;267.8105;259.0487;-0.0157994;-0.1293241;0;
207.0352;0;0;234.285;4.239735;-9.915545;211.3197;205.6901;0.3740205;-0.1941615;0;
114.0613;0;0;151.6535;4.169102;-4.145172;119.2785;113.7795;0.5035794;-0.06403176;0;
-462.0762;0;0;-388.1651;5.571433;-2.533417;-450.8048;-457.86;-0.1466;0.06596728;0;
-647.5185;0;0;-595.2958;0.9441342;-2.329922;-634.4468;-637.9343;-0.3413548;0.3257703;0;
-303.6654;0;0;-293.0992;1.009558;-0.5191637;-295.3544;-296.0898;-0.01617504;0.2604757;0;
-246.7637;0;0;-235.2711;-0.933839;-6.01112;-239.648;-243.506;-0.3409955;0.0003445723;0;
-120.1418;0;0;-126.7767;-1.870906;-6.206029;-115.7194;-120.573;-0.4056202;0.000344226;0;
497.1062;0;0;451.0603;2.150438;-11.15641;491.8416;488.9293;-0.01540859;-0.06462346;0;
664.7097;0;0;644.1348;2.885212;-14.69517;661.6367;654.8544;0.2444763;-0.1295259;0;
267.5536;0;0;300.0352;3.217105;-4.030364;273.7291;263.8301;0.1792633;-0.06442838;0;
202.3799;0;0;236.7029;2.87908;-2.686656;207.2998;201.4712;0.1141158;-0.2592657;0;
114.4706;0;0;161.5652;8.100123;-8.645315;120.3851;117.6233;0.1789685;0.1307989;0;
-465.353;0;0;-378.9505;9.565853;-9.775338;-452.573;-453.7702;0.3087233;0.1956348;0;
-659.7874;0;0;-598.0844;4.5324;-6.148559;-645.3961;-646.9044;0.2434458;-0.2593332;0;
-301.1169;0;0;-289.3883;4.796265;-4.869705;-291.8624;-296.7426;-0.08163553;-0.1941052;0;
-242.6561;0;0;-233.313;-2.576921;-14.10821;-239.4079;-243.596;-0.2114882;-0.2588775;0;
-131.2182;0;0;-140.9999;-5.118951;-16.10353;-132.4085;-136.0302;-0.08134101;-0.1936501;0;
494.6617;0;0;442.2862;-0.6268049;-15.75243;487.8503;480.2343;-0.1462266;0.3912506;0;
666.1407;0;0;637.2435;-0.692548;-18.75071;661.71;651.1031;0.178757;0.1309881;0;
265.9846;0;0;286.4667;0.8483893;-10.22528;268.8672;258.8333;0.2435448;-0.06404556;0;
210.0579;0;0;229.1451;0.9812586;-9.545178;210.3764;205.1;0.1133654;0.1309208;0;
117.4557;0;0;148.4552;11.2954;-13.82237;116.8369;114.0646;0.1782188;-0.1940474;0;
-462.121;0;0;-394.0463;16.77641;-14.21038;-455.7428;-459.8866;0.5028764;-0.2588198;0;
-651.6862;0;0;-605.5438;4.836832;-19.75556;-644.3773;-647.455;0.3724364;-0.06365772;0;
-306.4546;0;0;-302.9622;4.564528;-21.54425;-301.2769;-305.9757;-0.08270918;-0.1935284;0;
-247.8009;0;0;-243.0627;8.512056;-25.87637;-241.2542;-249.3216;0.1772433;-0.5181707;0;
-125.5508;0;0;-137.434;7.364428;-27.92672;-122.4464;-131.0679;0.04713052;-0.1928133;0;
494.951;0;0;441.0384;14.3906;-27.7647;488.1198;480.444;-0.5376229;0.1971845;0;
665.6801;0;0;633.8731;15.71531;-28.40663;657.1691;651.0003;0.1125907;0.06705167;0;
271.6465;0;0;294.2191;13.15393;-22.95259;271.5148;264.7275;0.4373143;0.002016943;0;
214.9019;0;0;242.1995;14.07871;-20.98714;214.8328;210.1763;-0.1478312;0.196917;0;
126.6053;0;0;162.4336;5.223309;-15.33961;125.1619;123.7584;-0.407552;0.1317517;0;
-459.29;0;0;-390.9515;1.333295;-11.10439;-451.4241;-454.3879;0.1125962;-0.3881194;0;
-661.3517;0;0;-618.1318;9.570002;-13.37053;-653.6187;-655.2676;0.3723525;-0.2577947;0;
-300.1184;0;0;-303.731;10.36467;-11.4817;-298.2652;-298.6006;-0.01782575;0.3271704;0;
-231.0389;0;0;-232.399;2.583746;-10.39843;-225.5019;-230.1474;0.1121268;0.2618743;0;
-129.92;0;0;-145.0218;1.375701;-9.919106;-125.4505;-134.4016;0.04704684;0.1316765;0;
489.3368;0;0;436.6442;0.5036629;-9.306293;485.1812;477.8008;-0.1479025;0.1965115;0;
678.8746;0;0;650.5352;-2.377231;-10.03375;670.4753;667.6625;0.1121155;0.1313467;0;
277.2065;0;0;298.3707;6.467392;-6.741631;272.3764;268.9417;-0.01793182;0.1961821;0;
208.0251;0;0;233.2285;6.929409;-5.529164;207.3852;202.9545;-0.08288114;-0.3237538;0;
122.6089;0;0;161.3427;4.17578;-12.42261;125.5928;120.3545;0.1770715;-0.1934938;0;
-457.2229;0;0;-380.4847;5.645452;-13.6828;-446.6208;-453.8529;0.2418609;0.4563741;0;
-657.1002;0;0;-601.3036;-11.17208;-12.46336;-646.3839;-650.8601;0.1116832;0.2610135;0;
-306.7408;0;0;-300.9127;-17.32377;-13.52256;-302.0946;-305.4419;-0.2132657;-0.1290528;0;
-240.2783;0;0;-234.3936;-7.928269;-9.222189;-235.1371;-238.2311;-0.08311673;-0.1938905;0;
-125.7193;0;0;-133.0839;-9.796312;-8.141195;-124.5813;-124.986;0.1118688;0.3260431;0;
485.5373;0;0;436.3262;-10.25498;-7.731117;480.4274;476.4623;-0.01817828;0.3906828;0;
662.5852;0;0;637.2241;-9.977236;-5.847949;659.9166;650.0211;-0.08312736;-0.4542852;0;
277.3627;0;0;304.0634;-14.05305;-10.7317;277.0082;269.6837;-0.1480112;-0.5187961;0;
221.8618;0;0;247.4737;-13.97158;-12.06046;220.0084;216.5019;-0.1478624;-0.2584054;0;
130.8095;0;0;167.0154;-13.01953;-6.555984;133.0809;125.2676;-0.08274654;-0.06324377;0;
-456.4018;0;0;-379.1905;-10.863;-6.683362;-445.0748;-452.0681;-0.01769605;-0.1281476;0;
-656.9672;0;0;-603.3841;-10.71836;-7.547303;-649.0873;-647.4529;-0.2775476;-0.1929861;0;
-298.6118;0;0;-295.3698;-7.29134;-8.075583;-298.1112;-296.7908;-0.4721708;0.1970118;0;
-239.0291;0;0;-229.7934;-4.739394;-9.94299;-232.3445;-240.3333;-0.211827;0.1318465;0;
-141.7752;0;0;-144.2304;-2.858622;-10.26791;-137.0963;-145.8892;-0.08167945;0.06674671;0;
489.1127;0;0;441.4327;15.63105;-16.48689;482.48;479.8179;-0.2115321;-0.06325505;0;
680.2125;0;0;654.6318;22.58157;-18.34572;674.5859;672.3013;0.1135172;-0.5829302;0;
267.5486;0;0;292.6556;20.41543;-17.79142;267.2375;264.0806;0.5032072;-0.2575078;0;
204.3738;0;0;230.0179;22.93953;-19.04622;204.3755;201.784;0.3077995;0.2624897;0;
127.7694;0;0;167.1933;24.12291;-13.66857;126.7091;127.6809;-0.01734645;0.1322913;0;
-457.9396;0;0;-379.8249;25.50519;-12.44915;-450.5657;-450.282;-0.1472637;-0.127711;0;
-659.5654;0;0;-606.9539;13.1547;-9.623475;-646.3268;-653.4772;0.177721;0.002351972;0;
-307.5168;0;0;-304.2458;8.787227;-6.73354;-303.0996;-306.9319;0.5673465;0.3921537;0;
-249.237;0;0;-240.9718;9.850124;-10.87972;-245.5113;-245.1544;0.5018091;0.3267923;0;
-135.7934;0;0;-139.593;5.955461;-10.19895;-128.5108;-134.1512;0.4363375;0.2614966;0;
487.967;0;0;441.2554;10.5048;-10.52362;486.7466;480.0499;0.1110623;0.1312992;0;
664.6377;0;0;640.2118;10.15946;-11.31684;659.4205;655.9164;-0.2788533;-0.3236042;0;
268.9809;0;0;292.1181;9.344965;-7.554427;267.2672;263.5167;0.2411656;0.06652504;0;
207.3665;0;0;229.356;10.13986;-7.680802;205.5295;202.0327;0.370858;0.2613602;0;
120.0144;0;0;154.0383;3.364515;-5.060872;121.1154;118.9339;0.2405507;-0.1936738;0;
-450.6319;0;0;-381.0351;0.3470247;-3.247247;-441.5985;-441.7788;0.3052763;-0.1285119;0;
-653.8892;0;0;-604.4147;6.84341;-11.14785;-645.6146;-642.5463;-0.01986717;-0.06341539;0;
-309.0302;0;0;-303.271;6.702812;-12.8111;-306.3236;-306.0695;-0.3446839;0.001615677;0;
-237.3805;0;0;-230.7526;0.5331594;-10.58791;-233.8021;-238.7956;-0.2144029;0.06658141;0;
-139.5661;0;0;-144.5639;-0.4044053;-11.98379;-137.9277;-141.417;-0.1492201;-0.06342019;0;
474.9529;0;0;429.9176;-6.767988;-9.225573;471.4047;466.9819;-0.2140375;0.001610877;0;
673.2507;0;0;648.4381;-9.640599;-8.881388;672.1423;662.9764;-0.1488551;-0.1283254;0;
264.0296;0;0;289.7166;-7.554807;-10.81497;266.9203;259.0754;0.1761312;-0.3880658;0;
194.6115;0;0;218.3362;-9.556948;-10.26824;194.7508;191.2241;0.04601951;-0.3227086;0;
133.3842;0;0;164.5812;-0.7724591;-13.0041;135.085;130.4374;-0.5387328;-0.06251495;0;
-447.7703;0;0;-377.187;3.515225;-12.85707;-437.2007;-442.3433;-0.3432895;0.06748256;0;
-665.3358;0;0;-614.501;-9.683823;-13.78191;-654.3395;-653.9797;0.4366636;-0.257422;0;
-302.5993;0;0;-298.7294;-11.14796;-14.70582;-298.0483;-295.8148;0.3712575;-0.06226128;0;
-231.3934;0;0;-224.5914;-0.6869342;-6.519249;-225.5351;-228.6762;-0.01891962;0.1976707;0;
-137.2081;0;0;-143.7812;1.456234;-4.369367;-132.8549;-138.2418;-0.08386795;-0.192332;0;
475.9342;0;0;425.952;1.856912;-4.632908;469.3509;465.6562;0.5658897;-0.06220409;0;
660.8627;0;0;632.9822;4.26692;-2.484799;655.2231;648.4711;0.3054518;0.06779312;0;
265.2097;0;0;288.5815;2.386622;-7.03702;267.197;261.7636;-0.4744633;-0.1921444;0;
203.4742;0;0;228.8838;2.049432;-8.369608;203.1481;204.0919;0.04575222;-0.126984;0;
122.9351;0;0;159.9384;9.147319;-4.074412;125.1705;123.5523;0.4355103;0.2629477;0;
-446.5273;0;0;-373.6417;10.67935;-4.33825;-435.5485;-439.1641;-0.08466604;0.3926181;0;
-652.7247;0;0;-601.0268;7.453434;-7.348001;-642.6315;-641.8707;-0.01961363;0.06738694;0;
-310.6155;0;0;-304.3842;7.914459;-8.613294;-304.9677;-305.6444;0.04537342;-0.06261547;0;
-234.6539;0;0;-225.118;2.079358;-10.54714;-226.3256;-233.8733;-0.3444762;-0.1275199;0;
-126.8472;0;0;-127.7531;-0.3346053;-12.211;-121.026;-129.4406;-0.2141954;-0.1923591;0;
475.9149;0;0;434.0929;3.416775;-12.06476;470.9856;465.9527;-0.4738495;-0.1921658;0;
661.1558;0;0;638.8661;2.944827;-11.85169;656.1065;650.7039;-0.8631775;0.002929294;0;
266.1897;0;0;290.2115;3.410383;-16.99734;268.954;262.4949;-0.3425714;0.1978284;0;
199.5805;0;0;219.2055;4.010169;-18.05199;202.7794;195.2648;0.2424789;0.002727572;0;
133.3507;0;0;162.1388;1.795336;-12.94327;137.1086;129.7889;0.3072026;0.1326595;0;
-438.1836;0;0;-368.5699;0.8555273;-11.59061;-428.5574;-430.31;0.2419266;0.06755889;0;
-666.9406;0;0;-615.5128;6.280651;-10.44038;-657.9488;-656.1389;-0.08315324;-0.3223131;0;
-319.1949;0;0;-316.6068;7.814582;-9.827039;-316.7089;-315.7129;-0.148037;0.002847513;0;
-236.9778;0;0;-234.7671;4.525176;-4.726583;-233.7447;-234.249;0.6317198;0.4576161;0;
-141.6625;0;0;-149.3865;6.194592;-3.71709;-137.9953;-138.9989;0.436183;0.06735219;0;
469.6101;0;0;423.1634;-1.045301;-6.727465;467.1517;464.525;-0.4088307;-0.3225195;0;
672.1613;0;0;648.0624;-3.522497;-7.993381;670.2675;662.5835;-0.2784852;0.2625106;0;
278.8707;0;0;307.1448;9.609209;-13.47783;279.5401;271.6764;0.04663133;0.3921815;0;
203.1284;0;0;234.6225;12.68101;-16.41141;203.9845;198.3151;-0.1483175;-0.257886;0;
123.5892;0;0;167.108;10.12268;-24.16482;130.5663;123.7782;-0.1481685;0.1321772;0;
-449.1222;0;0;-363.9805;12.05489;-29.03017;-432.4069;-440.1877;-0.0830523;0.3269464;0;
-668.0606;0;0;-599.9335;14.58837;-27.79531;-648.7385;-654.9498;-0.1479362;-0.06318615;0;
-322.5627;0;0;-305.7282;16.58344;-29.84385;-309.5693;-312.401;-0.0828202;0.2617141;0;
-238.0309;0;0;-230.0839;16.23101;-30.81861;-228.4239;-232.5646;0.0471977;0.3264184;0;
-131.845;0;0;-143.8335;17.15271;-31.45747;-126.433;-133.1932;-0.2776864;0.1961558;0;
471.8591;0;0;417.404;16.73333;-26.00037;468.5825;458.7681;0.1123966;0.1309913;0;
671.4719;0;0;638.7482;15.64577;-22.49113;669.448;652.8969;0.6320224;0.195827;0;
282.4924;0;0;302.6499;20.31812;-27.49213;285.2181;270.9325;0.2415833;0.1306629;0;
212.681;0;0;236.9412;20.23133;-25.65609;212.6554;208.1916;-0.08349612;-0.0643704;0;
147.1876;0;0;181.7932;19.60779;-22.88401;148.9736;145.7637;-0.08341223;0.0006616215;0;
-438.4785;0;0;-365.5519;20.72716;-22.05722;-427.8238;-434.4662;-0.01836107;-0.1292737;0;
-679.8538;0;0;-625.4913;7.845613;-10.64832;-667.6481;-672.7222;-0.01834262;-0.4539805;0;
-331.533;0;0;-322.0775;3.082308;-5.681006;-323.5874;-326.0326;-0.1482589;-0.388557;0;
-252.9892;0;0;-238.1084;9.978086;-9.225271;-244.6142;-248.0565;-0.2780446;-0.1282972;0;
-159.9691;0;0;-150.538;7.958328;-6.67065;-152.727;-160.0389;-0.2127979;0.001766351;0;
464.128;0;0;430.946;10.36221;-6.864897;463.3044;450.8774;-0.01768202;0.1966666;0;
676.9919;0;0;662.0841;11.75831;-6.456101;674.1701;659.8816;0.04730309;0.06653432;0;
275.763;0;0;313.3438;2.63682;-2.899641;279.0659;269.7268;-0.01771178;-0.06346723;0;
204.8964;0;0;229.1961;1.02658;-2.695778;207.8837;203.7388;0.177208;0.001563883;0;
128.5413;0;0;150.0055;2.699511;1.124835;132.5876;126.8851;-0.08283938;0.001562311;0;
-459.1675;0;0;-397.4951;1.625072;2.932244;-444.1309;-453.7006;-0.2776582;0.3263975;0;
-682.8434;0;0;-642.2225;6.848352;-1.826368;-668.6965;-674.3211;-0.2773792;0.1961348;0;
-339.1422;0;0;-343.9767;9.052274;-1.891516;-334.942;-333.6894;-0.3420678;-0.1938663;0;
-261.153;0;0;-261.235;4.153058;-3.765137;-254.0834;-256.8926;0.242982;-0.06373685;0;
-157.1927;0;0;-170.2681;4.015162;-5.703859;-149.3806;-157.9341;0.4376399;-0.1936075;0;
454.5953;0;0;402.3027;6.623096;0.7990945;451.2177;446.9207;-0.4073753;-0.06347826;0;
658.2234;0;0;630.0338;5.612064;1.803035;654.0995;651.3062;-0.3419987;-0.06341448;0;
266.0713;0;0;288.0723;7.950949;-0.5431788;271.1345;264.7207;0.5029204;-0.1932855;0;
192.5908;0;0;215.5067;6.200672;0.06021339;197.8987;193.8652;0.2425457;-0.2580586;0;
121.308;0;0;156.3823;10.14656;-2.418094;127.7351;124.2678;-0.0825347;-0.3227666;0;
-452.588;0;0;-379.7555;13.01675;-2.884544;-437.6717;-445.3833;0.2423849;-0.1275403;0;
-683.3295;0;0;-629.9979;-10.43962;-2.74768;-668.2408;-673.7582;-0.1476627;-0.3223141;0;
-334.0056;0;0;-326.3922;-15.51935;-3.749663;-323.7421;-327.6924;-0.4073837;-0.2570229;0;
-246.6513;0;0;-240.1074;-12.48965;1.6796;-235.2112;-246.7786;-0.2120723;0.003104683;0;
-161.0089;0;0;-166.528;-17.83573;3.888349;-152.2039;-168.0076;-0.01695717;-0.06186578;0;
450.2832;0;0;405.1021;2.075512;-3.081661;449.3967;438.3565;0.1129946;0.1980658;0;
665.285;0;0;642.0757;6.627778;-4.083309;663.8371;657.6805;0.112881;0.2628341;0;
258.5706;0;0;286.2965;-0.8136214;2.150085;262.6214;260.4691;0.2427023;0.002700612;0;
185.8472;0;0;212.171;1.665443;3.554566;187.6451;188.8057;0.1125237;0.1326326;0;
133.3118;0;0;168.4797;-3.828587;0.9386603;137.5441;136.7671;0.3073127;0.262434;0;
-442.5952;0;0;-366.6707;-4.360604;0.8707342;-428.747;-431.6472;0.6318406;0.197203;0;
-682.4047;0;0;-623.8604;-6.968191;2.678398;-669.3825;-670.4058;0.111467;0.06707014;0;
-336.8924;0;0;-328.3817;-9.506784;2.407775;-329.9427;-332.0269;-0.0185797;0.002035391;0;
-249.0979;0;0;-241.7201;-4.004875;2.27139;-240.0937;-247.7979;0.04640631;0.002033346;0;
-160.6419;0;0;-162.0797;-3.867129;1.130398;-151.6468;-162.4667;-0.01860766;-0.1928707;0;
448.3385;0;0;407.1097;-3.795895;3.741597;450.5155;438.2697;0.1113457;0.06719246;0;
665.716;0;0;642.707;-3.457288;5.412288;667.5161;653.5334;-0.08366818;-0.2577118;0;
269.4334;0;0;294.7358;-3.252743;-8.592216;273.8553;262.5104;-0.08358411;-0.4523548;0;
190.5772;0;0;218.2904;-3.182126;-12.66942;192.1211;186.0974;-0.01853278;-0.192031;0;
124.5438;0;0;164.2231;-6.59518;-3.88217;129.0847;122.9421;-0.1484488;-0.5166747;0;
-441.8592;0;0;-365.4882;-9.335219;-3.878269;-428.4524;-437.9621;0.176537;-0.2562862;0;
-675.3601;0;0;-617.9314;-6.445451;-4.611184;-660.405;-668.4684;0.241327;-0.06112665;0;
-337.8508;0;0;-326.8315;-7.309631;-4.606551;-327.4085;-333.2774;-0.08375221;0.003902112;0;
-247.2442;0;0;-239.5468;-15.34024;-2.525451;-239.4361;-246.7359;0.04626662;0.1338329;0;
-151.8561;0;0;-156.6601;-17.26721;-2.321965;-146.0548;-152.785;0.1761548;-0.06120363;0;
457.1155;0;0;412.6487;-22.07263;-3.123427;456.7265;451.3149;-0.1488589;0.2636946;0;
673.3597;0;0;647.8032;-23.99283;-3.053306;671.4719;664.0043;-0.4085787;0.1984623;0;
266.7622;0;0;293.6424;-21.95899;-10.08332;267.8748;261.8514;-0.2132661;-0.1265738;0;
182.4739;0;0;211.7009;-22.27172;-12.88635;181.7737;179.8169;-0.0181498;0.5881941;0;
136.0013;0;0;173.8196;-13.6765;-11.06487;140.9865;135.0336;0.1767705;0.5226358;0;
-431.4752;0;0;-355.2142;-10.24651;-11.65659;-416.5625;-426.0701;0.3714949;0.00237185;0;
-676.0435;0;0;-618.7246;-6.819962;-15.73084;-664.9564;-666.6458;0.04628488;0.06733682;0;
-326.727;0;0;-316.4421;-2.191408;-16.78664;-322.3351;-319.775;-0.08369631;0.1322365;0;
-239.255;0;0;-228.9804;-7.614214;-12.21505;-232.1814;-235.7457;-0.01864487;0.06713629;0;
-152.4331;0;0;-153.4132;-7.942332;-10.99709;-144.6794;-151.4261;-0.2135282;-0.2577679;0;
453.6031;0;0;410.5825;-1.101848;-6.9002;454.3524;447.675;-0.1483463;-0.2575089;0;
670.4755;0;0;643.865;-0.2964579;-3.47726;669.1627;661.8047;0.1766395;-0.1273155;0;
280.3101;0;0;304.5133;-0.09606533;-7.358654;280.8102;278.1448;-0.01844001;-0.06222019;0;
199.0067;0;0;224.3725;2.315905;-7.284277;197.8821;200.0294;-0.2133235;0.3926137;0;
139.2117;0;0;171.1112;-10.68087;-1.047667;142.0862;139.109;-0.2131092;0.06738253;0;
-423.2081;0;0;-352.0479;-15.02439;-0.242941;-411.5284;-419.8124;-0.08296034;-0.7772606;0;
-661.163;0;0;-606.9409;1.334052;1.565842;-650.9318;-653.3979;0.3069271;-0.3866756;0;
-321.9813;0;0;-315.1024;3.878308;3.908672;-318.3196;-315.0362;0.1117166;0.003516997;0;
-233.702;0;0;-227.0798;-0.1440774;-5.87452;-227.4203;-229.5125;-0.2781997;-0.5162253;0;
-148.0726;0;0;-152.7639;1.396309;-7.07431;-140.298;-149.9467;-0.1479854;-0.3208045;0;
455.3979;0;0;407.7329;-1.284411;-4.789904;453.5446;444.1554;0.1120326;-0.1255802;0;
679.0776;0;0;652.1377;-2.890711;-5.588764;674.665;669.0333;0.04695271;-0.06048664;0;
274.0361;0;0;301.8456;4.748003;0.7130029;276.2495;269.6865;-0.2779312;0.3293782;0;
187.6165;0;0;209.776;6.685616;1.71703;188.7657;181.0849;-0.1477172;0.004210514;0;
149.8844;0;0;176.2694;-4.439537;7.877613;152.3443;146.8576;0.567072;-0.3206304;0;
-415.4821;0;0;-347.3946;-7.047044;10.95079;-404.1541;-409.8228;0.6964368;-0.2553409;0;
-672.3728;0;0;-625.468;-3.825758;5.24636;-659.6194;-666.032;0.2409657;-0.385019;0;
-328.5572;0;0;-331.8618;-4.892665;4.973156;-321.3139;-325.9708;-0.08411317;-0.2546975;0;
-237.0854;0;0;-240.1368;-6.562688;0.4804249;-232.3481;-235.9384;-0.2139633;-0.1894742;0;
-153.7639;0;0;-168.4939;-7.896241;-3.070031;-151.2802;-155.1793;0.04612103;-0.2542512;0;
457.2086;0;0;400.8268;-4.270984;-0.2537853;452.131;446.2369;-0.01889266;-0.3189631;0;
681.5112;0;0;643.8017;-3.262315;-1.593067;674.9395;666.1777;-0.01887367;0.1361289;0;
285.4626;0;0;300.1397;-8.148181;-10.36611;282.2084;277.3285;0.2410147;0.5907634;0;
201.5928;0;0;220.4406;-8.809579;-14.37455;195.031;196.4653;-0.08406422;0.5901698;0;
139.6713;0;0;169.8069;-6.791971;-9.671419;137.4264;136.6729;-0.01901242;-0.06009657;0;
-428.1837;0;0;-360.3473;-6.048212;-10.0636;-417.9951;-421.434;0.1109414;-0.6447423;0;
-670.5689;0;0;-621.6662;-10.06062;-14.00536;-658.5789;-661.0149;-0.2140068;-0.384225;0;
-328.5042;0;0;-328.8759;-11.39066;-13.72335;-323.2729;-326.7684;0.04607759;0.2008671;0;
-231.9725;0;0;-237.029;-4.211919;-17.59445;-227.621;-234.6112;0.2409333;0.2656326;0;
-142.7216;0;0;-157.768;-2.867541;-18.98342;-138.9367;-146.9819;0.1107565;0.005496331;0;
456.808;0;0;403.1711;-2.396145;-9.519991;452.4057;446.68;-0.01928943;-0.3193459;0;
681.4858;0;0;646.9558;0.1518584;-6.295245;675.5887;668.6818;-0.1492047;0.2007137;0;
284.9375;0;0;304.6025;-6.748146;-9.905997;283.6066;277.3313;-0.2140221;0.7852181;0;
195.7584;0;0;215.2787;-8.080536;-8.757334;192.055;191.8455;-0.01890508;0.3946251;0;
152.4584;0;0;175.6447;1.372054;-5.600337;151.3823;153.2345;0.1110486;0.1993265;0;
-418.5329;0;0;-353.7658;4.518507;-5.259917;-409.3005;-410.4487;0.2408717;0.1341589;0;
-683.8538;0;0;-633.6445;-2.719701;-1.637553;-674.0685;-677.2769;0.1756623;0.2639588;0;
-335.0916;0;0;-333.7207;-3.386554;-0.6981469;-330.5635;-333.4564;-0.2143182;0.3286609;0;
-236.2419;0;0;-236.6215;4.989594;-3.77866;-230.7813;-235.5454;-0.2141029;-0.1264407;0;
-156.2946;0;0;-170.6044;5.654165;-3.239;-154.2753;-159.3469;0.1759163;-0.06134635;0;
458.4285;0;0;403.1537;12.34629;-13.08199;449.6388;448.7576;0.3056742;0.1336173;0;
693.5995;0;0;661.0563;17.02293;-17.28865;683.5692;680.6274;-0.01946962;-0.06141897;0;
292.0415;0;0;309.0687;0.6624807;-8.496758;285.7069;281.7687;-0.0844174;0.1335448;0;
200.4814;0;0;212.8064;-2.888158;-8.68917;192.654;192.2804;0.1105694;0.1334106;0;
148.7434;0;0;165.866;6.960381;-8.47949;145.2966;140.4881;0.1754257;-0.1265928;0;
-413.0612;0;0;-352.79;6.685943;-7.064328;-405.3227;-412.1878;0.2402168;-0.4513023;0;
-664.3947;0;0;-613.9291;5.406427;-11.0091;-655.4769;-655.5261;0.2399754;-0.3209142;0;
-328.9578;0;0;-324.8947;5.199924;-10.93106;-326.0461;-325.8453;-0.08510245;0.06921233;0;
-235.2992;0;0;-233.7389;2.850175;-10.31735;-228.08;-236.8125;-0.1499843;0.004175432;0;
-149.7931;0;0;-161.1654;0.637484;-10.70876;-140.7072;-153.5538;-0.01989889;0.06913859;0;
456.3653;0;0;401.7762;3.248812;-7.817852;453.6355;445.7369;-0.2147809;-0.06086557;0;
688.4149;0;0;652.996;2.17382;-7.4081;683.6264;676.2354;-0.1495978;-0.3856411;0;
292.6092;0;0;309.5746;-3.119649;-6.462895;293.3853;286.0642;0.04545458;-0.1903516;0;
205.7962;0;0;223.9315;-4.456662;-5.384674;202.5735;201.819;0.1753436;0.2646111;0;
162.1113;0;0;185.6631;-12.49014;-8.929358;160.6409;157.0761;0.2401347;0.3293125;0;
-408.2025;0;0;-344.632;-15.4917;-9.255301;-400.1137;-406.0488;0.1749261;-0.1257898;0;
-673.4713;0;0;-623.4579;-15.27506;-7.906343;-666.64;-664.3232;0.1747503;-0.1256634;0;
-332.9654;0;0;-334.0391;-17.46954;-7.295552;-333.075;-330.3233;0.04464008;0.2642669;0;
-238.7406;0;0;-240.9376;-10.15097;-8.359948;-236.0389;-239.287;-0.3452088;0.1340667;0;
-159.0406;0;0;-169.7312;-8.734246;-8.418531;-156.0294;-160.3361;-0.2798946;0.1988994;0;
451.3125;0;0;397.0296;-7.386299;-3.855355;444.6381;440.8354;-0.01974402;0.1337322;0;
691.1132;0;0;657.3121;-4.900631;-2.779754;685.0078;678.3978;0.04524317;-0.4511083;0;
293.8057;0;0;314.0739;-7.909817;-0.4325582;294.4529;284.9136;-0.01976964;-0.3856877;0;
197.4337;0;0;215.87;-6.294279;1.041379;196.1438;188.4881;-0.2796191;0.004503908;0;
152.3204;0;0;176.4852;-10.44016;-1.57188;151.2192;149.1309;-0.08443615;0.3293361;0;
-408.7382;0;0;-344.118;-10.76544;-1.972198;-402.9043;-401.1799;0.5653221;0.1990705;0;
-672.2573;0;0;-622.0698;-5.931854;-3.041943;-665.992;-664.4567;0.2399174;-0.06099891;0;
-333.8766;0;0;-332.3401;-5.055237;-4.110614;-332.3027;-333.2677;-0.3450298;-0.06093761;0;
-233.4039;0;0;-235.2423;1.714996;-6.58473;-229.3954;-234.1075;-0.1497811;0.1340257;0;
-154.459;0;0;-167.9771;4.66101;-8.185703;-152.1411;-156.8485;-0.08466323;0.133891;0;
448.3933;0;0;394.4091;7.000851;-8.445411;439.527;438.6973;-0.4094149;-0.2560476;0;
687.1974;0;0;655.1315;10.00793;-9.307702;677.2156;675.3873;-0.4739708;0.004079033;0;
293.7669;0;0;314.3317;8.255583;-9.700248;290.854;284.155;-0.08369053;-0.06089241;0;
198.8318;0;0;220.5004;9.654783;-10.29323;196.9214;189.9167;0.1762629;-0.6455373;0;
155.841;0;0;186.4833;6.094132;-8.742397;156.5562;150.9954;-0.0188162;-0.1251499;0;
-402.1602;0;0;-332.006;4.481395;-8.66663;-393.6996;-397.6307;0.1761047;0.3297472;0;
-669.559;0;0;-617.1539;10.23669;-8.523955;-661.3568;-660.5363;0.2408951;0.1345139;0;
-330.3064;0;0;-329.6155;10.82962;-8.582374;-328.047;-326.6026;-0.149151;0.1343787;0;
-229.2126;0;0;-229.7719;7.469834;-9.71246;-226.1434;-228.7609;-0.2139685;0.004308993;0;
-159.3923;0;0;-170.0709;5.653667;-10.03762;-160.1367;-160.8776;-0.6035575;-0.12563;0;
443.2775;0;0;387.7572;11.54248;-12.77371;429.9152;434.6098;-0.8628204;0.394235;0;
690.9573;0;0;654.171;12.40154;-13.76562;678.7953;680.4244;-0.21228;0.9135775;0;
295.8363;0;0;314.559;4.484851;-14.15368;294.5561;289.3744;0.1777373;0.3929209;0;
196.5264;0;0;217.4791;2.872755;-14.74231;197.2464;191.3827;0.1125914;-0.1272127;0;
156.4739;0;0;181.0288;-0.3453127;-13.85672;158.6925;152.3974;-0.2773258;0.2627192;0;
-403.6519;0;0;-340.0163;-2.755863;-13.4409;-395.4385;-401.4774;-0.1471125;0.3274226;0;
-674.6723;0;0;-622.6574;-1.949787;-12.95851;-666.7171;-668.0648;0.5027088;-0.2576125;0;
-340.9118;0;0;-337.987;-3.153277;-12.81152;-337.7747;-336.4973;0.3073016;-0.1923863;0;
-238.4956;0;0;-238.6347;-2.011032;-8.310915;-234.612;-235.3349;0.1120908;0.2625784;0;
-157.609;0;0;-167.0558;-2.210083;-6.895923;-156.0406;-158.387;0.1769455;0.3922492;0;
441.8107;0;0;388.5204;-1.873069;-9.501328;433.9447;432.4753;-0.4729057;-0.06291632;0;
689.2421;0;0;650.9354;-2.273329;-9.893679;679.7599;678.8541;-0.3424958;-0.2577551;0;
304.1178;0;0;320.3222;-1.466761;-12.16103;301.5791;297.0511;0.2425544;0.2622426;0;
198.9899;0;0;221.3;-1.398914;-14.49322;200.8266;192.8673;-0.08252603;0.3919138;0;
149.8771;0;0;177.9743;-6.688795;-12.53615;154.3355;147.0715;0.3073609;-0.06325141;0;
-401.6214;0;0;-336.8209;-7.821149;-12.7245;-391.2329;-396.1783;0.2420848;-0.3880246;0;
-665.585;0;0;-614.4677;-12.36764;-20.1467;-654.8321;-656.2743;-0.6027339;-0.3226673;0;
-333.7077;0;0;-328.8686;-15.36932;-21.13108;-327.5883;-329.5288;-0.1473569;-0.2573758;0;
-227.613;0;0;-225.5274;-9.727803;-23.78916;-219.938;-227.124;0.1776279;-0.3870518;0;
-150.8603;0;0;-161.5203;-9.248538;-25.43971;-146.9411;-153.1204;-0.4072567;-0.06182622;0;
440.8065;0;0;387.616;-11.31633;-16.43868;433.7897;432.9265;-0.3418801;0.4579746;0;
690.3629;0;0;655.1544;-11.03654;-14.74771;683.8529;680.5543;-0.1466346;0.1976451;0;
297.8662;0;0;315.5414;-10.55693;-10.17805;297.3597;290.1913;0.04841478;-0.1273902;0;
184.7486;0;0;206.3416;-10.6127;-7.153717;181.2441;180.1424;0.6980395;0.06763984;0;
151.8294;0;0;178.8355;-8.258485;-7.749375;149.0156;149.6017;0.5674035;0.1325392;0;
-392.6121;0;0;-327.09;-7.17846;-5.129254;-385.553;-390.1524;0.1120619;-0.062496;0;
-668.1414;0;0;-612.3053;-10.65387;-13.36288;-657.5287;-660.062;-0.01798533;0.1324688;0;
-326.7663;0;0;-318.1501;-10.57582;-15.15787;-319.2877;-322.818;-0.0829346;0.06736839;0;
-221.2408;0;0;-216.5063;-12.77599;-11.4587;-213.3325;-220.7322;0.2419854;-0.7123074;0;
-157.8628;0;0;-162.0036;-14.16968;-12.11701;-152.1488;-155.9804;0.1767749;-0.5166897;0;
445.3677;0;0;399.3146;-6.318557;-9.224695;443.2674;440.5016;-0.1482394;0.0685356;0;
696.8561;0;0;667.7158;-3.43182;-8.344648;695.1952;687.3097;0.04681159;-0.1914026;0;
302.1664;0;0;325.4041;-7.782628;-6.795656;305.3173;298.814;-0.08317013;-0.321145;0;
200.2264;0;0;223.2533;-6.233591;-5.650118;200.3756;200.3756;-0.5378579;0.06898174;0;
157.0468;0;0;184.9856;-7.03161;-4.639819;158.2578;155.1344;-0.2774481;0.3287818;0;
-394.3964;0;0;-325.0065;-8.564786;-3.027566;-382.7544;-392.996;0.1126347;0.1335494;0;
-660.8035;0;0;-604.9766;5.844784;-8.115105;-647.8613;-654.9068;-0.08238051;-0.06148682;0;
-334.1784;0;0;-328.5698;9.656328;-9.580575;-327.9333;-328.9747;0.04763695;-0.06142504;0;
-232.2062;0;0;-229.1645;1.877094;-7.025597;-226.1548;-227.4451;0.6322951;-0.191298;0;
-154.4493;0;0;-159.719;2.879586;-8.425179;-150.2156;-152.2542;0.2418558;-0.1261384;0;
439.4699;0;0;392.9763;-4.356977;-5.670413;434.5789;431.7303;-0.4080607;-0.06104436;0;
690.5894;0;0;661.0715;-7.500431;-5.262818;683.7043;677.7352;-0.277716;-0.1259504;0;
302.6526;0;0;323.8889;-2.201608;-11.21889;301.8964;294.3715;-0.1475022;-0.06085647;0;
191.0919;0;0;211.6197;-3.271123;-12.74822;190.0241;184.8806;-0.08238667;0.004172026;0;
153.9185;0;0;186.2322;-0.7895899;-13.80714;154.8508;150.3996;-0.1472712;0.1341025;0;
-394.3981;0;0;-314.8906;0.617723;-15.19979;-382.7222;-388.0435;-0.08215591;0.1989351;0;
-678.8586;0;0;-616.7349;-5.678561;-15.2515;-666.8821;-668.7623;-0.01710602;-0.1261015;0;
-341.8456;0;0;-336.6306;-7.682587;-15.70505;-337.3148;-338.6309;-0.01708883;-0.06100744;0;
-232.182;0;0;-232.2197;0.02829139;-15.9572;-226.2191;-233.8431;-0.01707166;-0.1259135;0;
-182.0363;0;0;-189.2578;1.233712;-16.14212;-176.2668;-185.6323;-0.0170545;-0.2557216;0;
426.1535;0;0;375.9608;-4.460955;-12.24101;423.484;417.3138;-0.01703737;0.1343394;0;
708.9579;0;0;673.3708;-4.724893;-10.15224;706.1661;698.8152;0.04794709;0.004269688;0;
314.6934;0;0;333.3023;-6.79625;-13.75912;319.2133;308.5589;0.1128663;-0.3205713;0;
204.3075;0;0;225.7089;-7.325284;-13.81228;206.9488;200.8653;-0.08214917;0.1345222;0;
167.6205;0;0;195.9969;-9.126585;-10.44925;167.5105;167.7425;0.04786805;0.1993544;0;
-392.329;0;0;-322.2521;-10.92608;-10.37177;-384.6928;-387.4595;0.1777546;-0.1256827;0;
-674.2304;0;0;-617.03;-2.944494;-8.218015;-663.6658;-667.6167;-0.2771954;0.1992804;0;
-343.5938;0;0;-332.7401;-2.137253;-7.138031;-336.7255;-339.1731;-0.6017535;0.5888842;0;
-240.6126;0;0;-230.3945;1.34752;-13.22618;-230.9401;-237.7581;-0.6661162;0.9131291;0;
-169.0317;0;0;-170.568;5.5667;-15.02131;-159.6188;-168.304;-0.5355122;0.782277;0;
434.21;0;0;388.1351;-10.31373;-12.59495;434.0558;426.816;-0.6649088;0.06685017;0;
691.3942;0;0;660.1707;-13.78696;-12.78325;689.0537;680.1971;-0.5992734;-0.3230211;0;
304.0813;0;0;324.6132;-4.528733;-18.06193;306.3034;297.7055;0.05100217;-0.3876638;0;
195.3303;0;0;221.7136;-5.796981;-20.72298;195.3013;190.5851;-0.07898375;-0.2573396;0;
157.9652;0;0;193.5673;0.4381349;-15.54459;158.6234;154.9739;-0.4687084;-0.1921137;0;
-392.6044;0;0;-317.4329;3.183385;-16.46673;-381.3897;-389.0334;-0.1434008;0.06794871;0;
-679.5654;0;0;-619.7743;-5.125209;-14.64165;-664.6139;-673.4993;0.2465474;0.4576845;0;
-334.868;0;0;-326.2988;-5.388479;-12.75154;-326.2408;-329.8075;-0.01356973;0.06742055;0;
-215.4039;0;0;-209.7793;-4.44506;-24.66144;-207.66;-210.2861;-0.4033602;-0.1925166;0;
-166.2746;0;0;-169.5261;-4.105801;-26.51206;-159.1006;-164.5351;-0.5328895;0.2624483;0;
427.3442;0;0;379.181;-4.972332;-26.35146;425.1407;419.2119;-0.2075174;0.3271519;0;
696.9041;0;0;662.0951;-5.302128;-28.80335;692.9536;685.0942;0.05256051;0.1319212;0;
304.026;0;0;324.849;-0.2729583;-17.92341;305.5767;299.0995;-0.272329;0.1967559;0;
192.4014;0;0;218.8882;-0.005240371;-15.1591;192.264;190.1036;-0.3370227;0.1315909;0;
158.5375;0;0;188.4959;9.372864;-17.08638;159.8995;155.6174;-0.01184737;-0.193378;0;
-386.9726;0;0;-316.5647;14.98952;-15.05972;-374.8675;-382.6435;0.2480339;-0.1282164;0;
-667.8799;0;0;-608.7246;-1.569956;-17.32201;-652.6635;-658.4327;0.3777194;0.001847118;0;
-341.8099;0;0;-334.1882;-3.644483;-17.7065;-333.5428;-337.6195;0.2474051;0.06681262;0;
-231.3343;0;0;-227.4683;4.865645;-14.00477;-223.7002;-231.2086;0.1172219;0.001778129;0;
-168.2584;0;0;-172.1425;5.462992;-12.65104;-161.0068;-170.6941;0.1171041;-0.1281583;0;
424.4253;0;0;377.0045;7.600957;-20.60905;422.112;414.6833;-0.07791561;-0.06306223;0;
697.8612;0;0;663.4191;9.20091;-22.86576;693.3638;686.005;-0.402674;0.06693584;0;
317.0385;0;0;336.7289;9.661156;-18.28807;318.4802;310.629;-0.1424001;-0.1930008;0;
200.1536;0;0;225.0715;9.918891;-19.60923;201.2189;195.687;0.1825797;-0.1278395;0;
161.4093;0;0;189.4881;13.72732;-14.76688;163.2232;158.3216;-0.1424404;0.1971256;0;
-384.9783;0;0;-319.8839;13.71352;-13.07759;-376.2946;-380.3168;-0.2072646;0.06699289;0;
-675.8826;0;0;-621.6606;12.96281;-20.23138;-666.8328;-668.1024;0.05281299;-0.1279765;0;
-340.809;0;0;-332.9308;12.68137;-20.412;-335.7039;-338.5338;0.3775966;-0.06288053;0;
-214.8422;0;0;-209.9704;1.28177;-22.86986;-207.4934;-216.6923;0.4421846;0.1320847;0;
-167.6499;0;0;-170.8415;-3.742384;-23.58369;-161.3705;-172.9339;0.1818709;0.06698463;0;
414.9133;0;0;369.2463;-1.59517;-20.81369;411.7537;403.5752;-0.1431486;-0.1279847;0;
699.3531;0;0;664.914;-3.469577;-19.98899;694.6975;686.8395;-0.0780374;0.1320133;0;
314.2812;0;0;332.0378;-8.489933;-16.21798;316.2519;307.4023;0.3118451;0.5216846;0;
190.5274;0;0;215.6376;-9.28471;-14.66107;192.3087;188.0907;0.181597;0.4561931;0;
157.7898;0;0;189.6838;-10.61553;-9.421796;160.1316;158.2291;-0.3383242;0.2608327;0;
-389.781;0;0;-317.5019;-11.87668;-7.603911;-379.5706;-383.4077;-0.2080495;0.325538;0;
-676.4951;0;0;-614.8458;-0.1431012;-5.921698;-664.2959;-666.8173;0.1169962;0.1303089;0;
-341.2335;0;0;-331.5576;2.871153;-4.107208;-333.4819;-336.9377;0.1168787;-0.3245935;0;
-230.0714;0;0;-225.9648;3.605202;-11.27013;-223.0771;-231.0897;0.1167612;-0.1943326;0;
-175.8048;0;0;-178.9488;6.012477;-11.92864;-171.129;-179.8206;0.2465786;0.1956667;0;
417.0114;0;0;371.0796;0.8488718;-19.0166;414.1239;406.0656;0.2463308;0.06553539;0;
696.7016;0;0;664.684;0.04471165;-22.94948;692.8799;682.6434;-0.0787534;0.000502182;0;
318.3164;0;0;338.1799;-4.711731;-15.42446;319.8709;309.3322;-0.403511;-0.129433;0;
204.1788;0;0;227.2707;-7.988551;-16.27974;204.6697;198.3271;-0.3381382;-0.324205;0;
167.8043;0;0;199.3687;-8.382666;-11.50771;168.7945;164.5197;-0.01296171;0.06592485;0;
-387.0855;0;0;-313.1366;-10.85249;-9.553645;-376.4136;-382.1209;0.2469207;0.2607606;0;
-684.2345;0;0;-621.9166;-11.24373;-15.10351;-670.5748;-674.3399;0.05177055;0.0006292398;0;
-352.9631;0;0;-340.4329;-12.5716;-15.89213;-344.5646;-347.5762;-0.3380855;-0.5191101;0;
-229.2955;0;0;-222.5249;-10.61658;-16.479;-221.1552;-228.2243;-0.1428438;-0.3886538;0;
-176.0292;0;0;-178.5733;-9.132048;-17.46719;-169.3964;-178.5198;-0.01276557;-0.06342661;0;
407.6044;0;0;363.5837;-15.21844;-19.99487;404.9852;398.2447;-0.3375894;0.001604464;0;
693.9257;0;0;661.9432;-16.54329;-19.90779;689.4975;681.6394;-0.2073155;0.3264396;0;
312.2949;0;0;333.5054;-7.751787;-25.6482;313.181;303.2693;0.3126315;0.3910789;0;
188.1684;0;0;216.4789;-5.265751;-26.89511;186.5548;181.1508;0.3772847;-0.1290528;0;
166.74;0;0;198.8951;-7.872428;-20.16991;165.5029;161.791;0.5068403;-0.06395578;0;
-376.0923;0;0;-306.9256;-6.324277;-19.68076;-368.2078;-374.2273;0.7662003;0.4558472;0;
-678.3123;0;0;-624.7073;-6.652715;-9.412843;-669.8735;-674.5126;0.5705284;0.4553892;0;
-345.2978;0;0;-344.8449;-6.311237;-5.585479;-342.6145;-347.0616;-0.01475088;-0.06480713;0;
-225.3859;0;0;-229.2439;-0.7451906;-6.249696;-221.0812;-228.1475;-0.01473606;-0.3246114;0;
-178.7453;0;0;-188.0341;2.068597;-2.760426;-174.8821;-181.8789;0.3101155;0.06551886;0;
407.3898;0;0;357.5682;0.5262774;-12.33597;403.8777;396.5132;-0.0800002;0.3253224;0;
697.5219;0;0;657.433;3.070368;-13.46228;693.826;683.4704;-0.4047565;0.1300935;0;
322.3218;0;0;336.3709;2.598768;-15.72605;323.0024;314.2813;0.05042157;-0.389776;0;
197.2481;0;0;221.2157;2.998299;-19.52816;195.7416;193.5886;0.1803056;-0.324417;0;
163.3793;0;0;190.5087;12.97562;-9.193407;162.8739;161.2227;0.3100591;0.1306804;0;
-382.573;0;0;-317.5524;15.57455;-9.385118;-374.2699;-380.0423;0.1798129;0.0006143757;0;
-681.5381;0;0;-626.6403;18.17087;-7.232357;-670.932;-676.2614;-0.08023717;-0.1293209;0;
-351.2065;0;0;-346.5886;21.23407;-5.148618;-345.1088;-349.3083;-0.01518921;0.06571106;0;
-227.6031;0;0;-227.8624;15.18451;-16.79823;-221.0742;-228.6428;-0.08014128;0.0006776738;0;
-177.4619;0;0;-185.2797;14.56604;-19.05865;-172.4389;-181.3118;0.1148413;0.06564435;0;
408.7968;0;0;358.6956;13.41331;-19.91028;404.8818;398.2667;0.1796932;0.0006110332;0;
700.2393;0;0;663.9316;11.25638;-21.3639;695.6411;687.9082;-0.01538937;-0.1293243;0;
318.4772;0;0;336.9285;12.04837;-23.21795;319.6308;311.156;0.3094628;-0.06422698;0;
195.4689;0;0;218.6492;9.691744;-24.33321;194.9346;190.9662;0.1792172;-0.1291298;0;
174.1581;0;0;201.3756;14.16998;-17.54373;173.8118;171.1591;-0.3407016;-0.129;0;
-373.9915;0;0;-305.1972;15.22747;-15.98549;-365.4044;-371.9899;-0.275392;0.06603163;0;
-682.8977;0;0;-624.7922;5.701327;-11.68264;-671.3208;-678.337;-0.08021322;0.1309326;0;
-350.9405;0;0;-345.3671;3.886938;-9.326503;-345.0599;-350.07;0.1797367;0.1308011;0;
-223.9016;0;0;-221.0199;1.337436;-9.317132;-217.3398;-223.8441;0.5043929;0.3255717;0;
-180.8856;0;0;-181.9423;-2.146532;-8.035216;-174.2679;-181.3904;0.3739513;0.3902119;0;
400.8163;0;0;357.0322;5.892601;-12.58186;397.7448;392.1287;0.0487389;0.06498306;0;
701.9495;0;0;667.9545;6.958407;-13.0381;696.1324;689.0228;-0.08124476;-0.259919;0;
326.4951;0;0;343.3211;1.727478;-18.98623;326.3685;318.5163;-0.2110978;0.06517894;0;
193.2338;0;0;217.4767;2.395328;-21.31156;193.2323;187.7618;-0.3408204;0.2600155;0;
165.3036;0;0;197.9554;-0.8222597;-18.94574;167.2386;161.5862;0.2442282;-0.06508252;0;
-377.2773;0;0;-305.1157;-1.022504;-20.5343;-366.8486;-372.995;0.5688195;0.1298849;0;
-683.4316;0;0;-623.3365;1.255699;-12.07406;-672.4512;-675.8428;0.3083785;0.1947217;0;
-351.4115;0;0;-342.7259;1.58923;-9.985456;-345.8768;-349.5149;0.178134;0.1295588;0;
-221.9358;0;0;-218.9436;6.344031;-10.8462;-215.9694;-223.2895;-0.08191436;0.5192326;0;
-178.1722;0;0;-181.8047;7.676827;-8.825813;-174.648;-181.7734;-0.1467994;0.6486456;0;
399.2792;0;0;353.484;11.08537;-13.10385;392.6799;386.936;-0.08168454;0.3231571;0;
697.228;0;0;662.3484;12.61447;-13.0237;689.1361;680.0247;-0.2765045;0.257865;0;
324.3395;0;0;341.3439;9.051819;-14.08222;322.6275;312.5883;-0.341194;0.3875406;0;
193.1419;0;0;217.5005;7.636204;-13.86712;190.4321;185.5878;-0.2758838;-0.5223916;0;
170.2093;0;0;201.6024;5.552427;-14.72397;168.0644;164.8492;-0.2106393;-0.7167687;0;
-367.3792;0;0;-296.9122;3.202323;-15.17805;-360.4014;-366.2371;-0.1454603;0.1934943;0;
-677.7913;0;0;-619.3267;-1.154175;-7.92889;-668.6966;-673.8393;0.1795226;0.4531693;0;
-348.0881;0;0;-342.1559;-3.296469;-6.983162;-345.6867;-347.8882;0.1143749;0.1278772;0;
-219.6152;0;0;-217.9993;-11.59953;1.731514;-217.716;-222.2266;-0.2755441;-0.197088;0;
-184.0374;0;0;-186.9208;-16.67809;6.351475;-181.5154;-190.0194;-0.08036523;-0.1319226;0;
397.4803;0;0;351.9337;-7.015788;-5.644608;391.9414;386.1945;0.04965021;0.452916;0;
706.4879;0;0;671.9816;-6.942366;-7.179544;699.5802;694.2139;-0.08033437;0.842265;0;
329.3423;0;0;347.9064;-5.930036;-6.837415;329.5629;321.3284;0.1796157;0.7764513;0;
196.2031;0;0;221.9325;-2.240382;-9.308791;196.486;192.0079;0.3743373;0.4508344;0;
176.1409;0;0;206.2173;-12.28581;-7.491021;177.0482;174.0114;0.2440265;0.2554794;0;
-363.5149;0;0;-295.4254;-11.67026;-7.751425;-354.1752;-359.8327;-0.1460228;0.3851574;0;
-673.5561;0;0;-613.9683;-10.45308;-11.76249;-662.1644;-666.8791;-0.08090873;0.319803;0;
-348.9171;0;0;-339.0517;-11.91547;-12.62145;-342.5344;-348.0564;0.1790419;0.1245797;0;
-225.5034;0;0;-220.1456;6.515954;-10.19738;-218.3149;-225.8305;0.178862;0.4492912;0;
-178.1755;0;0;-179.1324;11.4659;-9.919204;-172.7434;-178.8146;0.2436496;0.5787745;0;
406.9595;0;0;361.9632;8.84241;-6.091332;401.829;397.2007;0.1134701;-0.2014152;0;
703.3389;0;0;670.6941;12.18243;-3.740809;697.0266;690.5289;0.1133561;-0.4610822;0;
328.5702;0;0;350.6807;5.271311;-5.679555;330.5726;321.4577;-0.2115945;-0.07081488;0;
199.7422;0;0;227.9523;4.060565;-4.468155;202.3047;195.1356;-0.4062839;-0.00577638;0;
174.8039;0;0;206.4215;3.654344;-2.588266;175.8647;171.2014;0.1138631;-0.005770576;0;
-365.9125;0;0;-294.5342;2.244152;-1.112041;-358.1687;-362.8897;0.5035527;-0.005764778;0;
-680.8239;0;0;-619.8246;-0.9732835;-1.445838;-671.2138;-674.9305;0.3081447;0.3840451;0;
-353.3665;0;0;-343.8402;-4.121113;-1.377402;-349.888;-353.2263;-0.08196896;0.2537245;0;
-218.9539;0;0;-210.8739;3.251394;2.910768;-214.9166;-221.1875;0.1130154;-0.3962039;0;
-185.563;0;0;-180.6771;3.114405;3.376723;-180.5928;-189.3562;0.5676733;0.05896565;0;
392.458;0;0;349.3631;1.302615;4.177125;389.2398;381.4848;0.1772988;0.5136778;0;
711.9653;0;0;675.473;0.6317204;4.574826;707.5635;699.5663;-0.3426181;0.1233576;0;
330.5663;0;0;352.7062;-4.727549;-0.2524199;331.916;323.9269;-0.08240443;0.2531683;0;
187.3685;0;0;218.9189;-7.334767;-1.792774;186.0931;184.3589;0.1125804;0.3178813;0;
182.2452;0;0;213.4515;-12.55231;-4.269219;179.9091;180.7379;0.04749992;-0.00727485;0;
-354.2309;0;0;-285.7621;-15.82223;-5.939502;-347.0069;-351.0515;0.2423542;0.1226672;0;
-682.4598;0;0;-623.3052;-20.62812;-6.804313;-672.1196;-675.6604;0.307078;0.2524786;0;
-358.7489;0;0;-350.7531;-24.091;-7.735237;-354.0413;-355.767;0.3717368;0.05732287;0;
-221.4573;0;0;-221.2156;-23.46358;-6.387805;-215.9423;-222.6012;0.0465266;-0.1376368;0;
-179.1309;0;0;-184.3867;-25.38239;-6.582336;-172.8718;-181.8354;-0.3433242;-0.2674332;0;
395.3229;0;0;351.2794;-20.06559;-1.820056;392.6427;385.9994;-0.2130445;-0.2021971;0;
703.9578;0;0;670.8281;-18.30412;0.1912611;697.5947;690.8956;-0.1478631;-0.07205924;0;
336.8722;0;0;355.9995;-20.49555;-3.626836;335.3255;329.2578;-0.2126819;0.05794786;0;
199.7899;0;0;224.0205;-18.06406;-4.49397;198.4322;195.7439;0.1773359;-0.1370124;0;
171.4158;0;0;196.9339;-23.80669;-0.6715494;171.6836;168.6233;0.242125;0.0580273;0;
-363.675;0;0;-298.4526;-24.7198;-0.268977;-355.5989;-359.4058;0.3718164;0.252871;0;
-677.3393;0;0;-618.8665;-17.1265;-7.033861;-668.5841;-669.5136;0.04660609;-0.007252444;0;
-358.2562;0;0;-351.3163;-16.57343;-8.902193;-354.0076;-355.7483;-0.5381468;-0.07221249;0;
-221.0275;0;0;-220.9662;-10.32748;-9.63006;-214.5968;-222.645;-0.08283469;0.1227621;0;
-183.4492;0;0;-186.324;-7.235645;-10.75909;-177.2748;-187.5014;0.1121506;0.2525734;0;
383.95;0;0;338.8494;-14.12725;-12.35587;380.623;374.6545;-0.2127988;0.05741762;0;
704.1531;0;0;664.7824;-14.91734;-13.61601;697.6435;691.9309;0.04728436;-0.07257477;0;
331.3201;0;0;344.3376;-13.09369;-7.306179;330.5641;322.2961;0.04723685;0.2523349;0;
187.3718;0;0;206.5607;-13.01416;-4.887452;186.1794;181.4179;-0.0827453;-0.1377227;0;
180.1246;0;0;203.4172;-18.82823;-8.499497;179.6205;176.3631;-0.01769482;-0.7222904;0;
-361.0969;0;0;-293.4126;-20.88542;-8.223025;-353.6045;-358.5453;0.04729031;0.05804345;0;
-689.069;0;0;-629.3862;-12.69276;-4.128926;-680.0225;-682.8344;0.1771775;0.5777239;0;
-358.0427;0;0;-351.3932;-9.062682;-3.856846;-353.3156;-355.9997;-0.2128046;0.2523066;0;
-222.0636;0;0;-222.7297;-15.21649;-0.9058433;-217.3412;-222.9587;-0.1476234;-0.2676856;0;
-178.2374;0;0;-186.0242;-13.52626;1.171538;-175.2689;-181.6303;0.2423289;-0.527286;0;
392.9672;0;0;346.1453;-7.082312;-8.07304;388.1241;382.0814;-0.407588;-0.1369521;0;
690.1102;0;0;656.5163;-6.204539;-9.47157;685.1472;677.6113;-0.6020805;0.3179569;0;
323.6632;0;0;342.5766;11.21677;-7.988428;325.3892;318.0483;0.04819795;0.25267;0;
189.3428;0;0;214.734;17.9033;-8.583248;190.255;185.9824;0.04814951;0.3173835;0;
169.4125;0;0;196.9645;9.177777;-5.694479;169.3867;164.5562;-0.08183355;0.1871299;0;
-353.6824;0;0;-288.4894;11.44573;-5.085911;-346.3993;-354.4108;0.04818336;-0.3977642;0;
-672.1667;0;0;-614.9103;1.320174;2.019268;-663.7665;-669.4587;-0.2767017;-0.2674299;0;
-362.5217;0;0;-353.2362;-3.838717;6.036093;-360.4392;-362.8148;-0.4063584;0.05767559;0;
-227.5376;0;0;-222.6342;5.878032;0.9394472;-224.7076;-231.0163;-0.01614605;-0.2022517;0;
-188.5784;0;0;-190.0518;4.063465;1.206435;-186.8757;-195.6768;0.2437395;-0.07211383;0;
384.823;0;0;339.0608;2.920306;5.425025;376.7164;370.9226;0.1785273;0.05789332;0;
710.5224;0;0;672.115;3.185791;5.285608;701.2996;693.7;0.1133806;-0.3969363;0;
332.4356;0;0;349.8513;-7.803099;7.088837;330.281;320.6276;-0.08163539;-0.6564068;0;
181.8646;0;0;207.7585;-11.27788;7.684438;179.7122;174.816;-0.2764554;-0.3958778;0;
186.0547;0;0;211.985;-7.448158;1.380565;183.4046;180.5124;-0.1462429;-0.5254148;0;
-343.8035;0;0;-276.7949;-8.512401;0.1065023;-337.9552;-343.4057;-0.08112863;-0.07011542;0;
-685.8484;0;0;-625.2789;-6.896257;-3.778493;-676.5703;-681.5779;-0.1460145;0.5146611;0;
-363.3211;0;0;-353.7868;-5.550157;-6.587979;-359.9242;-363.1154;-0.01593306;-0.2654641;0;
-219.2158;0;0;-215.7505;-9.697766;-2.964281;-215.4475;-220.8218;-0.08088439;-0.07029536;0;
-188.5733;0;0;-191.3584;-10.42398;-4.434927;-183.3721;-191.677;-0.01583578;0.7093834;0;
382.1419;0;0;337.4432;-3.51463;1.463905;379.8417;371.3577;0.04914748;0.3188666;0;
704.0959;0;0;669.3746;-2.104578;3.873698;699.799;690.9487;0.3089675;-0.07125792;0;
336.073;0;0;356.0467;-2.638327;-4.301868;335.6535;327.9991;0.2436897;-0.4609904;0;
196.1805;0;0;224.13;-1.563949;-4.431512;194.3246;189.6763;0.1784775;-0.6554292;0;
178.5546;0;0;208.6625;-5.849286;-6.704479;179.012;174.6182;0.3732001;-0.1999992;0;
-355.0442;0;0;-283.8622;-7.183555;-8.640125;-345.7792;-351.168;-0.01697889;0.1250385;0;
-677.5251;0;0;-612.7865;-6.907917;-2.670084;-666.1456;-671.0292;-0.2768312;-0.06998922;0;
-363.3769;0;0;-350.3024;-8.241122;-1.997694;-357.631;-362.2598;0.113251;-0.06991889;0;
-225.2685;0;0;-217.392;-6.691625;-2.598411;-220.9026;-227.9632;0.1131372;0.2549881;0;
-184.1877;0;0;-182.1287;-5.947967;-1.85911;-181.0131;-189.3784;-0.4067152;0.3196992;0;
382.4626;0;0;338.4177;-11.43435;-4.670403;376.8884;370.2807;-0.3413392;0.1894433;0;
703.3544;0;0;665.7255;-12.96407;-6.273301;696.0366;688.2486;-0.01615949;0.1242856;0;
335.2698;0;0;348.5282;-6.252267;-1.511331;333.644;323.615;-0.1460779;0.1241607;0;
186.8198;0;0;208.748;-5.040536;-0.7730003;184.3837;177.1758;-0.01599648;0.124036;0;
185.82;0;0;214.098;-6.308269;-6.331685;184.6981;179.8088;0.3738236;-0.07099071;0;
-334.7926;0;0;-268.9994;-5.899788;-6.124374;-327.73;-333.364;0.178546;-0.1358867;0;
-676.4717;0;0;-620.2399;-4.55469;-12.88325;-668.1044;-672.296;0.04843191;-0.005815498;0;
-361.1377;0;0;-354.1252;-3.545735;-15.88454;-358.276;-362.0886;-0.08155143;-0.005809654;0;
-210.7253;0;0;-209.8417;-6.421585;-4.280775;-207.804;-214.7986;-0.01650215;-0.07077116;0;
-184.0268;0;0;-188.5789;-6.214061;-2.133142;-181.4208;-189.5328;0.2433838;-0.07070005;0;
377.8133;0;0;333.2234;-9.289276;-1.26022;371.796;364.879;0.04823722;0.3191751;0;
705.3313;0;0;672.8427;-11.75819;2.224158;697.6959;688.4745;-0.1467133;0.3838217;0;
336.0579;0;0;357.8871;-0.5605905;-1.529121;336.1762;324.7777;0.1133035;-0.2662374;0;
191.7925;0;0;218.7847;2.521432;-0.9917208;192.4105;185.3338;0.178157;-0.3309372;0;
186.6023;0;0;213.6923;-5.25161;1.487644;185.658;182.2116;-0.3417607;-0.20067;0;
-344.3184;0;0;-274.9644;-4.776843;-0.121441;-337.9529;-341.8332;-0.471352;-0.2004684;0;
-685.2384;0;0;-620.9515;-4.772043;6.710818;-675.9433;-679.0076;-0.1460417;-0.2652343;0;
-373.2688;0;0;-363.0819;-5.169389;6.637092;-369.7302;-372.9788;-0.4707316;-0.3299351;0;
-228.8412;0;0;-226.0983;-0.3414241;0.8030301;-224.8688;-231.6748;-0.6001933;-0.004766901;0;
-195.6903;0;0;-197.198;1.266509;-0.3364867;-192.0967;-200.0203;-0.2097862;0.2551073;0;
375.9691;0;0;332.5465;-0.1412829;-11.92395;369.5641;363.1476;-0.2745428;0.1898836;0;
708.1117;0;0;672.104;-0.007419042;-15.46194;699.2144;691.3676;-0.2092996;0.05975812;0;
334.65;0;0;350.3401;4.54694;-20.47001;332.7581;322.9203;0.1157474;-0.135204;0;
185.2637;0;0;207.747;6.01624;-24.46829;183.4986;176.6067;-0.1442382;-0.5248721;0;
189.7002;0;0;213.5977;1.455843;-15.66919;186.3752;184.3627;-0.01415861;-0.2644754;0;
-337.2881;0;0;-270.811;0.1815825;-15.18456;-332.114;-334.6242;0.3756597;0.4504311;0;
-686.2111;0;0;-626.7349;2.525925;-5.122107;-676.7944;-681.8633;0.1154128;-0.1347276;0;
-370.3051;0;0;-365.3612;2.657108;0.9113817;-365.8328;-371.5213;0.05032953;-0.1995595;0;
-222.2572;0;0;-220.9415;-2.302054;-4.582013;-216.5401;-226.0334;0.1802136;0.3853471;0;
-197.2963;0;0;-199.1053;-3.237746;-1.36235;-191.6474;-203.1302;-0.01486947;-0.1997462;0;
370.4291;0;0;325.0189;-3.971427;-0.9590833;366.1399;358.3542;-0.01485453;-0.2645129;0;
706.0131;0;0;670.8933;-5.306607;0.9843854;699.979;692.8259;0.05012774;0.1905243;0;
338.7379;0;0;356.5019;-0.2784095;1.117362;338.7693;330.6239;0.1800121;0.1253656;0;
188.6603;0;0;210.4044;0.1913608;0.647359;187.0675;181.9288;0.0498965;0.3201416;0;
186.6592;0;0;209.5058;3.071557;10.89485;184.4433;181.5586;-0.210023;0.3847873;0;
-331.7679;0;0;-268.4021;5.077226;12.82641;-325.7357;-329.1172;0.1150247;0.05956393;0;
-675.1992;0;0;-617.894;0.1156317;13.75116;-666.6119;-669.4278;0.3747785;-0.3303;0;
-372.8599;0;0;-365.6497;0.5176571;15.74683;-369.4661;-371.9044;0.04956524;-0.3299681;0;
-222.8105;0;0;-221.7919;-3.5687;8.296027;-219.4826;-224.2297;0.1144828;-0.1347345;0;
-188.7286;0;0;-190.2098;-5.84229;7.08212;-185.0292;-191.0835;-0.08053428;-0.004664454;0;
375.49;0;0;332.4687;1.464598;3.725857;370.8773;367.0156;-0.1454207;0.320177;0;
714.817;0;0;678.6479;2.601226;1.243867;707.3354;701.9783;0.1795621;0.2548879;0;
345.1591;0;0;363.8115;0.6562296;3.318966;344.3692;336.2064;0.04944701;0.05972976;0;
188.1411;0;0;212.959;1.325156;2.244026;187.0396;182.3208;0.1143647;-0.2001996;0;
192.0125;0;0;217.3677;2.19448;6.126659;189.9751;186.9476;0.2441844;0.05987091;0;
-328.9187;0;0;-262.4846;2.661766;7.460162;-323.0205;-328.6061;0.3089064;0.1897454;0;
-681.0985;0;0;-621.2903;3.797191;7.117752;-673.3947;-677.4755;0.2436287;-0.135282;0;
-370.7573;0;0;-362.6083;4.932451;8.316171;-368.5584;-370.6361;0.1134492;0.3196254;0;
-214.7755;0;0;-215.7551;1.176451;8.039883;-212.3914;-216.8408;0.2432699;0.1893695;0;
-191.5712;0;0;-198.8592;-0.0975288;8.500685;-189.6893;-195.8209;0.1780581;-0.4604942;0;
369.5268;0;0;319.0179;4.390548;6.951657;362.5363;356.7857;-0.2768922;0.1246746;0;
715.7938;0;0;672.9568;4.587207;6.006911;705.6869;698.7551;-0.6014507;0.254484;0;
345.0106;0;0;360.1875;5.319532;5.86691;341.7854;334.1734;-0.2760096;-0.2005431;0;
183.1826;0;0;210.2133;6.854428;3.918509;181.5223;177.3538;-0.3406996;-0.2003416;0;
189.5577;0;0;218.6227;1.958397;6.861821;187.212;186.1711;-0.470292;-0.07020558;0;
-329.0597;0;0;-261.5432;2.022802;6.988892;-323.2821;-326.0086;0.179854;0.05979966;0;
-683.7381;0;0;-623.7857;1.618628;0.5516304;-674.8429;-676.7546;0.3745753;-0.2001298;0;
-375.8305;0;0;-369.4115;0.2104818;-0.1187532;-372.379;-373.1019;0.04936222;-0.3298634;0;
-218.6567;0;0;-220.4275;9.052505;-6.213959;-215.1462;-220.1786;0.2442146;-0.004695242;0;
-188.6394;0;0;-192.0951;10.5163;-9.55674;-186.2569;-192.3463;0.2439692;-0.2645599;0;
373.0804;0;0;327.4619;10.37201;0.9019566;366.2776;362.943;0.04882209;-0.1343594;0;
715.908;0;0;676.5822;11.70174;3.178348;706.8632;702.22;-0.01619431;0.320547;0;
350.0597;0;0;366.4329;6.666138;1.232771;346.5212;340.1336;-0.1461127;-0.004611775;0;
191.7248;0;0;214.9531;6.056228;4.044694;187.94;183.4954;-0.4058353;-0.06957448;0;
195.2803;0;0;216.4238;0.7588566;3.236835;191.8741;187.9962;-0.3404602;0.1903648;0;
-321.8436;0;0;-259.9293;-2.122294;5.310053;-316.6881;-322.3738;-0.2101834;0.06023885;0;
-674.7802;0;0;-616.0515;0.6265047;9.993401;-666.5689;-671.062;-0.08003749;-0.00478904;0;
-376.0644;0;0;-366.8699;-0.7806444;12.52871;-372.734;-375.5359;0.1799123;-0.06975157;0;
-223.638;0;0;-220.6996;3.640769;18.27641;-219.4988;-224.6092;0.5045682;-0.1996162;0;
-193.5533;0;0;-195.5529;5.445773;21.74116;-188.7936;-196.0228;0.6339959;-0.004513566;0;
364.4233;0;0;319.9471;1.086044;22.32216;359.5581;353.5231;-0.1462492;-0.06947637;0;
712.3196;0;0;676.946;1.419745;23.63927;704.3983;697.3699;-0.5359063;-0.1993413;0;
345.3505;0;0;365.1722;-0.3229935;26.69673;344.1837;335.9754;-0.01562911;-0.004238922;0;
176.9005;0;0;206.7597;-2.868264;27.4737;174.9852;170.9706;0.3092233;-0.1341693;0;
190.0285;0;0;222.2316;7.851887;23.29315;186.8659;185.0417;0.3738799;-0.06906719;0;
-318.5944;0;0;-247.0684;10.79173;21.1934;-313.0082;-317.7042;0.1786022;0.06093691;0;
-683.2158;0;0;-616.6343;-3.085186;19.36356;-674.0121;-677.4539;0.1134554;-0.1989937;0;
-378.7445;0;0;-367.3272;-5.425635;16.46396;-374.9848;-376.9864;-0.01659325;-0.00389173;0;
-217.2574;0;0;-216.034;-2.540771;13.23224;-212.6894;-218.2497;-0.1465113;0.3859162;0;
-200.4225;0;0;-200.5746;-3.140455;9.9369;-195.7966;-202.4133;-0.2762987;-0.00427559;0;
356.3117;0;0;312.4942;-4.209026;8.319325;351.5001;346.5768;-0.4059558;-0.329108;0;
708.8388;0;0;672.0618;-4.808009;6.502549;702.2205;695.3655;-0.08071117;0.2559288;0;
344.9966;0;0;364.978;1.225042;1.338452;345.1315;335.9096;-0.1455974;0.515541;0;
184.9177;0;0;213.1874;3.836755;-0.6723813;184.5528;178.3387;-0.1454511;0.1252189;0;
185.544;0;0;214.7223;-0.7224272;0.1320894;183.5552;180.8456;0.5043684;-0.06980895;0;
-329.5087;0;0;-260.5047;-1.92715;-0.6048555;-324.4989;-328.1429;0.2439923;-0.4595428;0;
-676.9402;0;0;-613.8777;10.26592;2.878743;-667.9376;-671.8277;-0.2110243;-0.7189505;0;
-377.6602;0;0;-366.8847;14.80996;4.751372;-372.8519;-375.4263;-0.0159102;-0.2634567;0;
-226.0442;0;0;-223.9002;-0.8113342;1.263608;-221.2408;-225.8741;-0.1458289;0.2565468;0;
-198.9556;0;0;-201.249;-3.088671;0.7264744;-193.9696;-199.91;-0.2106497;0.1913217;0;
353.6542;0;0;307.8849;2.60786;7.825691;349.7646;345.017;-0.1454707;-0.003772599;0;
703.2479;0;0;664.0214;1.668211;9.492401;696.926;689.9968;-0.1453245;0.06119855;0;
345.0335;0;0;362.318;5.282881;5.731941;345.0897;337.043;-0.5349826;0.2560391;0;
179.145;0;0;208.3436;6.416648;5.92713;178.0768;174.286;-0.6643797;0.3857165;0;
191.3963;0;0;222.3771;6.47755;3.308841;190.0167;187.2918;-0.07900605;0.2553943;0;
