Fp1;Fp2;O1;O2;POLY3;POLY4;A1;A2;Video;Audio;event;
680.2172;0;0;727.3765;-1.556594;8.738285;768.8734;764.4856;-0.3364009;0.1489052;0;12:34:47 Рука;
318.2778;0;0;416.9888;7.888465;2.567197;413.9663;409.458;-0.1411608;0.4086249;0;
122.0565;0;0;235.036;11.23042;0.4881469;219.0232;218.1425;0.1188504;0.2133123;0;
124.4326;0;0;243.1707;6.597433;6.984879;220.7396;221.9838;0.05376359;0.2130979;0;
-377.8775;0;0;-226.4627;7.527833;7.111826;-274.9207;-275.1145;-0.2061598;0.4727532;0;
-754.121;0;0;-610.1672;8.257203;6.970715;-648.6439;-647.7131;-0.01105062;0.2773761;0;
-455.6379;0;0;-364.4273;9.454354;7.63354;-355.1394;-353.6473;0.1838625;-0.04773929;0;
-266.0876;0;0;-192.5224;1.809044;2.736237;-166.2523;-169.6967;0.05374308;-0.04769132;0;
-243.8938;0;0;-173.151;-0.9384634;1.661761;-144.5336;-150.4733;-0.336115;0.1472586;0;
303.014;0;0;339.203;4.018972;0.1864667;393.6537;391.2182;-0.5306793;0.08214334;0;
691.2642;0;0;732.5392;1.737759;-1.622138;778.3771;776.1314;-0.2053093;-0.0478739;0;
323.9414;0;0;419.2103;9.170752;1.192653;417.3386;411.7219;0.1197337;0.0821089;0;
111.3476;0;0;219.8891;10.9702;1.057489;204.7134;201.9134;0.3794827;-0.2428103;0;
129.7889;0;0;238.4087;0.8451186;1.59229;221.6865;223.2622;0.4440688;-0.3075337;0;
-366.2173;0;0;-222.1619;-0.4285283;2.863366;-266.3535;-265.9039;0.5085899;0.2125141;0;
-757.6523;0;0;-619.8637;-6.055152;-2.498024;-655.5776;-655.1284;0.4431115;0.01739849;0;
-453.1687;0;0;-365.9931;-9.196899;-3.835173;-357.131;-355.9327;0.05286224;-0.3074557;0;
-260.3726;0;0;-184.2166;-7.044205;2.063057;-164.5563;-166.9199;-0.01215822;0.0826573;0;
-241.1205;0;0;-169.5388;-8.176203;2.931762;-145.9627;-149.8232;0.05282134;0.2125089;0;
304.9099;0;0;338.7512;-7.028911;1.656141;391.4139;389.4939;-0.1421338;-0.1125413;0;
674.9799;0;0;715.3463;-7.42399;1.788442;758.5234;755.0436;-0.0770236;-0.1773956;0;
312.2961;0;0;404.2211;-1.119891;1.183799;401.128;396.6521;-0.2068809;0.2775541;0;
118.5171;0;0;222.656;1.895344;0.3788143;207.0098;206.8488;0.05319635;0.08237316;0;
124.5824;0;0;230.5532;-5.74237;0.5123995;211.7368;213.45;0.1181102;-0.3075137;0;
-375.2916;0;0;-236.194;-6.406186;-0.02397883;-281.3532;-282.2029;-0.3367798;-0.04733532;0;
-752.9744;0;0;-621.3254;-4.457366;-2.502201;-657.2564;-658.1677;0.05336262;-0.04728775;0;
-450.8693;0;0;-371.4514;-4.98875;-2.834602;-361.9316;-362.0299;0.248211;-0.3071096;0;
-261.3863;0;0;-196.9782;-4.314152;-6.180778;-174.0997;-177.1339;-0.07687509;-0.111899;0;
-237.3856;0;0;-177.8523;-3.907676;-7.246294;-151.4361;-155.904;0.05313684;0.2780175;0;
310.3902;0;0;333.507;-6.381996;-6.03332;386.2584;384.1063;-0.3367206;0.2777382;0;
687.0139;0;0;714.7925;-6.710376;-7.634849;758.6204;755.0961;-0.3363823;-0.04737764;0;
322.0067;0;0;401.9187;-4.561155;0.4775137;399.101;393.3314;0.5734985;-0.2422321;0;
120.7216;0;0;212.9221;-4.690294;1.682727;197.0513;194.4734;0.3780202;-0.1770213;0;
141.7147;0;0;232.1359;0.0708169;-1.601006;215.4065;215.5798;-0.2070657;0.01805857;0;
-354.3034;0;0;-227.9287;2.146851;-1.264482;-274.9385;-275.3276;-0.2068576;0.1479751;0;
-749.1238;0;0;-626.4992;-4.084597;-9.50199;-667.9021;-667.0414;0.1181869;-0.1120429;0;
-444.2739;0;0;-376.2451;-5.219569;-11.76974;-370.1928;-368.2711;0.2480029;-0.241865;0;
-249.1754;0;0;-194.0835;-1.865422;-15.24103;-177.6674;-179.0584;0.117819;0.3430841;0;
-232.0585;0;0;-179.7081;-1.527779;-17.56999;-161.3096;-164.8231;-0.01223407;0.4077067;0;
317.0863;0;0;329.4666;-2.86639;-16.41363;377.5817;375.5085;-0.07718912;0.08246031;0;
690.2675;0;0;709.9442;-1.658061;-18.13869;746.2668;743.3211;-0.1420789;-0.04755725;0;
326.0691;0;0;400.2611;-7.01503;-7.202493;388.2591;384.9415;-0.1419361;-0.1774441;0;
135.3372;0;0;219.9494;-9.151435;-3.444334;196.2153;197.7111;-0.01185884;-0.1122985;0;
139.7614;0;0;225.8503;0.5033028;-7.928607;199.1415;202.9472;0.3129898;0.01774901;0;
-365.75;0;0;-243.266;0.3690752;-6.045118;-297.8713;-296.8181;0.1177733;0.08269854;0;
-740.0692;0;0;-628.078;7.334929;-6.373959;-672.5085;-671.0815;-0.2721491;-0.04731926;0;
-434.6662;0;0;-383.2571;11.4134;-5.095001;-378.043;-376.2426;-0.0120063;-0.3721084;0;
-244.8246;0;0;-209.2093;-5.41091;-7.16623;-190.5072;-192.5817;-0.07696158;-0.3067672;0;
-217.03;0;0;-184.9487;-7.816371;-7.226012;-162.5797;-166.8385;-0.4666883;0.2132798;0;
330.7878;0;0;321.0454;-11.22477;-4.070676;373.7516;370.3717;-0.20635;0.08313082;0;
703.7053;0;0;695.4095;-16.6385;-4.267534;739.1297;735.6907;0.3135961;-0.1768221;0;
340.6804;0;0;386.8654;0.6585976;2.970788;381.0042;378.5056;0.4432157;-0.04670973;0;
139.3766;0;0;202.6316;6.351363;4.843204;180.0347;182.0988;0.3128356;-0.1116301;0;
150.4184;0;0;213.9847;-5.845181;3.431818;188.8492;193.66;-0.07728276;0.01841671;0;
-344.2967;0;0;-251.2465;-1.284956;4.433113;-301.2817;-298.7247;-0.1421724;-0.1765038;0;
-724.6343;0;0;-641.048;-7.177186;-2.738393;-682.0999;-680.2327;-0.2069969;-0.4361959;0;
-417.0605;0;0;-388.7804;-10.51985;-4.946078;-383.3144;-381.7613;-0.3367236;0.01901384;0;
-224.1132;0;0;-211.5411;28.40768;-5.811765;-192.5249;-195.4087;-0.2714179;0.4087988;0;
-208.7081;0;0;-198.3351;38.1584;-7.949378;-177.0892;-182.0315;-0.01127585;0.01858398;0;
335.4781;0;0;311.2332;30.61797;-6.668715;358.5696;356.6307;-0.01126452;-0.2413041;0;
712.5139;0;0;693.6031;36.07956;-6.79598;731.959;730.2719;-0.4660246;0.08377513;0;
346.4191;0;0;378.4392;21.37392;-8.530708;370.4673;367.6575;-0.5305237;-0.3061131;0;
151.3564;0;0;195.3383;17.20024;-9.191966;174.9432;176.0717;0.1196828;-0.4357402;0;
163.4482;0;0;206.9486;17.85254;-4.025166;186.9488;190.6374;0.3144646;-0.2404004;0;
-342.0871;0;0;-263.9603;13.81611;-3.284309;-310.864;-308.7407;0.2491813;-0.3700935;0;
-719.0536;0;0;-646.3152;10.38598;-3.08006;-687.1748;-683.8668;0.4438329;-0.2397869;0;
-409.7363;0;0;-391.3561;7.226735;-2.474119;-386.4476;-382.1435;0.1835176;-0.3045133;0;
-222.0437;0;0;-219.9239;9.095483;-5.217933;-200.59;-200.3507;-0.07653619;-0.3042074;0;
-198.4573;0;0;-199.8379;8.282061;-4.609844;-177.2751;-179.4722;0.1184427;-0.173967;0;
351.1534;0;0;314.3546;12.56065;-12.91085;363.3189;362.6857;0.05335639;-0.3037269;0;
714.1804;0;0;683.603;14.35669;-15.1753;724.2722;722.3278;0.1832375;-0.04355234;0;
346.3973;0;0;366.7625;8.849905;-11.14107;362.6009;359.3466;0.1830533;0.02145877;0;
157.0193;0;0;187.9212;5.759553;-12.06764;171.6448;172.5167;-0.3368693;-0.1084975;0;
157.6111;0;0;188.4195;12.71999;-2.879097;171.2225;174.7796;-0.4014982;0.02154622;0;
-344.42;0;0;-279.972;10.9659;0.3388545;-322.9513;-321.4591;0.3785133;0.08649193;0;
-714.1379;0;0;-653.4403;8.543982;-2.139732;-690.2545;-688.389;0.7029697;0.02143767;0;
-414.758;0;0;-402.7844;11.08002;-0.7979238;-396.1459;-393.2203;0.05258996;0.02141613;0;
-230.1213;0;0;-231.4031;-22.48847;-1.533934;-213.5894;-213.6653;-0.4022343;0.08636197;0;
-203.7157;0;0;-210.1812;-32.57993;-1.934291;-189.1994;-192.3987;-0.3368628;0.4111119;0;
352.2721;0;0;307.2701;-13.32346;-3.13804;357.5285;355.0196;-0.466459;0.2807641;0;
725.6678;0;0;688.0198;-15.11873;-4.072648;727.608;725.2891;-0.07618622;-0.1742894;0;
354.3124;0;0;372.1743;-1.640579;-6.211887;362.3726;360.1185;0.4436291;-0.1091469;0;
161.3657;0;0;193.0777;5.193572;-6.54056;169.2304;171.3513;0.378216;-0.04406991;0;
175.0091;0;0;208.4384;-0.03655912;-11.15569;182.6161;186.4215;0.05299922;-0.1739603;0;
-329.5382;0;0;-260.9727;4.7189;-13.22095;-312.6311;-311.4532;0.44275;-0.04385084;0;
-710.5779;0;0;-647.8909;2.169539;-7.179324;-691.5013;-689.1377;0.6372072;0.08612792;0;
-406.5789;0;0;-396.8657;3.104388;-8.109871;-394.7054;-391.0947;0.1168282;0.2809434;0;
-223.0124;0;0;-228.5513;8.459903;3.084183;-212.0879;-212.3539;0.05174344;0.3456285;0;
-200.1122;0;0;-211.3927;9.523129;8.640546;-190.2606;-192.6503;0.1166588;0.02044444;0;
360.0574;0;0;310.495;9.781981;-6.907811;359.4044;358.5163;-0.01339312;0.0204239;0;
733.0704;0;0;688.6178;8.901495;-6.699921;728.3576;726.346;0.116555;0.2153054;0;
358.7092;0;0;368.399;11.57187;-9.171557;359.998;357.7386;0.4412746;0.2150891;0;
161.5102;0;0;186.9323;10.22009;-11.77455;162.5479;164.4136;0.1159945;0.08493827;0;
166.7827;0;0;193.8035;9.138098;0.2938391;168.444;171.6197;-0.2089587;-0.04508177;0;
-333.2587;0;0;-273.7813;8.593053;1.365271;-322.8534;-322.2421;0.1810553;-0.04503647;0;
-701.3011;0;0;-648.4428;-5.213334;6.588446;-688.8448;-689.1712;0.115906;-0.1749259;0;
-397.8736;0;0;-395.1682;-9.897144;8.859245;-391.7392;-391.6904;-0.1440798;-0.3046848;0;
-215.8152;0;0;-228.6671;-11.89693;5.769128;-210.6864;-213.3862;0.1809016;0.02045804;0;
-191.8602;0;0;-213.7572;-15.97081;6.433161;-187.1739;-191.9325;0.3106546;0.08540484;0;
362.7414;0;0;305.0094;-10.19399;-4.022397;358.5525;356.2349;0.3103424;-0.04461567;0;
732.8781;0;0;684.9493;-9.781607;-7.032465;725.6949;724.0669;0.2450632;-0.04457084;0;
352.7075;0;0;360.4863;-8.365258;-11.84805;352.4655;350.1519;0.3097844;-0.1094934;0;
152.8284;0;0;177.0911;-5.811257;-16.12293;153.3987;155.1479;0.1795384;-0.2393181;0;
172.4773;0;0;197.9026;-8.418363;-11.88692;172.7973;177.1059;-0.1454787;-0.3040449;0;
-325.3208;0;0;-267.375;-8.075111;-14.35335;-316.8178;-314.8873;-0.01539786;-0.1088374;0;
-703.5536;0;0;-654.2242;-3.377948;-5.095527;-693.2476;-691.8188;-0.08034973;0.08617399;0;
-392.8775;0;0;-397.3207;-2.436549;-2.344106;-390.0156;-388.3383;0.04966569;0.1510547;0;
-208.013;0;0;-221.7595;-1.296001;-11.04929;-205.7786;-207.5388;0.6343219;0.08593562;0;
-191.6871;0;0;-205.9195;1.183548;-11.44008;-189.455;-192.9625;0.1139458;0.02088192;0;
365.3506;0;0;311.215;-11.67739;-14.71075;359.3971;357.3923;-0.4059075;-0.04410641;0;
734.7976;0;0;684.7769;-16.08628;-16.10249;726.2264;723.4116;-0.01569556;-0.1739968;0;
360.5595;0;0;364.1871;-4.415823;-19.30149;356.7446;353.7451;0.1142549;0.2159821;0;
171.7919;0;0;185.5983;-5.349391;-21.09051;167.7309;168.3577;0.04917274;0.2807325;0;
176.0546;0;0;187.7856;-0.3875223;-17.78728;171.248;174.0606;-0.08081134;-0.04438636;0;
-329.8681;0;0;-281.5423;3.698704;-17.16656;-326.2366;-324.4888;-0.2106648;-0.04434176;0;
-692.9789;0;0;-649.2619;-14.05488;-13.19744;-685.478;-683.2323;0.1143836;-0.4341013;0;
-393.9951;0;0;-400.6092;-16.72007;-10.10309;-392.8735;-390.5675;0.5040727;-0.3037304;0;
-224.4967;0;0;-242.6608;-12.34902;-9.021209;-224.4382;-226.2575;0.6335009;0.3462482;0;
-188.7889;0;0;-214.681;-14.68113;-6.131878;-190.7295;-194.6084;0.1780929;-0.1738384;0;
377.5537;0;0;311.208;-3.078457;-3.64747;363.3712;361.4952;-0.2118901;-0.5634678;0;
737.4307;0;0;679.0853;-0.2623243;-1.366386;720.0766;718.0775;-0.1467098;0.2167065;0;
358.255;0;0;358.0015;-2.807656;0.9122847;350.601;347.7293;-0.2115297;0.4763581;0;
163.4302;0;0;180.5433;-0.3929614;1.983095;158.4076;159.9116;-0.1463499;0.6058142;0;
176.0096;0;0;193.4178;-8.163074;3.99059;170.5547;174.6809;0.04869921;0.150434;0;
-326.2898;0;0;-275.8533;-10.69949;4.254512;-324.243;-322.4948;0.2435523;-0.6293252;0;
-706.3958;0;0;-662.2567;-4.393077;2.173766;-703.289;-700.668;0.1783402;-0.1739215;0;
-392.5309;0;0;-403.6584;-4.187593;0.7649407;-397.6107;-394.3676;-0.406545;0.2160573;0;
-203.8561;0;0;-228.0284;-7.532287;-0.3744158;-210.6174;-211.9378;-0.7959406;-0.1089965;0;
-189.7208;0;0;-216.9298;-7.189926;-1.445766;-197.4748;-200.6054;-0.4053368;0.2159497;0;
369.3764;0;0;302.0275;-9.728297;-8.678349;352.5098;352.3183;-0.2100275;0.3456675;0;
741.5056;0;0;683.3447;-10.11969;-11.68374;722.4694;722.5905;-0.2747838;0.08545075;0;
366.1988;0;0;364.3181;-5.354097;-11.13614;353.0538;352.9249;0.2452311;-0.04456981;0;
175.5514;0;0;183.3553;-4.344339;-13.2684;160.9205;164.6023;0.7647234;-0.04452503;0;
177.2491;0;0;184.8577;2.024014;-7.896554;161.6958;167.1855;0.4391183;0.08545441;0;
-330.4239;0;0;-285.9041;5.839398;-6.481978;-335.5918;-331.6693;0.243775;0.08536854;0;
-691.8475;0;0;-651.058;-1.400138;-9.288749;-691.1382;-686.6575;0.04862807;0.2801848;0;
-384.0568;0;0;-394.0327;-3.073671;-8.207688;-388.4705;-384.1192;-0.2762575;0.3448706;0;
-211.4449;0;0;-236.6532;5.905375;-10.27579;-217.2286;-217.6293;-0.2110126;-0.1102473;0;
-182.8092;0;0;-215.8008;6.435304;-10.80133;-190.6485;-193.4851;-0.2757679;-0.1751039;0;
376.0311;0;0;306.0288;0.4006183;-7.441451;357.9549;357.1201;-0.08058877;-0.04499327;0;
733.0986;0;0;672.2246;-1.073653;-7.099059;713.2289;711.8953;-0.0805078;0.08498664;0;
357.9877;0;0;352.2097;-7.837728;-5.283386;345.3218;343.7397;-0.2753289;0.1498686;0;
165.537;0;0;170.6968;-11.44718;-3.603626;151.697;154.1144;-0.2100849;-0.1751187;0;
181.8624;0;0;183.6437;-12.44005;-8.623603;166.2872;169.8891;-0.01497182;-0.3048775;0;
-317.382;0;0;-280.4326;-15.17422;-9.150802;-325.3829;-323.4088;0.1149779;-0.1096691;0;
-702.4319;0;0;-668.0184;-11.27323;-6.864187;-706.864;-703.2677;-0.145007;-0.1745262;0;
-386.0097;0;0;-401.9181;-9.185796;-7.259188;-395.2475;-390.7803;-0.2098286;-0.3042856;0;
-194.343;0;0;-220.3553;-15.53958;-3.099074;-203.3216;-203.3566;0.3101209;-0.2390124;0;
-189.7749;0;0;-217.2603;-15.18917;-1.823284;-198.0574;-200.4661;0.1798747;-0.368707;0;
366.2614;0;0;299.5733;-6.33265;-4.701718;349.0542;349.3965;-0.4050122;-0.04349979;0;
743.9533;0;0;682.4547;-3.178456;-5.500667;723.2028;723.5447;-0.07976849;0.4113153;0;
364.0214;0;0;355.2456;1.581136;-5.093242;347.9143;348.131;0.180181;0.2809674;0;
173.1888;0;0;176.7907;4.994823;-6.695715;155.7237;160.1255;-0.3397388;0.2157177;0;
184.4465;0;0;193.4795;5.593017;-7.425799;168.0609;173.8951;-0.1444954;0.3454356;0;
-328.0438;0;0;-282.1009;6.12326;-8.423081;-335.0426;-330.4637;0.3104212;0.08521916;0;
-693.4678;0;0;-657.8784;9.399637;-15.51456;-696.7115;-691.8248;0.1152073;0.02016617;0;
-378.8038;0;0;-397.2856;10.46192;-17.64243;-387.1667;-382.7222;-0.0798105;0.2150479;0;
-206.5096;0;0;-237.3416;2.479828;-20.7058;-216.8006;-216.2336;-0.1446977;0.1498645;0;
-179.0658;0;0;-213.2401;2.209893;-22.69448;-189.5963;-191.1539;-0.01461757;0.0847466;0;
381.7698;0;0;313.5845;-6.834657;-18.11696;363.6912;363.8218;0.1153318;0.01969409;0;
735.6456;0;0;677.4614;-9.909248;-16.89306;714.0869;713.8427;0.1801832;0.08464166;0;
366.9664;0;0;361.5641;-0.5885424;-13.19215;351.3014;350.0579;0.2449695;0.1495239;0;
181.4408;0;0;185.1643;-0.05208755;-10.03069;164.6046;167.1104;0.1147887;0.01943901;0;
176.7607;0;0;179.7309;9.86095;-8.681078;157.6926;162.882;0.04970603;-0.4353519;0;
-329.7249;0;0;-294.7738;12.7978;-6.060021;-339.7784;-336.1559;0.2445581;-0.5648491;0;
-692.2737;0;0;-667.6026;17.1392;-3.374736;-698.8813;-695.0125;-0.01555699;0.02042448;0;
-376.7988;0;0;-401.1279;20.13609;-1.696772;-389.7716;-385.407;-0.145476;0.2802733;0;
-200.2588;0;0;-232.3719;11.34097;0.8501621;-213.2185;-212.6688;0.1795068;0.0850897;0;
-189.5628;0;0;-223.3929;10.12413;2.858796;-201.1352;-203.1473;0.2442938;-0.0449305;0;
369.2843;0;0;299.6938;-1.942487;-3.105436;350.2273;349.1543;-0.1457557;-0.04488535;0;
741.2261;0;0;676.9529;-7.835033;-4.84375;719.4396;716.7435;-0.2755439;-0.2397423;0;
369.3554;0;0;357.4329;-7.693439;0.3856643;352.0261;348.9578;-0.1453324;-0.3694361;0;
176.7684;0;0;177.7264;-11.63782;0.5861035;158.332;159.8271;-0.01525166;0.2156412;0;
178.4648;0;0;177.9227;-6.869731;-1.088937;159.11;162.5401;0.3096004;0.1504572;0;
-328.7097;0;0;-296.5802;-5.724729;-0.9538767;-341.236;-338.9962;0.5691587;-0.1095633;0;
-686.8867;0;0;-661.9109;-6.991774;-2.493526;-697.2765;-693.6022;0.04884802;0.2803508;0;
-377.8515;0;0;-401.3764;-5.778324;-3.294815;-391.7916;-387.1215;-0.0161684;0.2151018;0;
-214.1789;0;0;-244.7392;-0.1464393;-1.081068;-224.7941;-223.8768;0.4386192;0.279853;0;
-181.3551;0;0;-215.5703;2.198232;-1.28093;-190.3979;-192.3551;0.2432765;0.4744738;0;
382.169;0;0;309.2576;3.134029;0.2609641;362.2657;361.4973;0.04813002;0.5389644;0;
737.1064;0;0;669.1408;4.537399;1.667221;710.7888;708.9593;0.113049;0.2135861;0;
373.4232;0;0;356.1879;1.652452;-4.094864;352.5043;349.3023;0.1779027;-0.5012692;0;
185.0175;0;0;179.2313;1.181301;-4.626613;164.3071;165.4186;0.04778931;-0.6307002;0;
176.3358;0;0;173.9913;-3.374237;-2.277561;155.7712;159.0055;-0.1471607;-0.1752951;0;
-335.6466;0;0;-300.6951;-6.317608;-1.806392;-346.3206;-345.4632;0.3727259;0.01978302;0;
-697.065;0;0;-670.4569;-3.699292;0.1379277;-706.2914;-703.6234;0.502286;0.1496978;0;
-377.7122;0;0;-402.7924;-4.767302;0.4725818;-393.9884;-390.0737;0.1119773;0.2145148;0;
-195.5491;0;0;-229.3497;-5.365724;5.897603;-211.1217;-210.8966;-0.2129719;0.08436454;0;
-177.6115;0;0;-211.628;-4.689771;7.164352;-192.3564;-193.0061;-0.4726273;0.1492471;0;
373.0403;0;0;305.075;-10.91435;6.822239;351.1888;353.1635;-0.4071851;0.1490971;0;
738.1068;0;0;679.5176;-13.11419;7.619179;716.1522;717.5002;-0.2118739;-0.2408567;0;
367.1761;0;0;362.9936;-4.795612;1.449215;353.0523;353.2745;-0.1466937;-0.4355167;0;
177.4649;0;0;181.2825;-3.719067;0.1082226;161.3562;164.7017;-0.276481;-0.3051445;0;
183.346;0;0;182.2872;-1.102386;-3.709913;163.5679;168.6591;-0.5360725;-0.3698052;0;
-329.1432;0;0;-296.8427;2.984559;-5.715551;-340.9679;-338.3181;-0.3406318;-0.1745316;0;
-693.754;0;0;-666.7333;-9.3433;-5.240928;-701.8812;-699.2341;-0.2103549;0.08551317;0;
-373.0928;0;0;-394.5749;-11.54471;-6.575321;-385.7095;-381.7532;-0.5999476;0.08542725;0;
-203.8028;0;0;-232.4472;-2.557157;0.799165;-214.0331;-213.0792;-0.274508;0.02037406;0;
-185.1073;0;0;-214.7849;-3.492593;2.874833;-194.7026;-195.0616;0.2455065;-0.1745484;0;
376.4215;0;0;307.9808;5.955388;4.479535;357.7154;359.3558;0.05035781;-0.04443837;0;
730.4901;0;0;668.1151;9.767797;7.824058;708.9293;708.7565;-0.2095622;0.08554098;0;
359.1924;0;0;353.7265;-0.423423;1.251991;344.1499;342.603;-0.4042536;0.1504224;0;
174.2368;0;0;181.9572;0.5813804;0.1121453;160.8961;162.724;-0.2089454;0.08530389;0;
166.3156;0;0;173.2162;-8.595256;4.867699;154.4251;158.0003;0.3110033;-0.3045859;0;
-349.0301;0;0;-306.1545;-13.0746;3.992029;-351.2885;-348.4665;0.05082143;-0.4342145;0;
-708.436;0;0;-670.9758;-0.06701508;5.66247;-707.6937;-704.1874;-0.1441317;-0.6286802;0;
-388.0724;0;0;-401.3118;0.0004012118;5.790746;-393.9524;-389.8874;0.2458172;-0.4981138;0;
-209.522;0;0;-233.2429;3.281955;-0.9131219;-214.7714;-213.5841;0.2455702;-0.04284197;0;
-183.0122;0;0;-210.2699;5.623181;-2.854709;-187.4443;-188.1946;-0.07951324;-0.2377009;0;
374.3916;0;0;312.6786;-2.755213;-5.39707;362.9051;364.0919;-0.209368;-0.2374621;0;
728.5872;0;0;676.0566;-4.158965;-7.870016;715.9877;716.4863;-0.274125;0.08761322;0;
360.04;0;0;356.9749;-6.700381;-6.254518;350.4517;349.7628;-0.1439149;0.2824272;0;
174.3339;0;0;183.4532;-9.640409;-6.516165;163.0061;166.7532;-0.2087376;0.5420128;0;
169.7859;0;0;184.2059;-8.156854;-8.117208;161.2181;166.898;0.1163088;0.08669679;0;
-344.1889;0;0;-296.9874;-8.550799;-8.176035;-343.6277;-340.4523;0.2461267;-0.4980964;0;
-703.3499;0;0;-667.3777;-14.90522;-4.48388;-701.29;-697.493;0.05097732;-0.3026939;0;
-375.8074;0;0;-391.9077;-16.76625;-2.402904;-379.8715;-375.4537;-0.07900859;-0.04252039;0;
-198.7686;0;0;-223.9107;-12.39515;-2.601438;-203.6407;-203.1629;-0.4687333;-0.107445;0;
-179.8908;0;0;-206.4444;-12.3827;-0.5223532;-186.757;-188.2786;-0.5332296;0.2174997;0;
378.5094;0;0;311.9401;-7.280038;-0.05294776;360.843;361.197;-0.2078571;0.08734646;0;
731.5764;0;0;666.9481;-4.459684;0.8177615;709.9922;708.9091;-0.07771356;-0.3025454;0;
361.2771;0;0;350.1243;-9.479045;4.835916;344.5872;342.8179;0.1172665;-0.04237201;0;
179.5053;0;0;182.669;-9.603243;5.165971;162.8321;166.6868;0.1171487;-0.1722641;0;
174.7022;0;0;178.55;-5.239336;9.782481;158.0458;164.6453;-0.01290368;-0.366993;0;
-340.0272;0;0;-301.8256;-3.560109;11.4471;-349.4205;-345.0765;0.2469787;0.02317975;0;
-693.82;0;0;-663.153;-9.919544;4.067722;-701.6422;-696.9902;0.2467305;0.2180585;0;
-372.6589;0;0;-393.0596;-11.71824;2.991908;-386.4077;-381.4482;-0.07835414;0.08790471;0;
-203.4943;0;0;-235.9934;-4.003304;-2.235645;-217.2918;-217.5221;-0.2082101;-0.04211831;0;
-174.9916;0;0;-214.2046;-2.660111;-5.247509;-190.2119;-192.3161;-0.2729682;0.08785871;0;
390.4626;0;0;315.1197;-5.202057;-3.23287;364.4505;366.0966;-0.1427593;0.4775745;0;
742.8304;0;0;676.1839;-4.393523;-5.038039;713.721;714.3035;-0.07764847;0.4770946;0;
370.8332;0;0;357.4768;-5.058694;-1.750935;347.8749;347.5822;-0.01260311;0.3466805;0;
188.6769;0;0;189.3894;-4.718818;-1.883141;164.4924;169.0725;0.1173442;0.2813649;0;
184.6767;0;0;186.0132;-2.369552;-1.412369;159.7669;165.217;-0.07767569;-0.498526;0;
-338.2461;0;0;-303.6152;-0.5585101;-1.276984;-354.073;-350.9396;-0.0126303;-0.6279597;0;
-702.5979;0;0;-675.2482;-1.027439;-4.758691;-716.0351;-711.6555;0.2472517;0.2172467;0;
-375.9308;0;0;-401.9567;0.3137396;-5.557704;-396.4134;-391.1012;0.1170686;0.4768978;0;
-198.2047;0;0;-233.8871;3.662327;-10.10684;-218.2294;-216.171;-0.01298368;0.08661453;0;
-176.1415;0;0;-210.1639;4.797723;-11.50332;-195.0842;-195.4016;0.0519967;0.2164622;0;
386.8151;0;0;317.5322;8.476598;-12.83142;358.2713;358.2041;-0.01302288;0.5410814;0;
740.5609;0;0;679.7184;8.535429;-12.9525;709.4221;708.5429;-0.07797714;0.3456357;0;
366.0047;0;0;355.4481;13.61707;-12.26965;341.7063;340.8904;0.3119053;-0.04451568;0;
187.7888;0;0;182.9274;15.81419;-12.25732;162.3279;166.3229;0.5064939;-0.1094383;0;
184.7891;0;0;180.9945;1.732126;-0.3222899;157.6046;164.4067;-0.01375378;-0.1093283;0;
-335.0729;0;0;-304.6308;-1.552144;4.165769;-353.7968;-349.4378;0.1161947;0.1506509;0;
-695.305;0;0;-672.8895;-4.430973;3.826668;-709.2625;-705.0328;0.31098;0.2154669;0;
-378.1404;0;0;-405.7223;-8.779801;6.702967;-397.5811;-392.1063;-0.2090712;-0.3044884;0;
-204.6599;0;0;-245.2701;-1.939452;5.825454;-225.2055;-221.9227;-0.1438938;-0.1092804;0;
-171.8457;0;0;-215.4135;-0.6647057;6.489429;-190.7465;-188.7787;0.1161202;0.2806335;0;
389.9821;0;0;312.1004;-7.562914;4.808458;363.1044;365.8198;0.2459382;0.4752535;0;
733.4175;0;0;660.8613;-8.961834;4.468711;703.2559;703.1575;0.1807237;0.669678;0;
366.2397;0;0;344.7308;2.232955;0.5792112;341.1684;339.0711;-0.01435991;0.1492664;0;
188.5858;0;0;179.9671;5.445891;-1.49772;160.7286;162.9438;0.1155892;-0.305655;0;
177.4643;0;0;171.7278;0.952441;2.723588;148.3857;152.91;0.1804404;-0.4352826;0;
-335.8935;0;0;-303.7058;1.889489;2.586885;-354.9479;-352.4897;0.3751611;-0.1749758;0;
-692.8139;0;0;-668.9044;1.083307;4.124894;-709.6003;-706.27;0.5047188;0.1500367;0;
-369.0927;0;0;-405.9267;0.2115626;4.656612;-395.9821;-391.4682;-0.08049439;0.4097553;0;
-187.9377;0;0;-239.7271;1.283077;4.250036;-218.4857;-218.1618;0.1144885;0.5392783;0;
-165.2601;0;0;-216.123;0.6122024;3.910851;-194.6531;-197.1405;-0.0155612;0.2138997;0;
394.8745;0;0;311.1417;-1.129725;4.643733;360.6385;360.7148;-0.5352843;0.08375008;0;
744.989;0;0;673.3969;-1.932873;5.308897;711.0998;710.5513;-0.01500771;-0.3061381;0;
363.9316;0;0;349.945;-2.198375;-3.203148;338.0099;335.6504;0.5697134;-0.6956345;0;
186.5299;0;0;181.7402;-1.32551;-5.611193;159.26;161.2756;0.569141;-0.3051316;0;
193.0891;0;0;182.2448;-7.286025;-1.385752;161.1614;165.9236;0.3736671;-0.1099229;0;
-326.6563;0;0;-305.131;-9.287459;-0.5805648;-351.7428;-349.1718;0.1134223;-0.04484514;0;
-688.1462;0;0;-672.2022;1.840307;-2.187572;-709.5219;-706.3912;-0.2764958;-0.1747348;0;
-370.6765;0;0;-402.8493;4.316705;-1.64951;-397.5903;-392.4638;-0.1462832;-0.2395265;0;
-208.5103;0;0;-246.7103;4.714509;5.117301;-234.0853;-230.9005;0.1137331;0.2804529;0;
-177.9411;0;0;-217.2896;7.924953;7.322474;-201.4914;-200.1213;0.1785862;0.3451384;0;
393.8879;0;0;316.8478;3.562733;10.46331;362.4277;364.1712;0.4382761;-0.2399144;0;
740.3802;0;0;669.8519;3.760224;12.39518;705.8282;705.1337;0.2429337;-0.1097387;0;
373.3829;0;0;353.6499;7.574839;11.98083;342.239;341.1078;-0.08214712;-0.2395631;0;
202.7808;0;0;189.0022;8.236813;12.63862;167.2953;170.4132;-0.01709724;-0.3042897;0;
185.0233;0;0;170.5089;7.625324;9.276898;148.1992;152.6258;0.177822;0.2157548;0;
-343.0222;0;0;-318.1044;6.211142;9.602491;-369.4395;-366.0794;0.5674474;0.215538;0;
-693.5012;0;0;-675.2925;11.76461;0.6172521;-716.5812;-711.7876;0.5668772;0.2153214;0;
-370.2166;0;0;-404.7496;11.88651;-2.732393;-398.7705;-393.9818;0.2414709;0.1501377;0;
-199.4302;0;0;-242.6742;7.788727;5.308183;-227.5807;-226.3575;0.6310323;-0.1748499;0;
-173.9925;0;0;-220.6913;7.981972;4.833968;-203.1767;-203.2665;0.5654309;-0.1746742;0;
390.5237;0;0;306.8279;-1.335822;10.79035;353.0605;354.4075;-0.0848107;-0.1095313;0;
743.1413;0;0;670.0869;-2.674627;12.25313;704.9037;705.3124;-0.08472548;-0.239356;0;
363.0853;0;0;345.3889;-7.49471;13.1116;331.6327;331.4787;0.04529434;0.08572126;0;
183.3731;0;0;179.0003;-11.3046;15.37584;153.7012;157.7953;0.2401509;0.3455045;0;
188.1863;0;0;185.8794;4.78169;4.643367;160.0435;166.0075;0.4997789;0.08528797;0;
-328.8055;0;0;-299.501;6.318103;2.830162;-350.8605;-347.4638;0.3693421;-0.1096998;0;
-689.2938;0;0;-671.5754;14.01394;-1.258519;-711.5765;-707.496;0.1091016;-0.1745569;0;
-368.4496;0;0;-402.0982;18.95635;-5.008176;-396.7069;-391.3187;0.0440246;0.1504552;0;
-191.8554;0;0;-236.1523;6.679791;1.025076;-219.5846;-217.5751;-0.02098698;0.5401081;0;
-161.178;0;0;-210.2405;5.936145;0.08640681;-189.1917;-188.9333;-0.1509006;-0.1750754;0;
399.6397;0;0;316.2687;-1.973074;5.109918;363.6581;365.1032;-0.0857816;-0.3698015;0;
737.3806;0;0;665.4003;-6.726513;7.716996;701.8726;701.1922;-0.2156301;-0.04459319;0;
356.3309;0;0;336.5841;-3.169781;0.475207;327.1053;325.7385;-0.02051141;-0.3044178;0;
185.2462;0;0;175.1394;-4.506743;-0.1279948;152.8641;156.4961;0.4342806;0.2156269;0;
180.125;0;0;173.5891;-8.185909;2.283397;147.2132;153.028;0.1090075;0.6052142;0;
-335.1096;0;0;-304.595;-9.852624;2.816967;-358.5555;-354.4332;0.108898;0.2148021;0;
-677.0383;0;0;-652.8638;0.4724038;-2.276445;-695.8381;-691.3451;0.6285273;0.08465157;0;
-357.9556;0;0;-381.7187;4.290322;-4.14968;-379.4225;-374.4344;0.2380917;-0.04536818;0;
-187.6813;0;0;-222.9148;-1.206345;1.346968;-208.3146;-206.205;-0.4118209;0.0846121;0;
-158.3824;0;0;-200.7018;-0.5355476;1.479581;-179.1199;-178.9489;0.04336424;0.01955972;0;
398.4969;0;0;320.4255;3.751898;2.013958;369.7218;370.6422;0.1732554;-0.2403293;0;
737.7383;0;0;671.9266;4.618784;2.547797;706.6807;707.038;-0.1517554;0.08474891;0;
347.5677;0;0;336.1075;3.676138;7.964711E-06;321.6014;322.0833;0.1732337;0.1496311;0;
167.4339;0;0;167.0421;3.606072;-0.9377531;141.6185;145.6606;0.432929;0.01954605;0;
180.2591;0;0;184.3029;3.401377;-1.807589;156.4687;162.1309;0.3675267;0.4093305;0;
-329.9781;0;0;-289.0194;4.402338;-2.676551;-344.999;-340.8417;0.2372227;0.2789845;0;
-687.1544;0;0;-654.9824;-1.361886;-7.898408;-699.2241;-694.5088;0.04208234;-0.3709693;0;
-363.5637;0;0;-384.8347;-1.96373;-10.90458;-380.4315;-375.0337;-0.2178293;-0.1756945;0;
-194.8455;0;0;-225.7778;-0.8900298;-6.874771;-210.0097;-207.9282;-0.2176104;0.2792535;0;
-175.7218;0;0;-206.1232;-3.301009;-7.068812;-187.0601;-187.1046;-0.3473265;-0.2407659;0;
387.9216;0;0;322.6932;13.38142;-9.741026;370.1604;371.3028;-0.4119448;-0.5653607;0;
731.6713;0;0;676.5034;17.58754;-9.128392;711.4292;711.5085;-0.4764982;-0.1100212;0;
351.5019;0;0;349.3628;9.129771;-14.6117;334.7784;334.1704;-0.4760194;-0.174878;0;
178.9852;0;0;186.1561;10.25967;-16.9413;160.4669;163.92;-0.08573709;-0.2396696;0;
172.9958;0;0;183.6577;0.2026568;-6.67613;156.4951;162.4435;0.2391858;0.2153426;0;
-342.1692;0;0;-295.9733;-4.219152;-4.860882;-349.9077;-345.7144;-0.08589127;0.1501589;0;
-682.9664;0;0;-649.1857;-0.06172713;-8.406094;-690.1974;-685.3836;-0.2157397;-0.2397961;0;
-362.8157;0;0;-381.73;-2.004048;-8.196698;-377.1609;-370.7278;0.3042158;-0.1745878;0;
-198.3462;0;0;-224.4878;-4.346559;-9.327172;-211.9273;-209.4361;0.2389428;0.3453264;0;
-170.5357;0;0;-199.5872;-5.681362;-10.25544;-183.7909;-184.738;-0.1511013;0.7347835;0;
391.978;0;0;325.7869;-5.541932;-10.3791;368.8036;368.9194;-0.2159168;0.1493391;0;
733.5997;0;0;677.6575;-6.205948;-9.966774;707.0129;705.4419;-0.2806672;-0.04571301;0;
344.1829;0;0;343.0819;-4.25733;-16.18605;322.8702;320.6136;-0.2154178;0.539039;0;
164.1149;0;0;172.5103;-3.784537;-17.17453;141.6367;144.3174;-0.2152014;0.3435954;0;
177.1934;0;0;181.145;-4.383947;-13.40635;153.6758;158.7901;-0.08505047;0.08338074;0;
-333.728;0;0;-299.1082;-3.240466;-12.924;-348.3514;-345.6785;0.3698064;0.01832961;0;
-693.774;0;0;-665.6857;-7.189325;-6.480773;-704.3847;-700.9648;0.3044674;-0.3065255;0;
-368.6774;0;0;-388.9056;-6.98103;-4.263947;-384.8997;-379.8591;0.04429216;0.01861919;0;
-193.2075;0;0;-222.8481;-5.366426;2.304543;-210.1631;-208.3134;-0.08568703;0.08356784;0;
-173.0859;0;0;-209.5058;-4.423028;7.057893;-191.0239;-191.0502;-0.02063359;0.01851651;0;
394.1155;0;0;313.5044;-0.3327472;-1.120872;367.0126;367.9859;-0.02061286;0.2783673;0;
742.2318;0;0;667.6362;1.275178;-0.7848313;712.4076;712.1929;-0.08555949;0.0182182;0;
352.3067;0;0;334.1952;8.240121;-1.319906;327.4474;327.7327;0.1743958;-0.1117348;0;
176.4159;0;0;171.6284;11.1786;-3.529017;150.5821;156.2394;-0.1506161;-0.1116225;0;
175.6764;0;0;173.7673;10.49778;4.780291;150.3058;158.2064;-0.4103341;-0.3064124;0;
-338.7416;0;0;-306.9782;11.62534;6.24899;-355.4036;-349.6974;0.2397516;0.01873221;0;
-680.9166;0;0;-657.6184;8.39945;1.687994;-695.5628;-689.1127;0.2395107;0.1486481;0;
-363.3917;0;0;-388.4051;7.184586;2.155178;-383.6453;-376.6395;-0.150534;-0.2413053;0;
-197.4223;0;0;-231.4685;4.49805;-0.6601485;-216.5311;-214.4049;-0.02044807;-0.1760955;0;
-160.9921;0;0;-200.0641;2.685845;-1.597246;-180.7065;-180.6439;-0.2153296;-0.04598391;0;
405.2601;0;0;331.4323;-0.5993837;1.820366;377.0698;378.8815;-0.6698846;-0.3707744;0;
734.6246;0;0;672.99;-3.077028;2.287418;705.963;707.2106;-0.1494727;-0.1754998;0;
344.2074;0;0;335.4206;3.088006;2.017188;323.1332;324.3795;0.5653182;0.2144806;0;
176.3207;0;0;177.975;5.363055;1.412314;156.2047;160.8856;0.04501144;-0.1105717;0;
179.9541;0;0;183.8557;-2.010701;6.702425;161.6699;168.0952;-0.3448378;0.2143762;0;
-337.5916;0;0;-299.2114;-3.4152;8.236298;-347.7365;-342.567;-0.2145567;0.4740301;0;
-688.7007;0;0;-657.6054;7.037081;3.271407;-697.7735;-691.7347;-0.3442757;0.2786518;0;
-364.8587;0;0;-384.8314;8.302808;3.670017;-380.1692;-374.2613;-0.4088972;0.2783718;0;
-192.4535;0;0;-222.9634;11.04016;-1.893132;-208.3109;-207.7188;-0.343519;0.1481574;0;
-168.9594;0;0;-203.7489;14.24424;-3.900717;-184.1136;-186.708;-0.4731085;-0.3067629;0;
396.0515;0;0;322.6288;1.838698;0.1221779;373.8535;373.4481;-0.2127637;-0.6962587;0;
740.1678;0;0;677.3762;-0.3066037;-0.4807913;716.5554;716.5877;-0.08261526;-0.305755;0;
347.4961;0;0;339.4276;-3.387754;4.744238;330.5291;330.9986;-0.407369;0.2142909;0;
174.4213;0;0;174.5442;-9.680014;6.614872;157.2839;161.8759;-0.01715558;0.279043;0;
180.243;0;0;183.6142;9.151306;6.94314;163.81;169.3344;0.3076984;0.1488279;0;
-342.1131;0;0;-301.5141;13.89753;9.749446;-351.4707;-347.4511;-0.01744752;0.01874366;0;
-685.1592;0;0;-655.2831;-8.019484;2.974496;-694.6323;-690.3669;-0.08239733;0.08369219;0;
-359.1968;0;0;-381.4495;-10.1539;1.89978;-374.1576;-370.7086;-0.1472819;0.01864073;0;
-200.4155;0;0;-231.3914;-7.398011;8.99794;-213.2374;-213.4149;0.04776813;0.213524;0;
-166.4811;0;0;-201.7362;-9.065516;10.26157;-178.1656;-180.4045;0.04772014;0.4731789;0;
407.5852;0;0;332.1982;-1.75539;10.65304;385.1053;384.7428;0.1126395;0.08289935;0;
739.4462;0;0;673.5052;-0.6145501;11.78104;713.1158;711.9415;0.04755901;0.0178487;0;
350.5857;0;0;338.6214;4.075117;14.78344;331.6532;329.4181;-0.4072602;0.1477655;0;
185.6287;0;0;181.2351;6.615641;17.04588;167.5897;169.3549;-0.08201425;0.01768229;0;
182.0689;0;0;182.0525;1.987294;13.34482;165.8596;168.2477;0.04800284;0.1475992;0;
-344.412;0;0;-306.1351;0.9135698;13.13046;-353.1712;-352.5971;-0.1469474;0.01751622;0;
-688.3929;0;0;-661.3988;1.04735;15.99741;-697.9554;-695.6953;-0.08183242;-0.5672075;0;
-363.739;0;0;-390.3701;0.04094338;15.64642;-379.976;-377.0935;-0.2116849;-0.6316049;0;
-197.0196;0;0;-234.3061;-6.589554;16.03259;-214.6147;-215.9204;-0.2114722;-0.1112315;0;
-163.3385;0;0;-202.7115;-7.990428;14.60997;-181.4781;-186.0933;-0.081325;0.408619;0;
405.6647;0;0;335.097;-16.01937;17.40845;382.1711;378.9348;-0.08124328;0.3432411;0;
742.2127;0;0;684.4595;-20.55861;18.06078;719.4298;715.5721;-0.2110963;0.2129615;0;
350.351;0;0;343.8177;-6.873919;6.789748;333.2132;329.1719;-0.08094954;-0.1770565;0;
179.897;0;0;179.1798;-4.991002;3.567867;159.2157;160.3634;0.04906648;-0.3717806;0;
190.0235;0;0;191.0562;-5.119709;2.492555;167.6139;170.9468;0.04901718;0.1483317;0;
-332.155;0;0;-293.205;-2.837389;-1.193889;-343.2353;-341.7173;0.5037393;0.01824793;0;
-686.393;0;0;-655.2283;-0.6910839;3.62996;-690.8405;-688.9493;0.3083311;-0.2416398;0;
-362.0535;0;0;-381.4572;3.797589;3.224415;-372.2437;-370.7291;-0.5365541;0.1484071;0;
-196.6477;0;0;-229.5875;-8.799506;1.077721;-210.3883;-212.8108;-0.4710476;0.4081273;0;
-156.845;0;0;-198.3099;-10.79942;1.612502;-172.8207;-177.6145;-0.210705;0.3427499;0;
417.8988;0;0;339.3067;-2.21573;-2.207024;392.8812;389.404;-0.4053953;0.01756879;0;
741.6909;0;0;674.0473;-4.088537;-2.07084;714.8244;710.4137;-0.3400206;-0.5021876;0;
352.0161;0;0;341.9117;11.58933;-2.068759;333.2351;328.2041;-0.2747116;-0.501683;0;
187.37;0;0;190.8314;16.60153;-1.262885;169.7323;169.454;-0.4043702;-0.3712442;0;
178.3112;0;0;186.4542;3.724126;-0.3238554;162.5652;164.7859;-0.07912723;-0.2409365;0;
-342.981;0;0;-297.3026;4.389969;-0.5914617;-349.8406;-348.8715;0.440691;0.1491096;0;
-682.5905;0;0;-649.0768;-5.192636;11.26475;-690.1929;-688.1003;0.5052155;0.01902512;0;
-363.877;0;0;-383.2455;-9.608047;14.80352;-378.4682;-376.5027;0.2448385;-0.04596133;0;
-197.4698;0;0;-223.5654;-3.436451;11.90838;-210.0474;-212.3941;0.2445925;0.01905219;0;
-159.4155;0;0;-189.9201;-5.441754;13.70496;-171.668;-175.5117;0.3093141;-0.4357384;0;
414.3314;0;0;343.8775;-1.886313;6.92603;393.533;390.8176;0.1141013;0.08443823;0;
749.434;0;0;688.3586;-1.818045;4.440824;726.8448;722.9453;0.178954;0.2142881;0;
351.8804;0;0;345.2766;-2.017289;5.307018;335.1235;331.2904;0.2437415;-0.3706333;0;
182.6742;0;0;186.3844;-2.015262;2.957405;165.3719;165.6031;-0.08134013;-0.04542421;0;
187.3007;0;0;193.4434;-5.830654;3.959177;169.8285;172.3082;-0.0812584;0.08455613;0;
-337.0615;0;0;-298.6287;-6.629079;3.821233;-347.1449;-346.7915;0.3735946;-0.4352676;0;
-681.8619;0;0;-655.4616;-14.86046;1.205059;-690.3734;-690.3327;0.3082519;-0.5647649;0;
-355.7778;0;0;-380.0036;-18.26178;2.476524;-370.715;-369.9872;-0.2117966;-0.4992301;0;
-192.6271;0;0;-226.8861;-14.69346;-0.67404;-208.299;-212.1322;-0.08164906;-0.3038264;0;
-155.8895;0;0;-192.1754;-14.27656;-0.9412944;-169.734;-176.9366;-0.01659968;-0.1735865;0;
417.5415;0;0;348.8708;-17.47739;9.039865;397.9013;392.7674;-0.4063871;-0.6281834;0;
741.2091;0;0;683.7267;-17.39346;11.57601;718.4027;713.2115;-0.276044;-0.7574869;0;
350.0356;0;0;345.3345;-10.47613;16.1191;332.437;328.1256;0.1140374;-0.1070524;0;
192.263;0;0;195.1878;-9.394851;18.78222;173.8075;174.6229;-0.1459466;0.2828593;0;
183.0118;0;0;185.6839;2.470935;19.76809;162.6384;164.5149;-0.08083257;-0.04226168;0;
-344.4695;0;0;-307.0676;8.429323;22.09251;-356.3892;-356.8884;0.4389874;-0.3670559;0;
-675.2694;0;0;-647.7752;-2.697582;14.23355;-684.7408;-683.7404;0.3735789;-0.2367524;0;
-359.062;0;0;-380.9456;-1.489422;14.08528;-375.0207;-372.8967;0.1783015;-0.1065798;0;
-201.8426;0;0;-230.5757;-7.181353;6.167264;-217.4728;-219.5989;0.3080571;-0.1064728;0;
-150.0407;0;0;-184.4921;-10.85783;1.4054;-166.4673;-171.9021;0.04787817;-0.04139843;0;
420.5109;0;0;346.9887;0.3388612;18.88617;395.0428;390.488;-0.147072;0.02361051;0;
737.3039;0;0;675.0375;0.4722425;22.2832;711.1118;705.687;-0.0169895;0.2184888;0;
349.5076;0;0;340.652;1.677217;17.03626;331.3377;325.6061;-0.2768418;0.1533019;0;
189.5491;0;0;188.6359;2.948329;17.9569;172.4595;171.1065;-0.6014003;0.4130173;0;
186.8599;0;0;188.8212;0.3333984;21.42185;170.2872;170.1225;-0.3409267;0.2177002;0;
-343.6862;0;0;-303.4337;2.141725;21.73524;-351.934;-354.4724;-0.0157474;-0.4321919;0;
-692.5404;0;0;-662.0734;-9.314631;19.4361;-698.8433;-699.63;-0.1456663;-0.04195361;0;
-366.1332;0;0;-388.2954;-12.92259;18.21088;-378.989;-379.0253;-0.2754546;0.3478926;0;
-196.9127;0;0;-228.298;-2.527133;13.83881;-209.818;-213.6025;0.2445609;0.152641;0;
-157.9219;0;0;-193.461;-2.658315;11.94939;-170.9391;-176.4689;0.1793479;0.0875203;0;
408.1399;0;0;338.1538;2.769363;5.239209;386.7024;383.2397;-0.4055384;-0.2374044;0;
732.629;0;0;673.8951;5.580596;2.085869;709.7137;705.6923;-0.2751963;-0.2371658;0;
350.7719;0;0;343.821;1.019661;3.892312;335.6258;330.1716;-0.1449851;-0.2369275;0;
185.5023;0;0;187.2416;1.755571;2.548743;171.8083;169.6704;-0.1448394;-0.3016568;0;
168.1995;0;0;171.6862;-0.3222981;8.373575;154.7066;154.6949;0.05020818;0.1534177;0;
-350.7712;0;0;-312.5555;-0.656767;10.37453;-356.6294;-357.828;-0.07977695;0.2182309;0;
-674.4434;0;0;-645.8862;-1.727834;9.627413;-679.1088;-678.6196;-0.01472945;-0.2367598;0;
-357.6121;0;0;-375.5603;-1.994518;10.95728;-366.8955;-366.2818;-0.1446493;-0.1715545;0;
-205.8289;0;0;-230.1309;-1.322928;11.14721;-212.979;-217.301;0.1803327;0.02351987;0;
-156.4593;0;0;-187.6709;-1.923835;11.80584;-163.1649;-170.3561;0.4400209;-0.1714058;0;
415.4106;0;0;346.9366;7.45522;9.985441;401.153;394.8435;-0.1451273;0.02366846;0;
728.2732;0;0;670.3627;11.39984;9.774581;711.1564;703.1041;-0.08001415;0.3484814;0;
343.6094;0;0;338.4182;4.890679;6.683545;331.5697;323.2757;0.05000093;0.2181966;0;
182.0327;0;0;185.4673;5.020463;4.60048;170.7547;168.0912;-0.4048207;0.08804264;0;
170.5429;0;0;176.0981;9.368699;8.480745;160.5257;159.8639;-0.2095119;-0.1719152;0;
-348.805;0;0;-306.3989;9.560356;7.93636;-349.3794;-352.102;-0.01439937;-0.04180779;0;
-681.2872;0;0;-647.1071;11.6942;8.196318;-679.6746;-680.9577;-0.2742543;-0.1717005;0;
-354.0168;0;0;-369.0338;13.15632;8.589979;-358.9026;-360.0594;-0.2739787;-0.1065606;0;
-194.9283;0;0;-220.6749;3.765004;3.892665;-200.9961;-207.2118;-0.07880138;0.4132852;0;
-155.1274;0;0;-190.2184;0.01017634;2.950993;-164.4374;-172.2711;-0.01375486;-0.1718361;0;
424.3623;0;0;351.8878;8.249188;0.6036248;404.6293;399.5522;-0.1436757;-0.4965002;0;
742.9006;0;0;684.5544;8.039829;-1.674279;721.7507;716.1789;-0.2084987;-0.1061972;0;
351.6629;0;0;348.0978;5.955646;2.949103;337.843;331.6522;-0.1433219;0.1537789;0;
193.3264;0;0;197.8859;7.557252;2.879157;179.7704;177.0215;-0.01324316;0.478461;0;
178.0148;0;0;184.6311;-5.243716;2.541349;164.3474;163.7877;-0.2081319;0.08817623;0;
-341.653;0;0;-300.6856;-9.726425;3.744488;-346.7484;-348.9942;-0.1429554;-0.3666838;0;
-662.2109;0;0;-633.5909;3.947378;-1.483821;-664.8649;-668.2329;0.376927;0.08845607;0;
-350.5768;0;0;-370.961;5.015139;-1.616295;-358.7879;-361.6527;0.1816462;0.1533345;0;
-202.6112;0;0;-228.4722;4.340514;-1.547688;-210.3768;-215.8624;-0.143373;0.2181478;0;
-154.6192;0;0;-185.6391;6.479607;-2.349929;-163.6888;-171.043;0.05167307;0.477798;0;
415.937;0;0;347.5296;1.248183;4.551553;397.881;391.971;-0.2732156;0.2174485;0;
737.9819;0;0;680.9501;1.581722;5.819533;718.3199;711.2914;-0.5328104;-0.04263936;0;
360.3049;0;0;355.2418;-0.4959726;8.158088;346.2224;338.5137;-0.142471;0.02237082;0;
205.7079;0;0;208.5209;-2.103065;10.02529;190.8899;187.1245;0.2474762;-0.1075863;0;
192.6327;0;0;196.2549;4.664203;8.340766;178.5167;175.6297;0.05232554;-0.1724456;0;
-342.8543;0;0;-304.4407;4.927936;10.07382;-348.273;-353.8432;-0.01269438;0.1525644;0;
-678.7158;0;0;-647.0874;6.061084;4.504358;-682.1925;-685.8831;0.1172531;0.5422152;0;
-351.5105;0;0;-369.5139;6.389786;5.169539;-360.7308;-362.856;-0.2726688;0.2168337;0;
-198.6714;0;0;-226.8392;3.771398;1.614371;-208.3198;-213.8786;-0.2723948;0.08668109;0;
-167.0501;0;0;-198.313;2.896952;-1.200412;-177.7507;-184.3659;0.1176829;0.2165287;0;
416.8868;0;0;348.4241;-3.80474;17.55553;398.076;392.6544;-0.01237001;0.08637642;0;
753.611;0;0;692.6508;-6.8814;21.28881;734.3193;726.4044;-0.01235758;-0.04364507;0;
356.9277;0;0;347.7528;-7.81249;23.94674;344.2772;335.5581;0.05262218;-0.1735359;0;
194.7754;0;0;195.3548;-9.143811;29.48214;181.3255;177.4253;-0.5321368;0.08650786;0;
190.5817;0;0;196.3454;-10.07263;15.65427;177.9574;175.9351;-0.3367001;0.4112576;0;
-340.2805;0;0;-298.853;-8.990781;13.76314;-344.5214;-347.9784;0.183377;0.150975;0;
-668.6484;0;0;-638.4444;-12.12958;15.89264;-671.1983;-672.278;-0.141644;0.02088864;0;
-353.0099;0;0;-368.8131;-13.85968;12.86257;-360.6172;-360.8837;-0.1415016;-0.1740344;0;
-208.3527;0;0;-232.8857;5.981195;17.33738;-215.2652;-220.529;0.05354257;-0.2388268;0;
-151.2344;0;0;-185.9876;11.33382;16.18125;-158.0151;-165.5224;0.1834234;0.4110866;0;
421.1299;0;0;351.4292;6.231241;15.69611;407.0472;401.2966;-0.2715322;0.6705428;0;
726.1157;0;0;669.666;8.703226;15.47939;710.1107;702.4293;-0.5311288;0.08516303;0;
353.7604;0;0;345.968;-0.4815705;9.837387;343.0188;333.8459;-0.07582371;-0.1098246;0;
208.103;0;0;207.6272;-4.098409;9.090813;197.747;191.5193;0.1841218;0.08518781;0;
187.5291;0;0;191.5516;3.140354;2.249541;177.1836;172.0241;0.4438062;0.02013485;0;
-338.3326;0;0;-300.956;5.280653;-0.6998465;-341.0466;-347.5127;0.2484583;0.279984;0;
-660.6429;0;0;-633.9235;-6.51365;4.123506;-660.1058;-665.2537;-0.1415955;0.2147353;0;
-343.1384;0;0;-360.5486;-5.167934;2.91367;-348.3489;-352.5545;-0.2713879;0.08458488;0;
-198.8659;0;0;-219.8194;-8.444295;10.07767;-204.5085;-211.3961;-0.2061478;0.1494672;0;
-160.2479;0;0;-186.6151;-12.18685;12.54591;-165.635;-173.2652;0.313798;0.01938235;0;
416.4358;0;0;354.4255;26.00444;8.17954;402.9332;396.6225;-0.01135397;0.2142649;0;
740.2294;0;0;693.024;35.49013;9.176064;724.4915;717.1876;-0.855918;0.279017;0;
358.3022;0;0;360.2446;30.43063;4.678988;347.6401;339.2191;-0.3353193;-0.1110675;0;
207.6428;0;0;209.6456;36.62934;3.267767;194.3052;189.2035;0.1847564;-0.1759232;0;
203.7485;0;0;202.8758;21.38729;4.804969;187.4258;184.7655;0.05463609;0.2140576;0;
-323.254;0;0;-291.6421;18.75383;3.996468;-331.7516;-336.4707;0.1845159;0.08390786;0;
-658.0732;0;0;-635.8634;13.91222;4.930091;-662.5018;-667.4661;0.05439579;0.08382355;0;
-337.9475;0;0;-358.676;9.67868;4.858154;-346.6196;-350.7043;-0.1405609;0.213674;0;
-194.1176;0;0;-215.9496;6.252704;6.460863;-200.8444;-207.5487;-0.205387;0.01855727;0;
-154.1925;0;0;-181.6248;1.222579;7.32515;-160.6003;-167.9849;-0.1402133;-0.2413307;0;
430.2937;0;0;364.9705;15.95808;4.973386;413.3977;408.5192;0.05482963;-0.4359903;0;
749.0134;0;0;695.6874;18.35295;3.896784;728.0115;722.7631;-0.1401275;-0.1107155;0;
364.0789;0;0;358.2826;16.99533;9.050432;349.22;342.9149;-0.2699214;0.4091345;0;
214.3507;0;0;211.1839;18.78594;10.78277;199.6941;196.0815;0.3150559;0.2138214;0;
199.3927;0;0;198.2905;19.37028;1.997418;185.1256;183.0784;0.444674;-0.04626285;0;
-331.1036;0;0;-295.7855;21.69534;0.3208378;-336.2359;-339.7804;-0.1404788;0.08371834;0;
-651.1724;0;0;-624.0106;10.01827;2.062072;-654.238;-657.0293;-0.01040301;0.01866686;0;
-327.1181;0;0;-345.0235;7.864746;0.1844776;-335.7404;-337.9042;0.05457478;-0.3711559;0;
-191.6074;0;0;-214.5548;9.866575;6.681515;-198.5344;-204.3192;-0.2703167;0.0839884;0;
-149.7483;0;0;-179.6066;8.517491;8.550323;-157.293;-164.8211;-0.2050778;0.6686101;0;
429.736;0;0;362.9887;16.27847;2.647356;412.891;406.7448;-0.1399044;-0.1116699;0;
741.8346;0;0;686.3362;18.47291;3.046593;723.1324;715.6806;0.2500402;-0.5013617;0;
364.3411;0;0;355.5625;21.80325;1.16801;351.5923;343.5232;0.3147563;0.1488155;0;
213.8004;0;0;211.0277;24.39331;0.3630411;200.8146;196.6891;-0.1403313;0.01873127;0;
199.905;0;0;201.9451;25.37318;5.118342;186.37;184.9348;-0.01025564;-0.4360589;0;
-328.5928;0;0;-288.4489;26.41941;6.117943;-333.1188;-336.9887;0.054722;-0.04581673;0;
-662.2822;0;0;-627.3011;25.12104;7.183523;-663.118;-666.6093;0.1196344;-0.0457707;0;
-337.9045;0;0;-349.685;25.2959;8.181049;-343.3621;-345.4756;0.05454681;-0.110692;0;
-195.0741;0;0;-214.339;16.89773;10.31616;-199.5892;-205.4486;-0.335312;0.01935386;0;
-161.0826;0;0;-189.1362;14.00134;12.18132;-168.2793;-175.6945;-0.3999425;-0.240535;0;
426.0967;0;0;352.7816;12.58076;7.346428;406.3511;400.3175;0.05523079;0.08454346;0;
751.4423;0;0;684.5102;8.54865;6.468268;728.5931;719.6921;-0.00979205;0.1494258;0;
366.3804;0;0;353.1761;19.32468;8.002377;352.2373;342.4707;-0.07474955;-0.04562633;0;
212.2771;0;0;208.8936;21.78351;6.587694;200.2721;195.3878;0.05526024;0.2142889;0;
197.9459;0;0;196.065;13.12045;10.59993;185.6406;181.7607;-0.1396973;-0.1757305;0;
-330.3001;0;0;-296.8218;12.97355;11.19212;-335.0968;-340.5969;-0.2694916;-0.3054886;0;
-650.4946;0;0;-626.6702;10.81706;4.884604;-653.9122;-656.9705;0.2505179;0.2145571;0;
-328.8148;0;0;-354.1147;7.658359;2.468433;-339.7877;-342.4057;0.3152335;0.2143415;0;
-193.4273;0;0;-223.5118;18.50166;4.207509;-204.3267;-210.3153;-0.07488728;-0.3056126;0;
-146.8188;0;0;-180.4338;21.16238;2.796639;-157.5198;-164.252;-0.3996488;-0.3702729;0;
431.7255;0;0;365.3483;7.54346;-2.698649;412.9768;407.6256;-0.3342798;0.2797726;0;
740.074;0;0;688.7559;5.459776;-5.576204;721.4066;715.561;-0.1390419;0.4743935;0;
366.2679;0;0;362.9148;5.052148;-5.436635;354.3034;348.4012;-0.07393488;0.2790148;0;
222.2221;0;0;222.1207;2.032962;-6.703726;208.2706;205.3729;-0.008893241;0.08383245;0;
206.1317;0;0;207.7172;7.656997;-8.103631;190.6326;189.237;0.1210504;-0.2410885;0;
-321.4978;0;0;-286.4308;7.38186;-6.75583;-331.5466;-334.9397;0.2508634;0.08399046;0;
-645.2618;0;0;-620.4749;6.302716;-13.98308;-655.4255;-658.3779;0.380546;0.1488734;0;
-322.2755;0;0;-340.9916;6.631176;-15.2417;-337.3015;-339.1265;-0.07460772;-0.3710149;0;
-186.5197;0;0;-208.7778;1.60067;-4.308413;-198.5321;-203.6037;-0.2694348;-0.2407074;0;
-158.3464;0;0;-186.6415;0.3262643;-2.763477;-167.9729;-174.7261;0.05567266;0.01940378;0;
423.0206;0;0;357.1478;-2.419754;6.951581;405.97;401.5349;-0.07431797;0.08435164;0;
745.933;0;0;687.6851;-4.895569;11.76725;725.4013;719.3465;-0.204178;0.01929953;0;
360.5643;0;0;346.915;-1.742818;5.928029;342.552;334.5043;0.1208639;-0.3055566;0;
218.086;0;0;206.8867;-2.344279;7.596645;196.9058;192.0521;-0.009192235;-0.1103475;0;
208.6215;0;0;202.6183;-3.413651;0.8238581;187.5876;184.0506;-0.07415034;0.0846654;0;
-328.8181;0;0;-294.8353;-3.745013;-1.454267;-339.6485;-345.3059;0.2507609;0.1495477;0;
-648.0146;0;0;-624.2484;-3.606552;0.3556111;-654.3989;-659.4883;-0.009360458;0.08443006;0;
-325.088;0;0;-346.198;-2.464828;-1.252215;-335.7761;-339.7361;-0.3341877;-0.3704262;0;
-197.6377;0;0;-219.7885;-10.36561;2.299017;-207.3156;-214.0827;-0.2688846;-0.2401193;0;
-151.5872;0;0;-181.7742;-13.504;3.5024;-161.5677;-169.8897;-0.3335818;0.01999135;0;
429.8979;0;0;359.7614;-0.8307772;2.762068;409.3702;403.1181;-0.4631813;-0.1099634;0;
733.2507;0;0;674.3041;2.184168;3.630071;708.9955;701.063;-0.3327812;0.1500164;0;
367.8223;0;0;353.8498;-6.324493;7.24338;348.4016;338.4156;-0.2025121;0.7995391;0;
230.6465;0;0;219.5615;-6.25079;8.57576;209.6835;203.2683;-0.1373413;0.7337684;0;
198.6807;0;0;193.1041;-5.373853;9.303956;178.6134;173.7663;-0.2021707;-0.241479;0;
-332.3147;0;0;-298.5929;-6.573902;9.964314;-340.9301;-347.8962;0.1878365;-0.3062037;0;
-649.1963;0;0;-621.6303;0.0631599;9.016663;-652.9305;-658.3279;0.1226805;0.2138427;0;
-327.143;0;0;-345.769;1.202172;9.208551;-336.683;-340.201;-0.2672469;0.1486605;0;
-189.196;0;0;-215.237;-2.014216;5.180323;-199.7884;-205.864;-0.1370436;0.08354376;0;
-158.0839;0;0;-192.5946;-1.811122;4.03653;-170.04;-177.5463;-0.1369059;0.08345982;0;
421.9709;0;0;347.8899;-7.235285;4.43425;401.2813;395.7191;-0.2017357;0.4082127;0;
744.0098;0;0;681.1227;-9.505191;3.559138;722.4664;716.2226;-0.07159833;0.5377372;0;
356.769;0;0;343.6076;-6.079389;6.100791;341.1818;333.445;0.188343;0.2123601;0;
208.2975;0;0;199.7719;-5.671138;5.893713;191.7264;185.8715;-0.006748295;0.1471794;0;
204.465;0;0;197.7596;-7.742521;11.58122;187.4108;182.5613;-0.4615129;0.2119989;0;
-327.3482;0;0;-297.1279;-5.992453;14.65067;-335.952;-343.6703;-0.2011798;0.01688382;0;
-651.856;0;0;-631.0364;-9.001517;7.40204;-657.9525;-666.2251;0.0588917;-0.04810049;0;
-326.4892;0;0;-352.9168;-9.863129;7.7965;-338.3266;-344.2797;0.1887672;-0.1779868;0;
-196.6638;0;0;-225.0638;4.682444;7.721683;-207.115;-214.6237;0.5134143;-0.3077427;0;
-153.113;0;0;-186.1696;8.160363;7.579958;-162.9914;-172.9289;0.1230943;0.08237061;0;
428.9984;0;0;357.994;8.821749;12.32801;410.3217;402.5182;-0.2668334;0.2122225;0;
732.2272;0;0;672.6635;11.4922;13.5883;711.5079;703.837;0.1232387;0.2120093;0;
361.8647;0;0;348.5252;6.456813;15.45004;346.0388;337.0013;0.1880822;0.1468289;0;
222.8833;0;0;215.0544;5.981811;15.30055;205.3241;199.3568;-0.3318455;-0.113188;0;
195.7354;0;0;191.4126;1.756241;21.98335;177.944;173.0446;-0.2665447;0.2117625;0;
-335.5693;0;0;-306.2797;0.07953722;23.83678;-345.097;-352.4902;0.2534619;0.3414844;0;
-653.4472;0;0;-629.9965;-4.675965;14.97121;-660.0293;-666.1032;0.4481092;-0.4384669;0;
-330.5776;0;0;-350.8785;-8.020169;13.68361;-341.9631;-346.5942;0.05785491;-0.5029936;0;
-193.3142;0;0;-220.4663;0.3606342;6.569792;-203.9387;-211.751;-0.1371052;0.4070545;0;
-158.6998;0;0;-191.5717;1.163579;3.549081;-169.7509;-178.7423;0.05793454;0.2767109;0;
419.5441;0;0;349.4739;4.712383;1.603009;398.6341;392.4628;-0.2669604;-0.3732406;0;
735.5884;0;0;677.7701;8.727112;-1.814609;712.3256;705.286;-0.2017248;0.01693847;0;
351.6045;0;0;344.3188;-1.731482;6.559837;335.6739;326.6423;-0.07158742;0.3417582;0;
209.5724;0;0;205.355;-4.542782;6.352297;192.6583;186.5094;-0.07151549;0.01657805;0;
205.8636;0;0;201.3381;5.977981;12.17331;188.2793;182.8862;0.3183604;-0.1133733;0;
-329.8241;0;0;-298.1757;4.766526;15.30915;-338.5202;-346.3441;-0.07176352;-0.04829203;0;
-655.6413;0;0;-631.2086;5.163878;6.050368;-661.7674;-669.0212;-0.5264628;0.2116259;0;
-326.8349;0;0;-348.7785;4.957619;6.580152;-338.0148;-344.2619;-0.2010971;0.1464459;0;
-195.8847;0;0;-223.6782;-8.3766;-3.272707;-205.679;-215.0433;-0.07096035;0.2112661;0;
-153.0218;0;0;-186.6595;-11.65071;-7.556204;-163.1811;-173.7229;0.124013;0.08111912;0;
427.965;0;0;355.0684;-21.2172;0.4221132;407.3836;399.2263;0.05892102;-0.3087665;0;
724.8231;0;0;660.308;-26.28609;-1.118918;700.6392;691.8654;0.1238292;0.01638051;0;
356.0298;0;0;339.5554;-17.01628;5.111496;337.8672;329.2271;0.4485414;0.2112661;0;
225.0502;0;0;217.5879;-13.9187;7.115849;207.9678;203.147;-0.006680645;0.08111912;0;
195.4013;0;0;197.7541;-17.9232;3.290793;180.5225;176.3312;-0.396478;0.535809;0;
-338.5892;0;0;-298.7576;-16.6324;4.56004;-344.5201;-351.2059;-0.006275549;0.2104339;0;
-656.7764;0;0;-629.2287;5.353741;-2.142591;-661.9517;-668.4434;0.0586981;-0.5693856;0;
-338.776;0;0;-358.1699;14.25697;-3.948977;-351.0674;-356.5531;-0.006328223;-0.6337808;0;
-203.0661;0;0;-226.1262;11.22853;-2.337419;-216.0324;-223.6365;-0.2012239;-0.04843796;0;
-163.9441;0;0;-193.5402;15.43681;-3.674729;-176.8974;-185.3684;-0.3959237;0.08154541;0;
424.7373;0;0;353.6918;19.50714;-0.6569264;405.1129;397.0252;-0.1356565;-0.5682099;0;
743.8374;0;0;682.421;22.10048;-0.5223004;724.1078;712.8423;0.0593818;-0.6326063;0;
352.6613;0;0;341.7187;14.17404;1.822627;338.6361;327.0071;-0.005645207;-0.307134;0;
210.4407;0;0;202.1953;11.27941;3.897267;193.806;186.9988;-0.07060687;-0.2418581;0;
207.9179;0;0;198.5564;13.88102;-1.465162;189.176;184.8119;-0.005568588;0.08322168;0;
-330.7079;0;0;-303.8907;11.99107;-1.865587;-341.8723;-347.2315;0.2543064;0.01817071;0;
-657.7735;0;0;-636.543;9.835564;-1.729747;-666.0532;-670.8447;0.3839855;-0.0468149;0;
-328.7776;0;0;-349.8597;8.687581;-3.603531;-342.2963;-345.8961;-0.006204351;0.08316685;0;
-199.5745;0;0;-223.5714;8.27671;2.428432;-212.6423;-219.2996;-0.006198118;0.01811592;0;
-159.9563;0;0;-189.8011;8.335742;3.162804;-172.8236;-182.0353;0.1237428;-0.04686962;0;
424.1609;0;0;353.7415;8.795881;-1.462075;402.6859;395.3575;0.1236185;-0.1767572;0;
723.2716;0;0;661.4811;9.456628;-1.79552;701.131;692.3107;0.3183963;-0.2415469;0;
352.356;0;0;339.478;13.66669;-7.554126;337.8588;327.1108;0.1881417;-0.3062716;0;
225.9403;0;0;219.2596;15.99748;-10.22585;211.4577;203.9064;-0.006949411;-0.2409965;0;
195.6658;0;0;193.9894;14.30744;-8.273073;181.0728;175.2783;0.05802491;-0.175787;0;
-351.131;0;0;-316.7614;14.02464;-9.805367;-358.0257;-364.5641;0.122934;-0.110643;0;
-666.1821;0;0;-643.9659;21.17785;-9.527583;-672.1954;-677.2903;0.05784309;-0.04556451;0;
-336.9279;0;0;-362.3976;22.96523;-10.52275;-349.6817;-354.7091;-0.1371171;-0.3703554;0;
-206.967;0;0;-235.8469;14.97155;-8.636659;-220.5201;-229.2281;-0.007044602;-0.1101139;0;
-166.3419;0;0;-200.3776;12.87943;-7.355305;-181.5055;-191.7665;0.05792982;0.2798008;0;
424.1535;0;0;350.9217;11.05782;-14.18005;400.6343;391.3832;-0.2669651;0.01965025;0;
734.2587;0;0;673.3444;7.564088;-14.76865;710.6382;699.4598;-0.1367622;0.1495652;0;
347.7773;0;0;338.4608;9.431521;-14.82079;331.6143;319.5726;-0.0716574;0.08444757;0;
209.5597;0;0;200.315;9.087253;-15.6097;192.6633;184.0695;-0.1365528;-0.1105393;0;
202.4151;0;0;191.0557;-1.370728;-9.297737;184.6612;177.5752;0.1234538;-0.1104283;0;
-338.5789;0;0;-311.0714;-4.651881;-7.211924;-348.444;-356.3974;0.1882971;-0.04534995;0;
-668.2604;0;0;-647.4647;3.458095;-6.668814;-675.6168;-682.9375;-0.1367288;0.08463032;0;
-331.3829;0;0;-355.8353;5.865517;-5.054645;-344.5415;-351.5425;-0.006656717;0.01957792;0;
-197.3046;0;0;-224.1063;1.841136;-2.906112;-210.2001;-219.6929;0.2532193;-0.04540909;0;
-170.9945;0;0;-204.5159;3.71432;-1.496551;-183.3773;-193.4227;-0.3317412;0.01960388;0;
410.8224;0;0;337.7297;9.136571;-4.911176;391.1433;383.0445;-0.6562445;-0.1753178;0;
714.6942;0;0;655.9802;11.00243;-6.51371;694.8474;684.8827;-0.2657811;-0.1101743;0;
335.4788;0;0;326.9236;19.96733;-2.421328;320.7119;309.9451;-0.2005467;-0.0450963;0;
210.8292;0;0;204.2191;22.49286;-1.682083;193.7658;186.9453;-0.005443163;0.08488371;0;
192.9388;0;0;185.086;24.74743;-9.718223;175.6426;169.4537;0.5143011;0.01983107;0;
-347.7959;0;0;-322.7198;26.46388;-11.1151;-358.7653;-366.947;0.2539149;-0.1750909;0;
-663.725;0;0;-646.0454;20.34172;-11.43872;-672.3096;-679.8583;-0.266079;0.01998707;0;
-340.0329;0;0;-364.4125;21.12556;-12.96784;-351.1076;-358.5864;0.1239924;0.08493435;0;
-212.6301;0;0;-237.8598;4.225125;-6.59155;-222.8191;-232.4768;0.1888352;-0.04508569;0;
-173.1237;0;0;-202.8882;-1.80734;-5.446339;-184.2395;-194.8245;-0.3310933;-0.1100077;0;
413.1306;0;0;343.666;11.05422;-6.512472;392.5932;383.0809;-0.3957279;-0.1748645;0;
716.3754;0;0;656.1635;11.51261;-7.108774;693.5473;682.92;-0.2004283;-0.1097215;0;
329.4747;0;0;314.1757;15.31846;-2.948812;313.1038;301.4253;-0.005324869;-0.0446439;0;
199.4588;0;0;187.5485;17.17907;-1.740156;183.7915;176.2477;-0.1352542;0.08533565;0;
191.4498;0;0;185.0487;29.1509;-11.71862;177.4849;172.3849;-0.005183615;-0.04468479;0;
-350.7201;0;0;-320.8205;36.35528;-13.38142;-355.4256;-362.6444;0.3846256;0.02032745;0;
-674.7672;0;0;-654.8301;22.65472;-18.72649;-677.344;-684.618;0.2543045;0.2152091;0;
-340.2569;0;0;-369.1904;22.36451;-22.05669;-350.8272;-358.0314;0.3190163;0.02009078;0;
-200.2977;0;0;-238.1351;25.69094;-18.35059;-214.9803;-225.3632;0.3186958;-0.1098641;0;
-165.4264;0;0;-209.2852;24.5934;-20.27466;-181.8433;-193.4652;-0.5261999;-0.174721;0;
412.5119;0;0;335.214;27.44908;-11.47964;388.6777;379.6912;-1.175345;-0.3694475;0;
711.1971;0;0;650.6559;27.4215;-9.056846;687.6367;678.4719;-0.3295882;-0.1092069;0;
323.3021;0;0;311.5473;26.9918;-14.27229;307.5115;297.3563;0.5153185;-0.04412984;0;
198.6647;0;0;191.0446;27.03203;-13.92304;182.1404;175.3062;-0.1348728;0.1508165;0;
188.72;0;0;188.4789;25.79844;-17.526;172.8369;168.0087;-0.3296393;0.2805997;0;
-352.9474;0;0;-315.4573;24.83549;-18.58012;-358.882;-365.4546;-0.004471341;0.1503831;0;
-668.3091;0;0;-641.976;25.14533;-23.58505;-672.7385;-678.9296;-0.1993689;0.345134;0;
-340.6769;0;0;-362.9084;23.91462;-26.37451;-353.5976;-358.3457;-0.2641359;0.2148525;0;
-211.0246;0;0;-240.3552;21.0102;-22.12821;-225.8064;-234.1729;-0.3288378;0.01973457;0;
-172.0821;0;0;-208.0673;17.97498;-22.03899;-188.7855;-198.8302;-0.2635401;0.0846821;0;
409.4861;0;0;338.6796;22.10913;-21.8159;385.0534;377.8922;0.06156145;-0.110305;0;
708.5491;0;0;653.5558;23.76185;-21.05716;686.0775;676.5497;0.1264669;0.2146425;0;
322.9681;0;0;315.4437;8.131559;-19.9644;307.8904;296.3107;0.06137252;0.1494595;0;
195.8324;0;0;189.7523;5.645143;-19.94434;178.5833;171.3257;-0.2635259;-0.2404947;0;
187.6396;0;0;184.5641;8.38516;-16.30722;168.4714;163.4699;-0.06835904;-0.2402531;0;
-346.2807;0;0;-316.3071;6.836493;-15.28621;-357.8709;-364.2417;0.4514484;-0.3699464;0;
-663.9604;0;0;-646.3857;20.69473;-18.95479;-671.9158;-676.9683;0.1261581;-0.5644767;0;
-339.3311;0;0;-364.2527;24.69242;-18.60083;-351.339;-355.3245;-0.3937075;-0.4989421;0;
-208.6181;0;0;-233.2024;23.73058;-24.47652;-219.1772;-227.0942;-0.06847513;-0.3685061;0;
-172.614;0;0;-201.8587;24.57739;-25.52365;-182.3504;-193.133;0.2564304;-0.1732338;0;
410.329;0;0;341.2587;21.73966;-24.29231;389.9828;380.7102;-0.3285334;0.151777;0;
711.6401;0;0;652.4467;15.62224;-24.60282;687.3787;677.3659;-0.1982686;0.1516245;0;
322.6202;0;0;311.9619;26.52391;-15.06676;305.7545;294.5648;0.06180002;-0.3032993;0;
199.6701;0;0;191.0216;28.50699;-10.89868;183.1338;175.7035;-0.2630988;-0.3679619;0;
191.536;0;0;184.0206;-13.72017;-9.280264;174.7664;169.6549;-0.1328997;-0.2376574;0;
-353.1953;0;0;-324.4088;-23.88681;-5.252085;-362.1394;-368.4952;-0.002831516;-0.1724513;0;
-664.996;0;0;-645.1714;-31.63332;-2.634473;-671.9321;-676.6573;0.1920734;-0.04234334;0;
-334.8683;0;0;-357.5424;-44.39491;0.04736935;-346.92;-350.3911;0.321815;-0.1722355;0;
-211.2189;0;0;-235.6193;-14.87781;2.123793;-222.5713;-230.0368;-0.003345028;-0.5618665;0;
-169.7774;0;0;-202.2117;-11.71503;3.394334;-182.0554;-191.3875;-0.263211;-0.1714979;0;
415.724;0;0;345.4038;-9.49343;4.797443;393.9006;386.7643;-0.1979792;0.4783479;0;
711.0951;0;0;654.4637;-0.976449;5.797367;687.0448;679.1035;0.1920238;-0.1068388;0;
326.1363;0;0;316.5381;-18.32417;1.973636;308.8567;299.4242;0.06189613;-0.6264702;0;
207.0557;0;0;200.1534;-18.90799;0.9669093;190.7306;183.9937;-0.4579048;-0.2360367;0;
191.9177;0;0;190.3946;-11.8564;2.305596;177.0457;171.0027;-0.32751;0.2839392;0;
-357.0618;0;0;-318.6659;-12.24662;2.035348;-362.4861;-371.0217;-0.06731156;0.0887519;0;
-669.1085;0;0;-639.4968;-6.540892;3.640893;-673.0905;-680.1183;0.3225601;-0.3661087;0;
-344.7239;0;0;-363.6176;-3.787654;5.043755;-355.1362;-360.3454;0.322236;-0.1708388;0;
-219.128;0;0;-244.6243;-10.81742;3.69915;-228.4678;-236.8577;-0.1978265;0.1541696;0;
-169.6201;0;0;-202.8369;-11.67721;4.499228;-180.3249;-190.3929;-0.1326604;0.2839494;0;
415.7562;0;0;343.5923;-5.436184;8.982442;395.3795;387.1957;-0.002592397;0.3486314;0;
708.0663;0;0;649.7805;-5.162302;10.64787;687.1479;678.4725;-0.06755713;0.02344437;0;
320.7367;0;0;312.172;-1.47342;12.71364;305.7738;296.6698;0.2573475;-0.1065139;0;
200.8495;0;0;195.6667;0.5377924;13.57164;183.0906;177.8064;0.3220562;0.08849519;0;
195.9626;0;0;193.4711;-7.233256;13.9599;176.4723;172.3179;0.06186324;0.413243;0;
-343.1509;0;0;-311.532;-9.101023;13.0751;-355.5626;-362.1492;0.1917358;0.5427625;0;
-659.6469;0;0;-636.7429;-8.354943;10.85152;-669.9222;-675.6276;0.2565104;0.2173804;0;
-337.8955;0;0;-357.1183;-10.35628;7.960476;-352.7831;-356.9836;-0.068584;-0.1076748;0;
-215.6172;0;0;-236.6948;-8.670935;3.86664;-228.8033;-235.1859;-0.003547745;-0.6273053;0;
-172.5471;0;0;-201.8494;-8.394778;0.8485231;-186.8443;-193.0331;0.3212925;-0.6916423;0;
417.3923;0;0;346.8902;-13.34284;-7.25702;393.1145;389.1808;-0.198769;-0.1062413;0;
711.0751;0;0;654.262;-13.73157;-9.79508;686.5718;680.0808;-0.5883734;0.3486368;0;
322.1807;0;0;315.3996;-14.11894;-18.22484;305.0733;297.0272;0.1268586;0.1533845;0;
204.6659;0;0;202.6392;-14.90904;-22.5603;187.0135;182.0988;0.3216332;-0.2365737;0;
184.6577;0;0;187.3806;-7.525688;-10.88284;167.6477;162.6755;0.126408;-0.04143395;0;
-364.9392;0;0;-329.9227;-5.50937;-10.47013;-374.186;-380.7773;-0.003653754;0.1535097;0;
-666.7956;0;0;-642.9337;-4.833273;-0.7472101;-674.9086;-679.8068;-0.3284868;0.2183228;0;
-346.5987;0;0;-363.6777;-2.752312;4.344121;-359.2638;-363.095;-0.3931241;0.2830708;0;
-229.684;0;0;-250.6814;-4.558208;-6.042354;-241.2745;-247.788;-0.002925004;-0.3019197;0;
-169.6708;0;0;-198.3307;-3.682971;-7.041027;-182.3115;-189.6931;0.4518493;-0.5614857;0;
416.8924;0;0;353.2789;-8.032551;-6.565071;395.2689;389.9563;0.2564933;0.02378453;0;
702.08;0;0;652.2734;-10.8385;-7.83115;679.9785;672.5472;0.1263009;0.1536953;0;
322.5025;0;0;319.6599;-1.784299;-16.12892;307.732;298.1843;0.126174;0.08857356;0;
199.8649;0;0;199.3365;-0.4433353;-19.86376;184.2971;178.3197;-0.003887499;-0.04145014;0;
185.8585;0;0;186.9548;-6.738554;-18.23621;169.994;165.0222;0.2559858;-0.2363105;0;
-352.3078;0;0;-317.1047;-6.598061;-19.69151;-361.4722;-368.8129;0.4506306;-0.3660077;0;
-666.983;0;0;-642.4974;-9.137026;-18.13112;-676.0757;-681.9722;0.1903084;-0.3006727;0;
-342.4756;0;0;-364.1789;-9.529987;-17.44307;-357.5561;-362.3848;-0.3296215;0.4142703;0;
-218.1937;0;0;-242.4365;-8.649755;-15.14824;-232.1347;-240.4567;-0.3292903;0.803658;0;
-171.4979;0;0;-201.5258;-9.444371;-13.05655;-185.6122;-195.1753;-0.2639921;0.2831118;0;
422.2511;0;0;353.023;1.081317;-11.63679;399.8426;392.0383;-0.5235962;-0.04200941;0;
718.7401;0;0;663.8869;5.032346;-9.54875;694.7924;686.5586;-0.1332661;-0.0419672;0;
335.1478;0;0;332.5735;-2.743219;-8.936309;317.3461;308.6833;-0.1980995;-0.2368271;0;
216.683;0;0;220.6704;-4.01326;-7.78862;198.9616;193.431;-0.7176391;-0.1716218;0;
185.9805;0;0;194.2119;2.890624;-7.91476;169.5888;166.9373;-0.132212;0.2183548;0;
-369.2398;0;0;-326.7215;2.753022;-8.777585;-375.4952;-379.8931;0.3876595;0.153168;0;
-662.7211;0;0;-631.9896;1.478434;-3.745167;-667.4709;-671.3022;0.2573354;-0.1068553;0;
-337.7182;0;0;-355.4308;3.351982;-2.401745;-349.4597;-351.7255;-0.2626619;0.02318678;0;
-222.1868;0;0;-245.5037;-13.32953;-8.829572;-233.6666;-240.4279;-0.262398;-0.1717385;0;
-157.8708;0;0;-185.5995;-17.40197;-8.686734;-171.4005;-179.5918;0.1276697;-0.1065986;0;
427.3688;0;0;363.0613;-11.15519;-12.49591;404.7322;400.2973;-0.06736062;0.3482799;0;
709.0475;0;0;654.4248;-13.89065;-13.35413;685.9964;679.8169;0.06264175;0.4778646;0;
333.3986;0;0;324.7451;2.332933;-7.647287;315.618;307.4456;0.4523829;0.2824824;0;
212.4992;0;0;209.3517;7.488153;-6.098996;194.3616;189.3209;0.06212425;-0.1076055;0;
192.733;0;0;193.899;1.117616;0.2032843;176.0504;172.2642;-0.06787286;-0.1724647;0;
-350.1254;0;0;-314.228;4.532744;3.552227;-360.2945;-364.7016;0.257032;0.08757798;0;
-664.9902;0;0;-636.1253;-4.112975;6.361818;-674.1495;-676.8031;0.06187176;-0.1074121;0;
-341.7341;0;0;-355.8142;-6.98923;8.49888;-354.8198;-356.7835;-0.1980598;0.02263055;0;
-216.0163;0;0;-233.0182;3.199199;11.37048;-228.714;-232.7372;0.1269759;0.08757517;0;
-169.1352;0;0;-191.6798;3.799196;13.30156;-183.1944;-188.0257;0.06188101;0.02251981;0;
422.9247;0;0;359.4859;0.3791275;4.714627;400.134;395.8698;0.1267862;0.3473339;0;
719.6629;0;0;666.4077;-0.08976796;2.164539;694.6462;688.3873;0.3215608;0.5418869;0;
328.8859;0;0;324.847;-0.2907486;2.363313;309.2042;301.4523;-0.1335337;0.4763751;0;
205.3049;0;0;207.5793;-0.1567346;0.5523988;185.393;180.5225;-0.1333995;0.08609238;0;
183.297;0;0;190.7541;-3.840272;-3.400027;164.4047;161.1008;0.1915712;-0.1738635;0;
-364.9867;0;0;-324.7411;-4.774419;-6.343738;-374.9894;-379.7893;0.3213134;-0.3036235;0;
-661.0334;0;0;-633.322;-2.894587;0.4276685;-668.8397;-671.6982;0.58086;-0.3033184;0;
-339.2806;0;0;-355.9497;-3.025401;1.431983;-353.9506;-355.307;0.3853742;0.02182308;0;
-228.0579;0;0;-247.5838;0.05909824;-0.1100636;-243.2754;-247.9413;-0.199719;0.4116052;0;
-161.9244;0;0;-185.8035;1.532907;1.765569;-176.5019;-182.7873;-0.1995184;0.2162896;0;
430.3157;0;0;371.9154;0.8608057;-4.264547;408.444;402.5397;0.1255188;-0.1087644;0;
705.6197;0;0;657.1482;1.664224;-6.135662;681.7085;674.5609;0.19036;0.02127953;0;
330.1616;0;0;323.2804;3.069071;1.037433;311.022;303.944;-0.004733259;-0.0437092;0;
214.9501;0;0;211.3241;4.003993;1.103374;196.267;191.5074;0.06023884;-0.04366528;0;
184.4368;0;0;187.0614;1.922888;0.8343331;167.3342;162.8918;0.2550803;-0.1735561;0;
-360.0374;0;0;-324.432;1.31872;0.4985801;-370.0638;-376.3759;0.1898567;-0.3682837;0;
-665.7718;0;0;-644.1327;5.335883;-0.7744746;-674.4138;-679.5951;0.2546332;-0.1730116;0;
-339.7039;0;0;-363.3138;7.139183;-0.17085;-353.772;-358.011;0.3193448;-0.04290312;0;
-214.3004;0;0;-241.7597;-0.2363576;-10.35184;-228.4169;-236.6496;-0.1357475;0.02210733;0;
-168.3581;0;0;-203.161;-2.379574;-12.95377;-183.3974;-191.8093;-0.4604478;0.4118892;0;
424.2633;0;0;351.7018;6.062911;-11.53411;399.4315;395.4009;-0.2650832;0.4764427;0;
721.1251;0;0;663.3791;6.660031;-14.26883;694.6941;689.2307;-0.06991477;0.08615988;0;
331.8458;0;0;326.5065;6.452268;-2.197805;313.3748;305.1684;0.06009017;-0.2387634;0;
208.2618;0;0;209.4871;7.517512;1.153428;191.1837;186.5462;-0.06990489;-0.1735562;0;
186.5009;0;0;193.2222;3.758914;-5.277848;171.1891;168.4927;0.06010003;0.4113243;0;
-357.9754;0;0;-317.2155;4.357373;-4.20094;-365.7131;-370.0934;0.2549417;0.1510416;0;
-654.2791;0;0;-626.2413;-1.675225;-5.603239;-661.9466;-665.0731;0.1897182;-0.3688489;0;
-335.0319;0;0;-350.3129;-4.084439;-6.200455;-348.876;-350.75;-0.07034184;0.2162278;0;
-222.0018;0;0;-242.5149;5.029344;-6.32819;-236.5192;-241.2649;-0.3301405;0.1510432;0;
-153.688;0;0;-185.2374;6.16239;-7.862439;-169.815;-176.4924;-0.3947761;-0.3688473;0;
437.4818;0;0;369.42;7.361647;-7.050744;413.625;408.0162;-0.06954276;-0.04363996;0;
709.6552;0;0;657.9036;8.694396;-8.919181;685.5724;679.7194;0.3852985;0.4761426;0;
328.321;0;0;325.5343;9.82376;-8.106424;310.072;304.1624;0.1900093;0.2807622;0;
214.3607;0;0;216.0746;11.15404;-9.170006;195.3804;192.6627;-0.264953;-0.304226;0;
187.7836;0;0;196.4297;4.846189;-13.98344;170.6339;168.2937;-0.004817387;-0.433855;0;
-361.5041;0;0;-316.385;2.497771;-15.17508;-369.5161;-374.4776;0.3849915;-0.3034844;0;
-663.9262;0;0;-631.7209;3.566988;-24.00134;-671.2429;-674.4504;-0.005199388;-0.1732448;0;
-331.6757;0;0;-344.7926;1.218879;-27.59418;-345.5443;-347.1244;-0.2000962;-0.043136;0;
-208.6541;0;0;-224.5689;1.016583;-22.60984;-223.5083;-227.8979;0.4497783;-0.1730273;0;
-161.8429;0;0;-183.0515;0.4123494;-22.11824;-178.4938;-183.8159;0.384359;-0.1078861;0;
429.6475;0;0;372.2909;-4.611907;-21.89506;403.9554;400.825;-0.2657006;0.02215695;0;
719.9446;0;0;674.7646;-4.942065;-19.99766;691.967;689.402;-0.2004663;-0.1727673;0;
328.6675;0;0;328.8851;-9.29038;-17.0973;306.1528;303.0906;0.1895392;-0.3025284;0;
208.1477;0;0;208.365;-11.49185;-15.67348;184.4063;182.4091;0.1243814;-0.3671918;0;
190.4474;0;0;193.7254;-3.107556;-7.352094;166.8547;165.1719;-0.330515;-0.1069535;0;
-354.0329;0;0;-315.276;-3.506576;-4.330596;-368.4814;-371.7243;0.05962117;0.02308868;0;
-654.0887;0;0;-625.3657;5.138112;-7.340355;-666.2738;-668.7638;0.4493653;-0.3667386;0;
-333.4048;0;0;-347.814;8.950367;-6.998065;-350.7626;-352.438;-0.1357923;-0.1065007;0;
-221.3135;0;0;-240.2059;-1.641198;-10.34006;-238.279;-242.389;-0.005721157;0.3483777;0;
-156.0613;0;0;-184.5549;-0.3003784;-10.86553;-174.509;-179.1771;0.3191213;0.1531256;0;
435.8606;0;0;369.6646;-12.62396;-19.8302;407.9361;404.5222;-0.2659054;0.08800444;0;
703.2255;0;0;650.9641;-17.0319;-23.62818;673.7674;668.2329;-0.3306056;0.1528834;0;
323.272;0;0;315.7906;-5.896357;-18.31291;298.9659;291.9378;-0.2653061;0.2176971;0;
212.94;0;0;206.7154;-6.761088;-19.83512;186.7218;182.0121;-0.2650395;0.4123804;0;
186.3643;0;0;183.5193;4.833631;-11.84434;161.1095;157.0291;0.1899982;0.2820313;0;
-356.1129;0;0;-323.7227;9.383125;-8.550399;-371.035;-376.8604;0.2547747;0.5416173;0;
-661.0391;0;0;-632.3671;3.345477;-15.03891;-671.3235;-675.5189;0.319486;0.2162364;0;
-339.8485;0;0;-351.8724;4.882357;-14.55504;-353.6208;-357.3122;0.3841323;0.1510517;0;
-220.0046;0;0;-239.0129;3.404559;-14.07153;-233.2634;-241.1364;-0.006057702;0.6706387;0;
-165.2484;0;0;-193.7329;4.606587;-14.86119;-180.3055;-189.1701;-0.07101896;0.5400302;0;
430.4932;0;0;361.3703;-3.435994;-12.83677;405.8936;399.5991;0.05898709;0.3445855;0;
713.6681;0;0;655.1719;-5.978137;-12.95784;687.1567;680.4312;0.2538298;0.1493372;0;
320.6482;0;0;311.9358;3.740761;-16.02591;299.973;293.2543;0.1886075;-0.04571485;0;
200.6986;0;0;198.2418;5.143522;-17.55041;180.1692;175.5811;-0.2013861;-0.3705056;0;
178.8828;0;0;182.2381;8.955771;-16.39407;159.4984;154.7901;-0.2011838;-0.7599373;0;
-365.8357;0;0;-327.439;11.09023;-16.10966;-377.2046;-383.2201;0.1888224;0.150369;0;
-660.1324;0;0;-633.9557;15.56706;-21.71992;-670.8029;-675.2505;0.5134694;0.6049893;0;
-333.3831;0;0;-351.4604;18.43181;-22.83681;-349.7898;-352.6714;0.3180515;-0.2401941;0;
-224.1653;0;0;-245.8476;11.44706;-20.33549;-238.6815;-244.8085;-0.2020068;-0.4348547;0;
-167.406;0;0;-197.2499;9.493176;-20.18109;-182.9071;-190.7771;0.1880002;0.2152556;0;
427.4008;0;0;360.9803;11.76081;-16.20894;401.1707;396.2446;0.512648;0.6048434;0;
703.8947;0;0;652.0336;11.34686;-14.38424;676.0667;671.0831;-0.2025079;0.2793989;0;
322.3788;0;0;320.2948;3.63327;-13.56599;301.9501;296.0345;-0.2672718;0.08421618;0;
209.2366;0;0;213.4641;2.155751;-12.14572;189.5155;186.4795;0.05783351;0.01916421;0;
177.1674;0;0;188.1996;-0.1909397;-11.93257;159.2153;157.3691;0.1227427;0.214047;0;
-370.5479;0;0;-322.9201;-2.266853;-11.85359;-380.8608;-383.892;0.2525541;0.4087339;0;
-663.778;0;0;-627.1301;8.117902;-11.57375;-673.9556;-675.6719;-0.07253638;0.01851918;0;
-341.0854;0;0;-348.0149;10.1185;-11.96402;-356.2503;-357.0903;-0.1374308;-0.3063361;0;
-230.9854;0;0;-239.1573;13.25714;-15.03309;-243.6363;-247.5988;-0.007358065;-0.241061;0;
-164.9738;0;0;-183.5073;15.58737;-16.15669;-178.9863;-184.0069;-0.1372854;0.1489853;0;
433.891;0;0;373.2098;15.63906;-18.81978;407.8986;405.007;0.122722;0.7335417;0;
704.6312;0;0;658.1289;17.63307;-20.20739;676.1662;671.341;0.3175007;0.7977719;0;
317.43;0;0;321.1367;7.567672;-19.91915;297.2394;291.2946;0.2522143;0.08232958;0;
203.3557;0;0;210.4945;4.9481;-20.50198;183.8101;181.6194;-0.00790849;-0.1776225;0;
176.8521;0;0;188.7937;2.598603;-17.26632;157.2012;156.1996;-0.1378352;0.3422947;0;
-367.1773;0;0;-320.0778;-2.226779;-15.9763;-379.8744;-382.4367;-0.007762047;0.2120161;0;
-662.3473;0;0;-629.413;9.564454;-14.21881;-674.3445;-676.217;-0.1376889;-0.04806634;0;
-335.1584;0;0;-348.9212;11.6983;-11.9271;-352.5158;-353.6369;-0.07258324;0.0169493;0;
-222.4406;0;0;-239.1256;1.371416;-13.79064;-238.5312;-242.3373;-0.1374777;-0.1779698;0;
-165.1833;0;0;-189.785;1.302689;-12.97299;-181.3826;-186.8716;-0.3972089;0.08207845;0;
433.0571;0;0;369.7495;-1.310589;-10.54857;408.6281;404.7689;-0.2668751;0.3418653;0;
707.7961;0;0;658.0453;-3.452726;-10.06909;682.3298;677.1001;-0.2666069;0.1466198;0;
319.4673;0;0;318.3046;6.397357;-7.915639;300.3983;293.3623;-0.1364044;0.2764072;0;
210.7008;0;0;210.1015;9.002897;-7.30484;190.589;185.9963;-0.1362673;0.4710315;0;
187.2508;0;0;186.4022;5.510251;-7.900346;166.0972;163.0709;-0.5259344;0.3406235;0;
-360.4747;0;0;-326.7148;6.91221;-7.959391;-373.7984;-377.3839;0.1242675;0.2103465;0;
-657.6504;0;0;-634.9814;6.369401;-8.018376;-668.462;-671.1694;0.6438813;0.1451678;0;
-335.7136;0;0;-355.8583;6.16193;-6.804626;-351.5118;-354.2164;0.2534303;0.01508727;0;
-227.368;0;0;-245.8059;7.092767;-15.30438;-243.0879;-249.2256;0.123241;-0.3747319;0;
-161.735;0;0;-188.5876;4.808465;-17.83435;-179.0008;-186.694;0.2530518;-0.4393227;0;
442.6238;0;0;373.1946;14.51652;-8.640013;417.317;410.631;-0.007071809;-0.04907726;0;
709.2324;0;0;653.6785;18.31936;-7.760553;684.2007;676.2097;-0.1369994;0.08090675;0;
319.1529;0;0;314.3169;-2.261959;-4.470592;300.6432;292.5352;0.05804029;-0.04910924;0;
208.6376;0;0;207.5546;-5.809659;-1.786905;189.6468;184.8577;-0.006985365;0.0808748;0;
174.9448;0;0;180.2347;-6.004892;-4.062529;157.6597;153.1254;0.1229563;0.1457609;0;
-372.9556;0;0;-329.8151;-12.1608;-2.517839;-381.2904;-387.0695;0.7075388;-0.114255;0;
-662.5601;0;0;-632.7688;6.538315;-7.13701;-670.6991;-673.8488;0.3819912;-0.2440748;0;
-332.3101;0;0;-349.0253;9.412133;-9.608085;-347.6247;-349.5219;0.05677068;-0.04892757;0;
-223.7805;0;0;-243.415;-0.7787297;-3.369262;-239.4546;-244.2234;0.1866483;0.210991;0;
-170.27;0;0;-196.3814;0.0936849;-4.571447;-186.6155;-192.254;-0.2683106;0.2757463;0;
432.2858;0;0;368.9069;-10.55731;-2.557488;407.0237;401.9531;-0.462943;-0.1143348;0;
710.0242;0;0;659.7023;-13.96197;-0.612413;683.4131;676.5984;-0.07267382;-0.504024;0;
318.8195;0;0;317.8984;-13.74687;-16.21845;299.0443;293.0485;-0.2675028;-0.2436482;0;
200.496;0;0;204.5108;-17.4841;-19.95308;180.8656;178.6864;-0.3322014;-0.04850134;0;
171.0592;0;0;178.8806;-8.491555;-14.90943;152.0732;150.7083;0.05793647;-0.1134199;0;
-371.8399;0;0;-328.3568;-7.142876;-16.23411;-383.4355;-385.7985;-0.007089086;0.08159606;0;
-661.1956;0;0;-628.7507;-9.480224;-11.1942;-671.8425;-673.0163;0.1228527;0.01654672;0;
-329.1353;0;0;-342.325;-7.327244;-9.240448;-345.831;-346.5663;0.1876966;-0.1783719;0;
-216.8609;0;0;-232.1613;-12.67852;-9.767027;-233.2274;-237.0229;0.1225407;-0.1781927;0;
-158.0474;0;0;-178.5798;-12.59843;-8.551642;-175.7719;-180.3132;0.1873849;0.01688837;0;
440.4981;0;0;382.7551;-11.64874;-4.055193;413.6086;411.1333;-0.2675748;0.2117734;0;
707.7959;0;0;664.4162;-12.1729;-1.371923;680.9334;677.0863;-0.3972406;-0.1782434;0;
319.2172;0;0;323.5446;-2.112983;-6.126211;300.1902;294.9727;-0.007037409;-0.3729663;0;
209.8887;0;0;214.2743;2.108698;-5.718158;190.1313;187.5427;-0.136965;0.1471472;0;
176.1946;0;0;186.6352;-4.122711;-4.506719;156.3946;154.5582;-0.07186006;0.276934;0;
-373.6436;0;0;-324.9203;-3.850149;-3.698518;-385.1154;-388.1994;0.4479509;0.0817537;0;
-660.0615;0;0;-625.8798;3.186318;-3.42687;-669.9601;-670.7296;0.5124681;0.3415409;0;
-327.5026;0;0;-340.4566;4.053772;-3.624375;-343.7631;-343.5323;0.3820185;0.2112631;0;
-220.9144;0;0;-238.2907;3.246392;3.144421;-237.3459;-241.1134;0.446602;-0.0488186;0;
-168.2813;0;0;-195.2603;2.104054;4.279971;-184.9462;-189.9592;0.1213165;0.3410345;0;
430.5869;0;0;366.6536;-0.175236;6.35202;406.5674;403.2461;0.186162;0.4706265;0;
706.3279;0;0;656.0145;-2.720655;7.484347;680.5834;676.1411;0.1210076;0.1453169;0;
312.9405;0;0;309.8416;-7.272273;3.257024;292.9691;287.4067;-0.00904869;-0.1796658;0;
198.3085;0;0;198.2112;-8.872556;3.722632;179.5441;175.8613;0.05592774;-0.2444526;0;
176.3702;0;0;179.7087;-24.00154;-6.060373;158.6866;156.007;-0.2689652;0.1455971;0;
-373.7806;0;0;-335.9003;-30.94365;-8.867566;-384.2625;-387.8764;0.1211091;0.2753855;0;
-666.5701;0;0;-640.1597;-17.51597;-6.64822;-675.2925;-677.7158;0.2509221;0.08020673;0;
-334.3795;0;0;-351.4113;-16.76143;-8.918959;-348.9651;-350.6989;-0.5939054;-0.04980857;0;
-231.1577;0;0;-251.0459;-18.41953;3.68255;-245.9785;-250.9589;-0.3984067;0.08017618;0;
-166.8951;0;0;-196.7583;-16.25757;7.563738;-182.6381;-188.4256;0.1866997;0.01512826;0;
437.9061;0;0;371.5913;-15.70537;4.609011;413.0586;409.7757;0.1865122;0.08008042;0;
698.6473;0;0;649.3906;-13.27869;7.417541;673.45;669.2958;0.1863247;0.0150326;0;
317.574;0;0;313.719;-13.60014;7.075173;298.5863;293.3119;-0.1386992;-0.1149172;0;
215.1812;0;0;212.5794;-12.91592;9.412466;194.0887;192.2553;-0.2035272;0.4699044;0;
172.8612;0;0;176.6338;-7.880072;3.374667;152.7893;152.0822;-0.07338797;0.3394975;0;
-378.9727;0;0;-338.6598;-6.934149;0.7590634;-390.2163;-392.6093;-0.398151;-0.4404517;0;
-663.3238;0;0;-633.2962;-3.913072;12.88185;-672.5571;-673.6359;-0.1378815;0.07972959;0;
-335.2593;0;0;-348.99;-1.564615;14.00761;-348.3564;-350.1838;0.3819958;0.3395188;0;
-228.9757;0;0;-246.753;-8.997783;13.25672;-241.2476;-247.3834;-0.2030941;-0.1805611;0;
-166.0272;0;0;-194.7186;-9.458232;14.18116;-180.6605;-186.9151;-0.2028901;0.01452241;0;
440.2725;0;0;372.1297;-9.046587;9.2103;415.3465;411.4095;0.3820199;0.2094098;0;
710.2567;0;0;659.1114;-9.439638;8.531217;683.4817;678.9865;0.05679931;-0.1806046;0;
314.9913;0;0;314.6844;-5.679109;1.891456;294.3652;290.1243;-0.1381598;-0.3103578;0;
202.7311;0;0;207.3595;-4.735398;-1.25852;182.1257;181.075;0.05688106;-0.115144;0;
176.2281;0;0;187.2236;1.29758;2.828581;157.7673;157.2799;0.05682391;-0.1799956;0;
-376.2339;0;0;-329.3299;4.042943;2.758756;-384.7436;-387.1671;-0.1381352;-0.04988007;0;
-665.8351;0;0;-631.6594;2.698734;2.822967;-672.9619;-674.1335;-0.2029638;0.3399741;0;
-326.5862;0;0;-339.2339;3.098164;3.757892;-339.6404;-340.561;0.05710955;0.01479579;0;
-220.936;0;0;-237.6314;2.961329;8.509782;-233.7272;-237.8328;-0.007915179;-0.05018642;0;
-165.4918;0;0;-190.4162;1.149692;11.64931;-180.519;-184.9953;-0.2677766;0.07979871;0;
438.1212;0;0;376.4278;2.220264;10.09712;414.3634;411.0161;-0.4624096;-0.05021618;0;
705.0466;0;0;660.9064;2.351755;11.1587;681.75;676.6569;-0.2020756;0.2097037;0;
318.8444;0;0;323.7864;-14.12768;15.90315;301.5057;296.5427;0.3178662;-0.1153438;0;
208.8916;0;0;217.9516;-20.34277;17.02576;191.3205;189.7982;0.1226448;-0.4400646;0;
164.329;0;0;178.3149;-13.22239;18.81719;148.1499;147.0664;-0.2672825;0.01514899;0;
-385.8097;0;0;-340.3537;-15.21883;20.47286;-395.8506;-398.8695;-0.07211189;0.1450685;0;
-659.9715;0;0;-628.2418;-14.86875;14.42394;-670.0648;-671.8938;0.05789525;0.014988;0;
-326.1633;0;0;-337.194;-14.04952;13.40471;-342.2435;-343.0711;-0.0720976;0.1449076;0;
-220.9508;0;0;-232.0954;-17.65273;12.52046;-236.3277;-240.2779;-0.2019598;0.2097294;0;
-157.4481;0;0;-176.7648;-17.90244;10.36455;-172.6846;-177.193;0.1880471;0.4044207;0;
439.5976;0;0;380.945;-14.53554;16.11454;416.8177;413.938;0.1878582;0.2091123;0;
702.5859;0;0;657.1108;-13.58391;16.56711;678.4547;674.2035;-0.007232598;0.1439348;0;
306.0789;0;0;306.7513;-13.70398;15.67981;286.2822;282.66;0.5774807;0.4686269;0;
189.1425;0;0;194.1245;-13.087;16.66867;168.1163;168.933;0.5119331;0.1433193;0;
170.3368;0;0;181.3732;-12.60534;11.96324;150.7685;152.1467;0.186582;-0.1166941;0;
-373.8109;0;0;-329.7397;-11.98946;10.9466;-384.3016;-386.3606;0.2513619;0.01335786;0;
-665.9757;0;0;-636.6289;-13.18286;12.74402;-673.8947;-675.5143;0.1211747;-0.1815576;0;
-323.4159;0;0;-338.014;-13.23696;12.53026;-336.1994;-335.0064;-0.008881784;-0.2463425;0;
-219.0182;0;0;-232.2899;-11.88449;13.25448;-230.7894;-231.9714;-0.5935789;0.0137744;0;
-174.0082;0;0;-196.1995;-11.13561;13.911;-186.0799;-189.4471;-0.5280151;0.2086626;0;
428.7388;0;0;363.0292;-10.92336;12.75831;407.6212;405.4443;0.1221888;-0.1813511;0;
692.7375;0;0;639.3378;-9.773303;12.14264;670.5168;665.9683;-0.007868652;-0.3760709;0;
301.0505;0;0;293.4315;-8.155892;17.62292;284.8491;278.2437;0.0571066;-0.1158237;0;
199.3615;0;0;193.6241;-6.272663;19.27979;181.927;178.3891;-0.07288547;-0.3106093;0;
161.0553;0;0;163.8195;-5.060912;14.7057;144.7003;142.2904;-0.3976489;-0.5051993;0;
-385.3944;0;0;-345.839;-3.9841;14.42299;-392.7375;-395.2074;-0.07241267;-0.2448223;0;
-652.7476;0;0;-627.8496;3.320921;14.27453;-657.2722;-657.2409;-0.1373073;0.0152931;0;
-319.4464;0;0;-338.4264;6.466392;14.12622;-328.4018;-328.6828;-0.07220194;0.1452124;0;
-220.55;0;0;-238.8862;3.579507;12.03555;-229.4339;-233.8376;0.3176747;0.2100339;0;
-162.6699;0;0;-191.0451;4.379217;10.68393;-174.3559;-180.3169;0.1874208;0.1448555;0;
437.567;0;0;368.4907;3.906302;15.9646;414.5233;409.9427;-0.1376043;0.01477523;0;
700.9322;0;0;647.605;2.897999;16.9533;675.538;670.0248;0.05743603;-0.1801416;0;
301.6782;0;0;297.38;6.377712;15.26181;282.6813;276.4866;-0.2674584;-0.1149933;0;
191.0556;0;0;190.6971;7.510379;15.78234;172.3276;169.5748;-0.2022223;-0.04991041;0;
170.9986;0;0;178.3241;-0.4013971;15.76648;153.8511;152.6004;0.577589;-0.1797949;0;
-376.8979;0;0;-332.0986;-2.276028;16.42035;-385.6574;-388.1562;0.3171393;0.1452224;0;
-664.1247;0;0;-630.1774;1.007813;13.25577;-670.5015;-671.6235;-0.2029181;0.5998479;0;
-323.1284;0;0;-332.9433;0.136144;12.10375;-334.3089;-334.9925;0.05715512;0.4043432;0;
-222.6041;0;0;-233.7209;4.891429;15.1728;-233.7109;-237.3298;-0.072837;-0.2457366;0;
-174.7169;0;0;-191.2573;6.963595;14.62169;-186.812;-190.4898;-0.4625679;-0.4403917;0;
431.1542;0;0;378.8984;2.870761;18.55887;410.513;407.9634;-0.5920377;-0.05014511;0;
695.4005;0;0;657.8773;3.20267;20.61669;673.1558;668.11;-0.2666062;0.274742;0;
299.1505;0;0;307.2671;2.060376;12.82608;282.6754;277.0099;-0.07143625;-0.05037079;0;
198.2755;0;0;209.3824;0.2496441;11.74146;181.3796;179.7179;-0.2012991;-0.2452222;0;
162.2193;0;0;183.9972;6.546033;12.93536;146.8396;147.366;0.05877248;-0.1800085;0;
-394.0392;0;0;-334.9894;7.410111;11.31477;-401.0951;-401.3814;0.4485175;-0.0498929;0;
-666.6935;0;0;-622.4457;3.986414;15.32238;-672.9302;-671.4671;0.5780015;0.274994;0;
-332.5038;0;0;-332.903;5.723721;15.03905;-343.5443;-341.333;0.3825187;-0.1150864;0;
-235.2184;0;0;-235.6172;-5.868979;13.81824;-243.7491;-245.2881;0.05729762;-0.2449055;0;
-171.2016;0;0;-178.3466;-9.547753;13.40246;-180.9731;-183.4476;-0.07269464;0.08017734;0;
433.6665;0;0;386.1739;1.982416;9.10221;412.9728;412;0.2522151;0.01512942;0;
694.2245;0;0;658.0865;1.846703;8.021337;672.1149;668.0196;0.511831;0.08008157;0;
307.2212;0;0;314.4102;6.400175;3.45856;290.8808;285.3529;0.3164147;-0.3098029;0;
206.9627;0;0;210.7087;7.665565;2.115426;189.202;186.6781;0.5109988;-0.2445243;0;
169.8983;0;0;178.763;7.524141;-0.1639977;153.3423;151.5706;0.5754527;0.4703622;0;
-384.8062;0;0;-335.5957;10.06218;-2.709184;-392.7248;-395.1819;-0.009831573;0.2749875;0;
-665.0285;0;0;-626.6121;-4.081455;10.221;-671.1276;-671.5833;0.120113;-0.05012553;0;
-328.8414;0;0;-336.2531;-6.153459;13.69372;-340.4316;-339.7624;0.3148943;-0.1800098;0;
-224.0635;0;0;-233.5916;-9.830972;11.13461;-235.2048;-237.2848;0.2496106;0.1450077;0;
-165.3678;0;0;-185.3186;-14.91228;14.53955;-176.9351;-180.4498;0.1843924;0.4696988;0;
441.1186;0;0;378.3344;5.06337;7.960736;420.6299;418.5555;0.05427246;0.01445539;0;
702.981;0;0;655.3149;9.478911;6.546095;681.201;677.567;0.3140873;-0.05052647;0;
304.0998;0;0;304.4574;3.843309;15.44813;288.776;283.1466;0.2488044;0.07945899;0;
204.7815;0;0;203.3272;6.317694;16.70516;188.5985;185.7234;-0.01131501;-0.1804902;0;
172.0296;0;0;175.1369;4.771104;16.55441;156.4251;154.8022;0.0536637;-0.05037419;0;
-388.7989;0;0;-348.8382;4.698961;18.27933;-395.5172;-398.95;-0.01135756;0.1445785;0;
-664.1447;0;0;-637.0302;5.497547;14.71099;-667.9202;-670.9122;-0.01134615;0.0144985;0;
-323.2733;0;0;-339.6018;4.889786;14.62922;-331.2929;-333.9697;-0.07630209;-0.1154508;0;
-222.6864;0;0;-239.1859;1.803414;16.48992;-230.6355;-235.6833;-0.2061601;0.01459993;0;
-160.4313;0;0;-185.16;-0.4755735;16.13844;-170.4339;-176.726;-0.01105093;0.14452;0;
444.7383;0;0;380.9915;1.869429;21.14582;426.1251;420.5264;0.2488295;0.2093421;0;
700.725;0;0;651.4725;1.800202;22.73216;682.6927;675.7254;0.1836122;0.0142297;0;
308.2803;0;0;307.8029;-2.019024;20.16409;298.1373;290.3648;0.1834277;-0.1157193;0;
208.4581;0;0;213.2909;-1.950623;20.34478;197.4506;193.5591;0.118276;0.07929903;0;
166.6445;0;0;178.3441;-5.163844;19.58753;156.2104;153.9469;0.1831245;-0.18065;0;
-389.3685;0;0;-343.323;-6.631547;19.03198;-390.7967;-395.869;0.05300584;-0.05053383;0;
-658.4044;0;0;-626.0858;0.407714;18.87889;-658.8316;-663.7114;0.05295258;0.01448429;0;
-318.0385;0;0;-328.6058;0.8094459;18.59199;-325.087;-329.3997;0.3127687;-0.310367;0;
-219.206;0;0;-228.4508;5.430333;16.42986;-225.4978;-233.3669;0.1825198;0.1447163;0;
-164.3257;0;0;-180.6827;7.835774;14.93985;-170.7361;-179.5343;0.117369;0.2095382;0;
437.9743;0;0;385.7143;0.8616756;18.20687;424.199;417.7834;0.1172511;0.079393;0;
697.6534;0;0;662.8122;0.727088;18.1216;685.2039;677.8577;-0.01280139;0.2092479;0;
298.9025;0;0;311.5724;-5.234514;16.76373;293.3994;285.2486;0.1171462;-0.05083173;0;
197.528;0;0;215.6199;-8.578156;16.34499;190.2188;185.6994;-0.01290623;0.01418669;0;
172.467;0;0;196.8501;-3.14453;15.45779;165.8524;162.0246;0.1170414;-0.2456969;0;
-379.3665;0;0;-323.2739;-3.810955;15.6432;-378.2284;-383.9888;0.2468585;-0.4403521;0;
-658.5948;0;0;-616.364;-4.008197;10.80484;-657.083;-660.4014;-0.1431936;0.1447965;0;
-324.9129;0;0;-329.2637;-3.936821;9.655392;-329.6495;-331.6527;-0.1430497;0.339553;0;
-230.6961;0;0;-237.3539;-6.74688;12.52583;-235.4904;-240.9899;0.2468981;0.0143751;0;
-167.9957;0;0;-179.0821;-9.083649;12.84816;-173.0975;-179.4036;-0.07818672;-0.2455087;0;
438.9306;0;0;390.3742;-2.376717;13.70603;425.2132;421.4123;-0.3379775;-0.05035999;0;
694.236;0;0;659.2841;-0.5656673;13.02243;678.8458;673.9867;0.1821008;0.01465795;0;
308.7943;0;0;321.791;-15.36821;20.31024;299.1667;294.0626;0.05198315;-0.5050955;0;
211.4079;0;0;229.3889;-18.90274;21.69647;201.3526;200.1891;-0.1429711;-0.2447186;0;
159.7213;0;0;185.5553;-15.46749;17.52185;151.6751;151.4499;0.1820093;0.1453313;0;
-402.3442;0;0;-342.6157;-16.72475;17.97313;-401.6367;-403.7358;0.3117611;0.01525061;0;
-665.5574;0;0;-625.4417;-17.17646;6.03235;-665.8502;-667.135;0.3764151;-0.2446341;0;
-327.0585;0;0;-335.3961;-17.76241;1.471572;-335.0345;-336.8803;0.2461022;-0.5042576;0;
-227.8421;0;0;-237.0459;-11.18048;5.020066;-235.2479;-241.4022;0.05095293;-0.04897957;0;
-153.5879;0;0;-174.1517;-7.619271;3.206605;-163.7348;-169.9454;-0.273935;0.4058411;0;
447.0146;0;0;388.8029;-15.71594;3.873212;428.1947;424.2393;-0.3386271;0.0156292;0;
694.2535;0;0;655.528;-17.24137;4.405184;677.7638;671.8758;-0.2733195;-0.3741906;0;
305.2511;0;0;314.4779;-6.305702;5.405379;296.2742;289.8924;-0.5978816;-0.3088472;0;
203.9951;0;0;216.8358;-4.289634;6.538658;195.0272;191.5254;-0.4023788;0.1462345;0;
159.9996;0;0;179.3866;-9.242793;10.68491;151.4781;149.4165;0.1827316;0.5358916;0;
-402.1287;0;0;-352.0266;-8.897737;12.95159;-403.7701;-406.3918;0.4424174;0.08058176;0;
-671.0267;0;0;-642.9015;-14.4485;11.53194;-672.4167;-674.4735;0.3770055;-0.5042053;0;
-323.4644;0;0;-344.0929;-17.31437;11.3194;-332.0368;-334.279;-0.07814472;0.1459748;0;
-223.7518;0;0;-244.4845;-13.747;15.92973;-231.3161;-237.8039;-0.4029029;0.4056975;0;
-157.9349;0;0;-184.7687;-14.87226;17.92321;-164.6796;-173.0974;-0.4674654;-0.1794163;0;
445.1082;0;0;383.4439;-16.86608;7.188173;429.25;423.4643;-0.2720937;0.08063338;0;
691.8492;0;0;647.2383;-18.25565;4.635599;675.882;669.1651;0.1179838;0.210487;0;
307.8467;0;0;308.6328;-15.69269;8.917849;299.7041;291.6821;0.05289788;0.08034086;0;
214.4592;0;0;217.3684;-13.86826;8.239059;205.4502;200.4347;-0.01212261;0.3401295;0;
157.4597;0;0;168.9867;-23.09772;9.972215;150.896;146.3854;0.3776936;0.4047551;0;
-403.7914;0;0;-357.1687;-24.34731;10.83297;-401.2281;-407.4209;0.4422815;0.339381;0;
-660.5065;0;0;-627.7361;-20.16966;11.75985;-658.1956;-662.3831;0.5068044;0.2091053;0;
-329.7587;0;0;-339.0626;-20.75261;13.28864;-333.1348;-336.0063;0.5712625;-0.05097415;0;
-234.6625;0;0;-245.7687;-13.56446;13.07434;-237.5355;-243.5275;0.1808844;0.01404441;0;
-148.6573;0;0;-167.9982;-12.41175;13.93198;-152.9642;-160.1371;-0.2740687;0.07899766;0;
453.7518;0;0;401.447;-7.844931;14.45384;440.7662;435.1622;-0.59863;0.1438856;0;
696.1113;0;0;662.912;-3.751211;14.17139;681.6395;674.8542;-0.4680938;0.2736757;0;
308.5439;0;0;323.2288;-19.35386;17.03729;300.0835;293.0552;-0.5325909;0.3383681;0;
209.471;0;0;225.8278;-22.34852;17.28811;200.9567;197.0588;-0.6619904;0.1431261;0;
171.0297;0;0;192.8049;-17.77171;14.85935;164.5229;161.2537;0.1182829;-0.2468218;0;
-393.7958;0;0;-333.7493;-19.22772;14.04075;-390.9258;-394.9413;0.7678374;0.07826291;0;
-674.3214;0;0;-625.3297;-14.85415;11.95017;-670.5172;-673.0295;0.3772619;0.2730863;0;
-326.6308;0;0;-322.6657;-12.36097;11.26833;-329.0148;-331.0872;0.1819808;0.07790987;0;
-222.1674;0;0;-221.0799;-16.30067;6.03246;-223.612;-228.1811;0.3117326;-0.1820378;0;
-157.664;0;0;-165.2607;-15.54735;3.481169;-159.357;-165.1084;0.3114194;-0.3117896;0;
448.065;0;0;404.3691;-7.56113;9.238082;437.6281;432.4447;0.2461391;0.07832779;0;
697.989;0;0;672.0156;-5.141659;9.898506;685.8134;678.6362;0.3758265;0.4030858;0;
306.6714;0;0;327.2008;-4.333186;9.486663;300.5676;292.3356;0.3104815;-0.05209063;0;
210.2866;0;0;231.4825;-4.596275;10.48187;203.0645;198.339;-0.1446019;0.01292905;0;
161.912;0;0;189.7083;0.431209;10.27039;155.1344;151.3507;0.1154128;0.5326548;0;
-397.9069;0;0;-337.3425;1.43613;10.32706;-395.3698;-400.8364;0.5700682;0.3372176;0;
-660.7498;0;0;-617.6125;-9.014163;11.72332;-656.7784;-660.303;0.5045281;-0.1178927;0;
-328.7523;0;0;-329.6364;-10.6127;11.24266;-330.907;-333.6159;0.1142171;-0.05280688;0;
-233.6572;0;0;-235.6022;-21.58772;11.63326;-234.8102;-241.4518;-0.4706038;0.07718088;0;
-150.9638;0;0;-163.839;-26.52252;11.95649;-154.8018;-161.8116;-0.6650329;0.01213597;0;
455.5706;0;0;401.2917;-22.34269;5.17932;440.9919;436.3004;-0.7942994;0.1420585;0;
693.9302;0;0;655.7604;-25.267;3.901562;678.6166;672.4306;-0.5336319;0.2718504;0;
304.366;0;0;314.9599;-11.10906;4.165573;296.0017;288.5725;0.5063818;0.07667524;0;
212.1688;0;0;221.94;-6.275131;4.697129;204.5001;199.952;0.895677;-0.3132059;0;
166.7284;0;0;183.6112;-13.23505;4.290512;161.816;158.147;0.3750383;-0.1829565;0;
-397.5306;0;0;-340.9972;-10.94458;4.21934;-393.4426;-398.4822;0.2447268;0.07709674;0;
-668.3074;0;0;-626.4484;-13.4782;15.13295;-663.8486;-666.5094;-0.08035584;-0.2478175;0;
-322.3719;0;0;-328.2185;-14.26894;17.73008;-324.7267;-326.1979;-0.4051118;-0.3775031;0;
-224.0347;0;0;-234.873;-8.292754;21.06129;-227.3867;-232.6045;-0.2747701;-0.0522871;0;
-165.5889;0;0;-187.0984;-6.409388;22.98263;-172.1234;-177.5234;-0.01462461;0.01273278;0;
443.0216;0;0;382.1161;-11.8953;19.34258;426.1239;422.2286;0.1153248;-0.05224736;0;
694.2;0;0;647.7234;-12.08442;18.98823;676.3823;670.0546;0.2451436;0.01277248;0;
299.0757;0;0;298.1855;-9.727756;7.984197;288.6472;281.8886;0.3098646;-0.4420117;0;
211.1942;0;0;210.3673;-10.52226;3.689389;201.0885;198.2722;0.1146512;-0.5715023;0;
169.3155;0;0;177.6723;-2.004249;0.7384325;161.7186;159.7797;0.114536;0.2736474;0;
-393.0721;0;0;-344.3689;0.1412192;-2.7453;-391.0411;-394.4148;0.1793883;0.3383398;0;
-657.4815;0;0;-622.6953;-3.208802;-0.8001584;-654.5156;-656.4491;-0.1456287;-0.3116736;0;
-326.8617;0;0;-338.3997;-2.401294;-1.268113;-330.9577;-332.8893;0.114387;-0.1814258;0;
-228.7699;0;0;-243.6072;-9.097662;3.823742;-233.9862;-239.5391;0.3741414;0.273528;0;
-144.5198;0;0;-170.2741;-11.83421;5.896249;-151.48;-157.527;0.04892879;0.3382204;0;
455.9487;0;0;395.4877;-6.999549;10.98091;441.6866;437.0201;-0.1460224;0.07801124;0;
689.9352;0;0;651.7737;-5.719718;14.38588;677.0618;670.5258;0.2439284;-0.1169692;0;
300.1875;0;0;310.4151;-15.22579;13.50077;293.9487;286.7946;0.1787159;0.1430177;0;
211.243;0;0;222.897;-17.55502;15.49657;203.4487;199.8625;-0.1463003;0.337776;0;
166.0533;0;0;184.005;-8.092906;10.25645;157.6422;155.1216;0.308618;-0.05236742;0;
-398.1425;0;0;-344.8517;-7.883704;8.571693;-399.6112;-404.1907;0.5032099;-0.1822495;0;
-658.7363;0;0;-616.6808;-0.4410425;8.964978;-658.3918;-661.8424;0.1129003;-0.05213167;0;
-313.1852;0;0;-312.2139;3.043001;6.477602;-317.1515;-318.5371;-0.1470825;0.01288805;0;
-218.418;0;0;-217.76;-4.127352;10.22202;-221.3183;-225.3262;0.0479673;-0.05209224;0;
-147.4216;0;0;-155.7598;-3.1852;10.41269;-152.318;-157.009;-0.1469829;0.01292745;0;
459.9213;0;0;414.1104;-11.35367;5.78053;445.6595;442.9098;-0.4716719;0.4027185;0;
699.2136;0;0;672.2518;-14.75852;6.176619;684.4665;679.7205;-0.276296;0.3373465;0;
299.9614;0;0;320.9401;-10.12199;0.6779343;291.351;285.9226;-0.1460837;-0.2476985;0;
208.8306;0;0;226.4774;-12.38899;-1.332113;198.917;196.68;-0.08096955;0.1423544;0;
168.9532;0;0;191.7672;-6.013531;5.233309;158.9871;157.0022;0.1789812;0.4020807;0;
-391.0601;0;0;-330.8504;-4.53362;4.826153;-394.2696;-396.9397;0.113834;0.01187267;0;
-654.4096;0;0;-608.3783;-10.89305;12.32327;-655.6169;-655.848;-0.08118241;0.1417954;0;
-322.2937;0;0;-318.2875;-11.35062;15.25801;-326.9355;-325.7921;-0.2110355;0.4015223;0;
-233.4518;0;0;-232.6981;-12.54467;7.137992;-237.027;-239.9452;-0.2757908;0.1412495;0;
-153.5073;0;0;-165.0606;-12.66578;6.527974;-158.828;-163.9922;-0.2755137;-0.05379445;0;
457.2775;0;0;409.3166;-15.80186;3.17239;443.279;439.0571;-0.2102695;0.01122694;0;
691.7;0;0;658.4673;-16.38822;1.025748;677.8405;671.7487;-0.1450909;0.3360524;0;
299.1394;0;0;311.5423;-16.7739;2.096445;291.5407;285.4551;0.1798916;0.20578;0;
213.944;0;0;230.0201;-19.36901;2.429253;204.6663;202.5848;0.2446782;-0.05429612;0;
162.2549;0;0;185.6236;-2.001823;-4.003428;153.4238;152.2814;-0.01543704;0.07569314;0;
-400.9376;0;0;-343.1721;3.693615;-6.745583;-401.4516;-404.092;0.1145132;0.1405844;0;
-660.0918;0;0;-616.8146;-8.232814;5.920603;-658.9186;-661.1191;0.2443328;0.07547582;0;
-330.8437;0;0;-330.2136;-6.081088;7.321295;-335.2314;-336.8675;0.04918525;0.2053347;0;
-231.3111;0;0;-234.3673;-12.23692;8.720581;-235.0072;-240.2649;-0.01583152;0.140161;0;
-145.7466;0;0;-161.4184;-13.76584;10.58722;-149.8763;-157.5024;-0.01581561;0.2049875;0;
455.8475;0;0;401.7733;-3.771674;3.878531;441.852;436.7322;-0.2107017;0.2697489;0;
694.8317;0;0;654.4299;-1.959223;3.271787;678.6638;672.3622;0.04937934;0.4643798;0;
308.14;0;0;310.6948;4.540456;-5.372176;296.9234;288.6292;-0.01563762;0.4639133;0;
220.4993;0;0;221.8646;8.018518;-8.983735;207.8571;203.132;-0.5353606;0.3335124;0;
170.053;0;0;178.7882;11.82788;-10.11342;159.3601;156.2638;-0.1450187;0.2032426;0;
-394.7716;0;0;-348.0642;15.36694;-14.59099;-396.8331;-401.1131;0.1149964;0.1380711;0;
-659.1793;0;0;-625.325;9.255933;-0.7112281;-660.2393;-662.2036;0.1148809;0.07296499;0;
-330.2445;0;0;-338.9652;7.30425;3.040531;-336.2383;-337.0763;-0.01516924;-0.1220104;0;
-231.712;0;0;-244.7968;12.78927;-5.201303;-237.6999;-242.2226;0.04981334;-0.1868551;0;
-142.0866;0;0;-167.1522;13.24493;-2.449776;-150.7546;-155.5852;0.3096327;-0.2516347;0;
471.6227;0;0;411.7873;1.242531;-9.413418;454.4053;451.766;-0.2753845;0.07345486;0;
703.2197;0;0;660.5608;-2.37604;-11.48031;686.3943;681.0091;-0.1451731;0.4631851;0;
298.2788;0;0;302.8265;0.9752504;3.535038;288.4668;281.3378;0.5046461;0.332785;0;
210.3981;0;0;218.5645;0.3720342;6.344647;200.9083;197.0349;-0.1455344;0.007613907;0;
160.4617;0;0;176.4284;-0.7000666;7.543965;152.0434;149.5482;-0.3402901;-0.2522631;0;
-407.664;0;0;-355.9813;-0.8340611;10.75144;-408.765;-411.6951;-0.1450462;-0.05710761;0;
-658.3157;0;0;-621.8024;5.329695;5.984974;-659.5405;-660.1563;-0.1449004;0.3327538;0;
-323.0724;0;0;-328.5122;7.467793;5.778012;-330.1681;-330.221;-0.01482017;0.2024848;0;
-235.5416;0;0;-240.3512;7.795082;6.308069;-240.7561;-243.9324;0.1800967;0.3971834;0;
-143.9759;0;0;-157.7136;8.456835;5.029055;-149.4974;-152.8579;0.2448831;0.5916863;0;
467.7364;0;0;419.2174;12.40045;6.832541;453.912;451.8043;-0.0152323;-0.1885163;0;
693.3403;0;0;664.0479;14.99996;7.428522;678.7802;674.8005;0.179685;-0.3182616;0;
298.5917;0;0;316.6175;4.73711;2.732375;288.7314;284.5058;0.3744065;0.07186225;0;
216.2079;0;0;232.0292;3.861694;2.52868;203.2966;202.511;0.1791283;-0.1880793;0;
169.1392;0;0;188.3179;1.043799;1.588379;157.2403;155.9558;0.308883;-0.122923;0;
-400.6194;0;0;-344.3537;-2.172431;-0.2887396;-402.4489;-406.7931;0.1786379;0.3969392;0;
-665.1462;0;0;-622.3677;11.69485;12.63901;-666.7864;-669.1898;-0.276313;0.07170369;0;
-330.3333;0;0;-330.5762;14.63084;16.71215;-338.0938;-338.808;0.04880138;-0.2532051;0;
-238.9847;0;0;-238.7276;12.87483;9.595288;-244.9258;-248.7627;0.3086217;0.2018207;0;
-156.161;0;0;-164.2125;15.20641;10.72436;-163.6579;-168.1157;-0.4712965;0.2665853;0;
461.2481;0;0;415.8485;10.63581;10.11073;444.1386;441.6843;-0.7956597;-0.188454;0;
699.1024;0;0;668.9907;8.347944;10.03359;681.5103;676.9346;0.04971529;-0.3181993;0;
300.1626;0;0;314.3089;17.24817;10.42541;288.5852;282.6397;0.8292734;-0.0580102;0;
209.9686;0;0;224.0383;19.57536;9.477172;198.0905;195.3994;0.5036035;0.07198279;0;
157.7838;0;0;181.1472;3.278714;14.42426;149.1035;146.9773;-0.146576;-0.05802424;0;
-404.0924;0;0;-342.8965;-0.8104175;15.28055;-403.6435;-407.0794;-0.211396;-0.1229333;0;
-652.7487;0;0;-607.7937;5.419687;14.66235;-652.3627;-653.5463;-0.2111836;-0.05784241;0;
-321.8213;0;0;-320.577;4.276142;16.25521;-326.8705;-326.8035;-0.0160694;0.07215041;0;
-235.916;0;0;-236.9843;4.874082;10.3445;-240.8976;-242.6423;-0.08102059;0.2669799;0;
-146.1614;0;0;-159.6599;4.936533;9.463324;-153.0121;-154.88;-0.4057759;0.331679;0;
464.741;0;0;413.4001;5.802229;11.53029;449.9636;448.8473;-0.08053146;0.1364437;0;
695.0955;0;0;659.2984;5.862772;10.91585;680.4579;676.9064;-0.08045054;-0.1235628;0;
302.7189;0;0;313.1221;9.340482;14.78977;293.9056;289.733;-0.145337;0.006496075;0;
215.0212;0;0;227.4129;12.14414;14.8419;204.0928;203.61;0.1796457;0.0714569;0;
164.3929;0;0;183.144;0.7450781;19.44868;154.725;154.1802;0.1144978;-0.1884843;0;
-401.9252;0;0;-345.8992;-1.265403;22.10846;-401.6509;-404.444;0.1143828;-0.0583602;0;
-663.3272;0;0;-621.6003;3.492267;11.36922;-662.616;-663.0949;0.2442026;0.2665352;0;
-321.2073;0;0;-327.8106;2.215961;9.013391;-327.5558;-326.9098;0.3089245;0.2013;0;
-225.3701;0;0;-235.4025;7.973534;11.41572;-231.4623;-233.9404;0.04874474;-0.05877165;0;
-149.9314;0;0;-168.6994;8.301291;9.461745;-156.1424;-159.9924;-0.3411083;-0.05871259;0;
465.4724;0;0;409.617;9.63212;10.52396;451.2717;449.1123;-0.1458635;-0.318523;0;
700.199;0;0;662.9529;11.02896;10.11149;685.3879;682.3561;-0.01578227;-0.4481376;0;
293.1372;0;0;302.7799;-1.976565;6.953257;284.8377;280.0598;-0.08073375;0.007084087;0;
207.698;0;0;218.1431;-7.198516;5.874543;198.6572;196.6327;-0.4054893;0.07204433;0;
160.3255;0;0;180.0679;-0.5608267;7.275282;153.1053;151.7701;-0.3401146;0.1369393;0;
-407.6127;0;0;-351.0961;-0.8950558;8.004784;-406.7672;-410.225;0.1799659;0.3966711;0;
-655.0786;0;0;-615.2354;-12.54845;4.580611;-656.4202;-656.5638;-0.08008427;0.07143576;0;
-318.9015;0;0;-323.2012;-14.47823;4.308077;-326.5511;-325.5701;-0.01503646;-0.05857072;0;
-234.061;0;0;-238.2315;-14.79945;7.585912;-239.4541;-243.7215;0.3747827;0.1363902;0;
-138.2489;0;0;-152.0353;-16.59226;8.382085;-144.1988;-149.3364;0.0495694;-0.1885836;0;
470.834;0;0;420.8296;-6.395163;10.71794;457.0815;454.0105;-0.3402845;-0.05845942;0;
688.3763;0;0;656.3506;-5.31701;11.44399;674.6376;669.3208;-0.3399425;0.4613381;0;
299.942;0;0;313.3632;2.659912;14.37961;290.7773;284.3415;-0.2096663;0.4608745;0;
218.6188;0;0;233.7757;6.407307;15.77181;208.5888;205.2829;-0.07952092;0.07060737;0;
163.4893;0;0;187.8763;-1.502385;11.73711;155.7182;153.9148;0.2453957;-0.2543003;0;
-404.6395;0;0;-342.1712;-0.2280777;11.45738;-404.3444;-406.6457;0.3750838;-0.4489468;0;
-661.1038;0;0;-612.254;-12.8875;7.427013;-660.2467;-660.6092;-0.1450318;-0.05869164;0;
-315.0507;0;0;-310.6026;-16.2908;5.142131;-319.3793;-318.2422;-0.2098534;0.1362694;0;
-218.7823;0;0;-212.9019;-15.67122;7.280418;-221.7323;-223.345;0.0502268;-0.05876959;0;
-145.4118;0;0;-145.6592;-19.40652;6.06741;-149.7956;-151.4066;-0.209693;-0.05871054;0;
462.9286;0;0;422.9514;-3.981677;9.00844;449.2414;449.3187;-0.4043844;-0.05865155;0;
699.0945;0;0;674.15;-0.8288682;10.40603;685.9833;682.8121;-0.2740434;0.1363094;0;
295.9069;0;0;317.9013;1.716584;6.309737;288.9932;285.7627;-0.2088006;0.3960418;0;
204.4679;0;0;224.816;6.872423;6.638312;195.6871;196.1455;-0.2735582;0.3956439;0;
158.0357;0;0;183.1734;-2.176812;7.033539;151.0128;151.0335;0.1814881;0.07040963;0;
-406.3395;0;0;-346.3695;-2.040903;7.026472;-405.047;-406.2757;0.6360771;-0.1245632;0;
-655.7432;0;0;-612.7625;-0.497635;13.31569;-655.264;-653.9927;0.3106013;0.005496685;0;
-317.0667;0;0;-318.232;-0.8992766;16.24943;-322.9598;-321.3775;-0.01454754;-0.05947618;0;
-232.9777;0;0;-234.704;-0.2951606;13.62077;-238.4276;-240.3451;-0.07950026;0.1354856;0;
-140.5399;0;0;-153.5089;-1.366591;14.81278;-147.4837;-149.9614;0.05051431;0.3302515;0;
474.2298;0;0;423.2305;4.193511;17.1423;459.4221;457.5714;0.05046355;-0.05988439;0;
692.206;0;0;657.8121;4.390369;17.393;676.1638;671.6288;-0.0145545;-0.05982422;0;
298.0833;0;0;309.326;4.921821;20.59059;285.9301;281.6497;-0.07950722;0.07017059;0;
214.8879;0;0;226.1818;5.386366;20.50291;201.685;201.2819;-0.2743294;0.005132725;0;
151.9535;0;0;168.1711;-0.7819642;22.42482;141.3876;141.0473;-0.2090864;-0.1248071;0;
-408.7299;0;0;-358.1709;-1.651835;23.8088;-411.2268;-413.1909;-0.1439089;-0.189649;0;
-645.8248;0;0;-611.7458;-8.080536;12.73306;-651.0678;-649.844;-0.468601;-0.05952381;0;
-308.5951;0;0;-318.3409;-9.813729;10.30888;-320.8293;-317.7951;-0.07832614;0.135438;0;
-224.7645;0;0;-235.375;-13.15277;8.958865;-233.8005;-234.9548;0.376524;0.07033461;0;
-143.0796;0;0;-166.4855;-17.49381;5.39989;-152.4813;-154.8214;0.05130892;0.005296584;0;
467.0076;0;0;407.2685;2.95295;15.50864;449.307;448.2811;-0.403514;-0.1896108;0;
697.5472;0;0;656.4213;7.907453;17.43557;680.3017;676.0909;-0.1432392;0.1354165;0;
295.2981;0;0;297.5043;-1.478592;12.66238;283.3173;277.3617;-0.07812794;0.5250844;0;
203.36;0;0;205.8763;-0.270681;13.52031;189.2048;187.0033;-0.2729515;0.1347528;0;
155.9294;0;0;166.7514;0.1307565;12.10021;142.538;141.5257;-0.01280783;0.004682709;0;
-405.0079;0;0;-358.1523;2.006635;11.41822;-409.8276;-412.3382;-0.01279496;0.19958;0;
-649.9152;0;0;-617.5994;-9.784377;14.75577;-653.2932;-653.4275;0.1821199;0.06944482;0;
-309.9327;0;0;-318.254;-13.86038;15.54474;-317.4303;-317.4395;0.05200224;-0.1904943;0;
-229.474;0;0;-235.6006;0.7555797;12.64898;-234.7153;-238.7224;-0.2728867;-0.3202376;0;
-138.1018;0;0;-154.7169;2.295062;12.23437;-144.2123;-148.2155;0.1171915;-0.1250138;0;
473.9169;0;0;420.2122;4.838351;11.41828;457.8176;455.1303;0.05210643;-0.1248882;0;
688.2703;0;0;652.423;8.650907;9.665252;670.2505;665.5045;-0.2078153;-0.18973;0;
300.5857;0;0;309.1897;-0.8686301;15.95181;288.1438;282.2781;0.1821976;0.3301993;0;
222.3228;0;0;230.6683;-4.417731;17.67734;208.3318;205.5954;0.5068512;0.2649002;0;
157.4444;0;0;175.5891;10.59089;12.1671;145.0291;143.8572;0.1165379;-0.12517;0;
-408.7417;0;0;-352.8218;13.39328;13.62838;-411.9617;-413.9445;-0.1434486;0.004890429;0;
-649.3973;0;0;-608.5261;-3.433013;6.380771;-651.2397;-651.0342;0.2464996;0.06985287;0;
-309.7278;0;0;-310.5016;-6.443674;4.09694;-315.3789;-314.9861;0.1163172;-0.1900867;0;
-225.3963;0;0;-225.1074;-8.379582;18.49379;-230.2296;-233.398;-0.2736037;-0.1249284;0;
-137.5888;0;0;-148.4821;-11.92114;22.36021;-145.9156;-149.1432;0.1164753;0.005131855;0;
478.9896;0;0;428.6895;-8.158113;22.00283;461.1135;458.8886;0.3112603;-0.05984064;0;
701.0839;0;0;669.0752;-9.020572;25.32975;682.7885;678.8167;0.1160455;-0.1247479;0;
294.7084;0;0;311.7697;-5.930049;27.11284;282.116;278.0857;0.05096153;0.005312174;0;
208.3305;0;0;224.0004;-4.317476;28.76004;194.5639;194.2233;-0.1439917;0.07027419;0;
158.1463;0;0;178.548;-7.996833;31.14253;145.7054;146.9268;0.05105501;-0.05973112;0;
-409.7272;0;0;-351.6774;-8.725732;31.17822;-414.7844;-415.0634;0.5057751;0.330133;0;
-654.8171;0;0;-614.3793;-4.430057;30.54405;-660.9312;-659.5233;-0.01447184;0.4597359;0;
-310.3945;0;0;-319.4724;-3.4876;28.7718;-321.7497;-320.0309;-0.4042614;-0.06046476;0;
-229.8104;0;0;-239.9412;-7.03407;26.53258;-239.0928;-241.2487;0.1808509;0.004563334;0;
-140.6242;0;0;-158.491;-5.887926;24.96531;-151.0842;-153.5503;0.3755713;0.06952611;0;
475.9572;0;0;421.1895;-15.5949;13.55337;456.3249;454.7358;-0.3394469;0.004488888;0;
692.1826;0;0;654.6487;-19.39665;8.717102;672.1326;668.0464;-0.4040731;0.3293211;0;
300.9333;0;0;306.2282;-6.31634;8.641359;286.5883;282.5061;0.05110425;0.1340882;0;
220.5462;0;0;224.399;-5.439338;4.54684;203.9042;204.0116;-0.07888179;0.004018742;0;
152.9835;0;0;167.7019;-1.749201;11.03949;138.2947;139.5889;-0.3386719;0.4587861;0;
-415.697;0;0;-361.4507;1.601459;11.89918;-419.5015;-419.8952;-0.01349489;0.2634231;0;
-653.6595;0;0;-614.2728;-7.64355;6.729659;-656.8979;-655.9169;0.3763227;0.1332237;0;
-310.7372;0;0;-316.8672;-8.842295;7.25876;-320.4066;-319.3018;0.1160752;0.2630245;0;
-229.5281;0;0;-238.5255;-6.756329;4.170252;-238.8131;-240.5204;-0.1439108;-0.1270438;0;
-140.717;0;0;-162.0742;-7.084333;3.295284;-152.4289;-154.5093;-0.07879883;-0.2568508;0;
479.1129;0;0;417.9222;-10.42612;6.239222;458.3548;457.5883;-0.01375231;-0.2565928;0;
703.3935;0;0;657.4442;-11.68844;6.500884;683.2809;680.8286;0.1161962;-0.1913676;0;
304.1995;0;0;303.3987;-6.452757;9.374496;290.8538;287.9042;0.4409162;0.3285635;0;
214.2514;0;0;214.9507;-4.838684;11.37456;200.3569;200.4712;0.5054405;0.5881027;0;
158.3141;0;0;167.2585;-6.708856;8.013988;146.1203;146.2344;0.05016119;0.6524791;0;
-404.8744;0;0;-358.7077;-6.299973;7.938953;-408.3105;-410.4453;-0.0798239;0.1320847;0;
-651.5309;0;0;-617.9668;-1.739291;12.5528;-653.6517;-654.5974;0.050191;-0.257852;0;
-305.5498;0;0;-315.0603;-0.8668875;13.67877;-313.5405;-314.1105;-0.01482678;-0.06269093;0;
-218.0367;0;0;-229.3492;3.823033;12.32549;-225.7069;-230.0245;-0.07977922;-0.25753;0;
-132.7353;0;0;-157.0299;8.172472;12.11216;-142.2095;-147.8345;0.2451376;-0.3222385;0;
480.7772;0;0;417.6516;-7.844295;12.97064;461.7549;458.072;0.2448913;-0.06204538;0;
700.1212;0;0;657.5486;-11.58746;12.6227;680.5557;675.1274;-0.08019144;-0.1269504;0;
304.866;0;0;311.5615;0.2805314;11.47143;290.2552;283.9578;0.04982382;-0.1268228;0;
223.9751;0;0;230.9138;-0.5240337;11.39292;207.2551;204.2749;0.1797084;-0.2566301;0;
161.7812;0;0;175.1472;5.63941;5.688041;147.2644;143.725;-0.01537416;-0.06147018;0;
-408.8446;0;0;-359.0104;8.379435;3.136974;-414.4763;-419.0117;-0.1452934;0.7831671;0;
-645.627;0;0;-611.6475;-1.207179;8.760266;-649.7538;-651.2237;-0.08018006;0.9123147;0;
-303.8997;0;0;-312.8078;-1.809178;9.153362;-312.5826;-313.5512;0.3097045;0.3916593;0;
-229.5691;0;0;-236.7816;-8.170373;5.996089;-238.9928;-242.3343;0.3743607;-0.1934403;0;
-135.0733;0;0;-154.3349;-13.11866;4.98532;-146.9863;-150.5119;-0.2756889;-0.4531153;0;
480.7529;0;0;424.3418;-4.130494;9.735977;460.9808;458.7082;-0.5352812;-0.257758;0;
690.4767;0;0;655.2367;-4.795928;11.33378;670.5995;666.9549;-0.3398413;-0.1275643;0;
302.1028;0;0;313.5622;-8.474805;5.160089;288.8048;283.9769;-0.07963051;-0.3223381;0;
223.9633;0;0;237.0979;-8.332567;4.886972;211.0535;208.6668;0.2452862;-0.4519489;0;
154.5231;0;0;178.1392;-15.55786;4.413181;143.5628;141.4908;0.1800724;-0.06169074;0;
-416.5327;0;0;-357.5206;-17.14982;3.8059;-420.0482;-423.8048;0.3747935;0.3281753;0;
-651.3709;0;0;-609.2847;-17.53473;8.088861;-655.8824;-658.0735;0.3094496;0.1329435;0;
-302.5164;0;0;-303.0136;-19.25842;9.152461;-312.3957;-314.2722;-0.2755674;-0.1920268;0;
-225.8134;0;0;-228.8712;-10.79898;10.34896;-233.4963;-238.7443;-0.2103232;-0.2568012;0;
-139.3798;0;0;-155.6779;-8.17616;11.00839;-147.9296;-153.2972;0.04975748;-0.3215105;0;
480.3863;0;0;428.1226;-11.04833;15.55204;463.6617;459.7987;-0.01525986;0.003649289;0;
696.8571;0;0;664.136;-9.697084;18.28259;680.5865;674.3536;0.04972282;0.3934497;0;
298.919;0;0;313.7071;-8.549241;10.09255;289.8488;283.5596;-0.1452292;0.2631197;0;
214.5984;0;0;233.2446;-8.072137;8.9437;205.7871;203.2524;-0.0801159;0.002985898;0;
151.9766;0;0;179.1623;-5.920572;10.87722;144.7984;142.8909;0.2448013;0.002982898;0;
-409.8313;0;0;-350.0643;-5.11034;9.660596;-408.3816;-411.7239;-0.01531403;0.06794725;0;
-642.4273;0;0;-601.5234;-8.052941;13.20086;-641.229;-643.7559;-0.3401354;0.002911627;0;
-301.5778;0;0;-306.8169;-8.848157;13.72346;-307.4397;-309.3393;-0.4697283;0.1328434;0;
-225.5629;0;0;-233.6702;-9.5762;11.03048;-230.8566;-235.7528;-0.4692563;0.327612;0;
-130.8212;0;0;-151.1018;-11.24054;9.813701;-139.233;-145.0614;-0.1439481;0.1973481;0;
488.499;0;0;428.0715;-7.880345;13.62175;468.5389;464.9028;0.1160659;-0.2576216;0;
698.5898;0;0;655.0895;-7.00177;14.54582;678.7122;673.3932;0.1809167;-0.1274281;0;
301.1498;0;0;305.2318;-11.81751;8.23493;288.1638;282.1629;-0.2090692;0.002634637;0;
218.8259;0;0;224.2782;-11.67191;8.09269;206.1028;202.4818;-0.6636305;-0.06233535;0;
154.076;0;0;166.7066;-13.13405;2.324148;144.1143;139.8097;-0.533029;0.262564;0;
-407.4217;0;0;-362.7573;-13.85681;-0.7592806;-410.8766;-415.3643;0.2471147;0.3922349;0;
-640.7698;0;0;-615.8279;-6.541871;12.30279;-644.5961;-646.2057;0.5717031;-0.06293066;0;
-297.0484;0;0;-312.8611;-4.459192;15.97449;-304.1817;-306.6017;-0.1435121;-0.1278348;0;
-219.976;0;0;-231.525;-0.1014311;13.21214;-224.9158;-231.5188;-0.533172;0.06719572;0;
-140.7947;0;0;-161.8897;4.58772;17.41866;-146.8539;-153.95;-0.3377342;0.1320955;0;
477.8484;0;0;418.6062;-3.789634;13.11438;462.7998;456.9602;-0.6622316;0.2618975;0;
704.3792;0;0;659.3769;-4.723832;12.6993;687.9089;679.8263;-0.5316315;0.196667;0;
302.0608;0;0;300.5818;6.466699;27.02064;291.0418;282.3426;-0.07632587;0.131502;0;
216.7375;0;0;217.8213;8.872074;29.27079;205.3548;200.2875;-0.2711512;0.06640257;0;
159.1111;0;0;172.6875;8.193575;32.45656;151.9877;148.4872;-0.01100938;0.06633585;0;
-417.5715;0;0;-362.717;11.06573;34.76823;-414.3804;-418.3771;0.248871;0.6509753;0;
-656.6566;0;0;-617.9116;6.967798;24.82006;-654.2808;-657.0865;0.05371895;0.5203865;0;
-297.427;0;0;-304.5729;7.898802;22.38374;-301.5503;-305.1653;0.248567;-0.1947772;0;
-216.731;0;0;-222.9952;10.90497;16.66794;-219.9132;-227.6475;0.3782519;0.06528792;0;
-131.0562;0;0;-144.4355;11.5636;12.56523;-135.2971;-143.461;-0.01193219;0.195157;0;
481.3927;0;0;436.6051;17.84862;9.940396;469.7223;464.3152;-0.4017242;-0.1298758;0;
686.8055;0;0;661.3033;18.4339;6.782332;674.8969;668.6832;-0.2064186;0.06515672;0;
300.1219;0;0;317.4363;27.7925;9.38773;293.0354;285.7035;-0.01130914;0.06509124;0;
223.2338;0;0;245.091;31.98413;9.244331;216.2169;212.2657;-0.3361345;-0.1298762;0;
146.0482;0;0;178.2532;18.89118;11.84738;142.5366;139.1516;-0.4007641;0.2600584;0;
-414.2545;0;0;-351.0349;17.93419;13.37596;-409.6417;-414.3976;0.05441;0.3897317;0;
-638.163;0;0;-590.9364;10.94995;17.24741;-634.1795;-636.0571;0.18429;0.06450343;0;
-299.5042;0;0;-291.1805;5.915102;20.71319;-300.5846;-302.2104;0.1191375;0.324308;0;
-224.3658;0;0;-213.8017;13.94711;15.13291;-223.6336;-229.0684;0.3139198;0.1940474;0;
-135.435;0;0;-137.5626;12.86137;15.18469;-137.2022;-142.6316;0.2486371;0.1288851;0;
480.2042;0;0;435.85;14.58976;18.25053;468.8186;463.8944;0.1184525;0.2586903;0;
695.6132;0;0;666.0461;15.58045;18.16521;683.8642;675.4468;0.1183335;-0.1963411;0;
294.0532;0;0;308.8061;9.067086;20.22342;287.5634;277.9675;0.05324727;-0.001241736;0;
214.1103;0;0;227.9113;6.244936;20.47104;205.9403;200.602;-0.07674092;0.2586289;0;
162.0462;0;0;182.9548;13.13754;19.57969;155.0089;151.3625;-0.4015005;0.1284343;0;
-409.7043;0;0;-352.7099;14.59821;19.627;-408.3638;-413.8805;-0.4010971;0.25824;0;
-652.4828;0;0;-611.3503;2.057607;16.72713;-651.1437;-655.0307;-0.2707594;0.1930131;0;
-297.8177;0;0;-302.5159;0.4489251;15.70558;-302.4769;-305.2355;-0.20552;0.1928192;0;
-217.6836;0;0;-224.626;2.256159;14.41712;-220.1517;-227.8426;-0.4002155;0.2575928;0;
-137.3801;0;0;-154.4354;3.861482;12.72806;-141.4699;-150.0901;-0.2698787;-0.1324701;0;
477.6364;0;0;425.116;3.188017;13.58605;464.4303;458.3175;-0.2046402;-0.2622717;0;
690.7366;0;0;657.1345;3.989097;11.56304;678.2309;670.1877;-0.3343692;0.1927633;0;
298.5518;0;0;309.0239;18.38605;14.63251;291.8683;283.9581;0.2506728;0.452439;0;
224.9762;0;0;235.1254;20.77848;14.48384;216.5502;212.3961;0.3803556;-0.002787073;0;
150.2875;0;0;170.1716;40.1824;6.900338;143.4942;139.3443;0.1201041;-0.1976863;0;
-421.4512;0;0;-366.1049;50.7246;4.549124;-419.2422;-424.325;0.2499181;0.1273491;0;
-639.8552;0;0;-604.3046;22.07277;0.7936304;-637.3361;-641.2269;0.05476495;0.1272211;0;
-296.3221;0;0;-305.0975;18.43327;-1.484587;-299.74;-303.7518;-0.07522476;0.257028;0;
-222.124;0;0;-230.7032;21.89835;-4.564188;-224.2891;-231.6077;0.0547855;0.126835;0;
-124.6372;0;0;-146.1387;17.79051;-6.435124;-128.2994;-136.86;-0.2051389;-0.2630965;0;
483.3075;0;0;425.4084;21.45633;-3.615497;470.7785;464.3503;-0.3348675;-0.06793012;0;
688.0312;0;0;649.1183;21.36742;-3.678725;675.2025;667.7813;-0.2695636;0.1270402;0;
290.4144;0;0;295.7683;16.7916;2.219226;282.9708;273.9329;-0.2043255;0.2568472;0;
209.4756;0;0;217.0106;15.10076;5.097262;200.7277;195.1346;-0.07418546;0.3215565;0;
153.6681;0;0;170.8156;26.27138;3.149635;145.866;141.9652;-0.009143578;0.061364;0;
-412.4518;0;0;-358.59;29.32546;4.687078;-412.1252;-417.209;-0.1390691;0.2562044;0;
-648.7934;0;0;-608.7913;28.29162;4.012539;-646.3432;-649.4853;-0.268864;0.1909796;0;
-298.4423;0;0;-299.7096;32.28168;3.740575;-300.3048;-302.4443;-0.4634959;-0.004114344;0;
-222.7428;0;0;-220.8854;20.26015;7.621705;-223.4166;-228.3025;-0.1381935;0.1907918;0;
-135.875;0;0;-143.3898;16.82354;9.623534;-137.3602;-142.8035;-0.2030219;-0.004301919;0;
485.6991;0;0;440.0861;29.13149;1.107276;474.9076;471.1565;-0.5276546;-0.06926494;0;
694.231;0;0;666.8422;29.03487;-1.171256;681.9511;675.705;-0.2672551;0.06073936;0;
297.6699;0;0;315.2235;33.35995;7.068578;290.9621;282.9107;-0.1370519;-0.00428903;0;
225.3445;0;0;243.0054;37.41227;7.128458;217.9562;214.2233;-0.07194682;0.06068264;0;
150.4057;0;0;179.1058;22.16943;8.326988;145.4611;143.7933;0.1230275;0.1905563;0;
-421.4581;0;0;-355.4931;19.86998;8.519569;-417.4023;-421.567;0.1229039;0.1903649;0;
-643.4228;0;0;-595.3901;23.26627;4.760087;-639.3086;-641.845;0.1227804;-0.1346631;0;
-304.134;0;0;-298.1285;19.96036;3.080731;-305.6461;-306.4309;0.122657;-0.2644625;0;
-231.4898;0;0;-224.7407;31.66195;-0.2713892;-232.3757;-236.1581;0.1225338;0.06063996;0;
-129.3084;0;0;-137.3087;33.30508;-2.213622;-132.8796;-137.7827;0.187378;0.1905137;0;
483.8259;0;0;438.9147;27.84563;-8.038791;471.3253;467.739;-0.007712318;0.06038759;0;
684.2387;0;0;661.9863;28.75565;-10.30801;672.0006;667.106;-0.3325413;-0.00464044;0;
293.3723;0;0;315.62;18.74643;-10.83352;286.8936;280.4423;-0.2022725;-0.1345705;0;
222.8004;0;0;242.0896;16.45041;-11.55944;215.2662;210.8828;-0.007167186;0.2553688;0;
160.7951;0;0;189.4352;12.61549;-7.662941;154.5179;150.9509;-0.07212733;0.3850469;0;
-415.2645;0;0;-350.5463;8.115811;-6.449548;-413.2271;-417.665;0.1878145;0.189758;0;
-653.04;0;0;-606.94;19.29344;0.255104;-650.8173;-652.8145;0.5124625;0.514404;0;
-297.1874;0;0;-294.237;19.80992;2.934043;-301.651;-303.2714;0.3820129;0.5138872;0;
-220.6146;0;0;-215.8556;19.38787;5.543429;-224.6989;-230.0033;0.2516944;0.1235667;0;
-136.5601;0;0;-145.1742;20.70756;8.217054;-142.5143;-147.7509;-0.008427904;-0.006492115;0;
484.7024;0;0;432.4939;13.98895;2.04649;470.0085;467.9006;-0.008419435;-0.006485592;0;
693.735;0;0;659.0078;12.3673;0.9728289;679.9305;676.3255;0.05655637;-0.1364138;0;
294.5508;0;0;307.2721;8.603831;-2.243329;285.8201;280.7819;0.1214669;0.05862535;0;
219.9172;0;0;230.7516;5.112561;-5.121219;207.697;205.7873;0.3162469;-0.07136825;0;
147.2951;0;0;164.9277;6.045429;-3.977364;135.2746;134.991;0.3808964;-0.2012312;0;
-424.1282;0;0;-372.2181;4.297066;-5.112077;-427.8283;-429.9232;0.3155464;0.4486444;0;
-643.0918;0;0;-610.5991;2.283993;-5.508838;-646.2885;-647.8815;0.1852946;0.5131609;0;
-299.3056;0;0;-308.5121;2.214349;-4.76649;-307.6214;-308.4008;-0.2046956;-0.00709343;0;
-225.2294;0;0;-230.8659;-1.204128;-6.436275;-232.1626;-235.5024;-0.3993919;-0.137021;0;
-118.9314;0;0;-135.9316;-1.403989;-5.893944;-127.5443;-131.9427;-0.009186604;0.1879534;0;
496.004;0;0;440.4778;3.554891;-1.065372;478.9041;475.0723;-0.1391121;0.3176993;0;
688.0339;0;0;650.6169;5.894868;0.4763056;670.2015;664.8743;-0.3988416;0.05751065;0;
292.7909;0;0;299.5768;7.764955;5.499425;279.4117;273.9025;-0.008636835;-0.2673838;0;
225.0306;0;0;232.7467;9.632187;7.704214;210.5404;208.2226;0.1213065;-0.2021478;0;
148.8426;0;0;167.9203;14.64635;7.361558;137.1156;136.237;0.4460213;0.1878593;0;
-427.8296;0;0;-373.2265;15.63601;8.224939;-429.7373;-431.9269;0.4455732;0.2526379;0;
-647.0394;0;0;-611.3566;20.97894;3.862906;-647.1335;-647.5093;-0.4644173;-0.007485318;0;
-298.0018;0;0;-305.4583;23.83824;2.318417;-302.6561;-302.0945;-0.5938854;-0.2023798;0;
-225.1763;0;0;-230.0016;11.15464;-1.769749;-227.7645;-232.3883;-0.2684519;-0.2671438;0;
-132.4341;0;0;-147.8117;8.933603;-5.384927;-136.8312;-143.1371;-0.4630842;0.2528634;0;
487.8872;0;0;434.5442;6.311682;-2.298424;474.2492;470.5733;-0.5275862;0.1876419;0;
697.354;0;0;664.1794;3.55965;-2.965944;683.2299;678.3083;-0.3321541;-0.3322853;0;
294.6678;0;0;307.0038;6.904976;-7.718629;284.7433;280.3265;0.1879184;-0.007114758;0;
221.346;0;0;233.2947;6.495896;-9.05041;209.8072;210.0175;0.3176643;0.1877944;0;
159.2796;0;0;183.3352;10.50883;-6.897985;149.6266;150.7112;-0.07245897;0.2525731;0;
-418.7774;0;0;-355.0784;10.89944;-6.489156;-419.6752;-420.0909;-0.2672882;0.1873519;0;
-647.8038;0;0;-600.0358;18.59165;-5.812806;-647.2639;-645.9926;-0.2020523;-0.3975424;0;
-299.0779;0;0;-293.6491;22.05559;-4.199375;-303.4735;-301.6412;-0.1368819;-0.7219796;0;
-226.4387;0;0;-221.1404;11.04872;-5.132917;-229.8304;-230.7486;-0.07177702;-0.3964175;0;
-123.9501;0;0;-133.6495;8.89416;-4.323964;-129.8371;-131.4415;-0.006737563;-0.07118246;0;
496.5501;0;0;448.8795;8.34936;0.9719105;480.5491;480.0083;-0.07169814;-0.006143596;0;
689.0792;0;0;664.3199;5.996446;3.583146;673.0317;671.7418;-0.00665875;-0.07110476;0;
293.1479;0;0;315.1401;4.852321;3.44558;283.6758;282.0124;0.3181846;-0.006065977;0;
227.5737;0;0;246.7327;5.449681;5.183674;216.7368;217.8861;0.2528976;0.05890748;0;
153.1324;0;0;177.7693;-3.128634;7.053865;143.0559;144.9538;0.3176108;-0.07108641;0;
-419.4213;0;0;-360.5763;-5.537364;8.252471;-421.3042;-421.1574;0.187357;-0.006047645;0;
-644.6365;0;0;-602.7171;7.663716;8.847025;-645.7678;-643.4973;-0.00773328;-0.006041568;0;
-308.2825;0;0;-307.8219;9.330955;8.637187;-314.6601;-311.3298;-0.1376602;-0.4608069;0;
-232.7605;0;0;-231.4883;18.29656;11.84357;-238.1322;-237.8038;-0.3324239;-0.005572476;0;
-128.5789;0;0;-140.8012;22.8335;12.5015;-134.9447;-135.5536;-0.2021552;0.1893352;0;
492.3008;0;0;442.6721;17.85309;6.259765;476.9459;477.3371;-0.5917561;-0.3305938;0;
689.4568;0;0;659.8679;19.97861;3.641141;671.4312;671.822;-0.8510309;0.1245098;0;
281.7186;0;0;294.888;6.495571;3.704465;267.2719;268.0995;-0.3954044;0.189352;0;
215.5936;0;0;225.8138;0.9293392;0.5526673;199.4123;203.1126;-0.07017036;-0.2656097;0;
151.5341;0;0;172.6135;8.36412;2.360529;136.5559;142.0017;0.1897695;0.05949393;0;
-429.826;0;0;-370.662;6.212263;2.358157;-435.2315;-432.2899;-0.3301599;0.05943415;0;
-653.2191;0;0;-613.7921;6.540813;-8.093306;-656.0579;-652.9944;-0.5247302;-0.1355276;0;
-300.5522;0;0;-305.58;8.074483;-10.09454;-309.0103;-304.5756;0.1254705;-0.1353914;0;
-224.7257;0;0;-227.2497;-0.573819;-11.42406;-233.2378;-232.1808;0.1903118;0.05964665;0;
-123.6131;0;0;-137.4414;-1.443899;-13.75698;-134.1156;-134.0592;0.06018585;0.5793254;0;
492.9513;0;0;440.7812;3.044555;-3.829804;472.7766;475.5817;-0.06980931;0.318874;0;
683.9847;0;0;651.9194;1.501254;-1.682624;664.2051;665.6331;-0.3296085;-0.1362178;0;
286.6843;0;0;299.816;15.56592;1.601109;274.046;274.2856;-0.004440631;0.1887558;0;
219.0551;0;0;231.424;19.1676;6.221322;205.9922;208.9802;0.1254985;-0.07130329;0;
138.5003;0;0;160.7893;11.51155;-2.492588;128.6365;133.2456;-0.00456227;-0.4610357;0;
-430.353;0;0;-374.041;12.37162;-3.293879;-430.8366;-426.7943;0.2553117;-0.1357357;0;
-636.6916;0;0;-600.3012;0.4364694;5.952953;-637.8619;-633.5738;-0.004814224;-0.005664656;0;
-294.3486;0;0;-299.9737;-4.320367;8.090303;-301.952;-298.2929;-0.3296461;0.05930839;0;
-224.4004;0;0;-229.8948;-3.712814;4.398235;-231.2465;-230.5896;-0.1344128;0.3191182;0;
-117.9783;0;0;-137.4602;-7.995991;4.393816;-127.1913;-126.9723;-0.1992451;0.1888628;0;
495.8943;0;0;438.8258;-4.10319;7.403511;477.0078;479.2256;-0.2640123;-0.3310657;0;
682.7393;0;0;647.2799;-5.170794;7.664004;664.2467;665.5252;0.1910244;-0.2657657;0;
277.9439;0;0;289.4341;-2.35256;7.656303;266.154;267.3688;-0.0690369;0.1243054;0;
213.8217;0;0;224.6756;1.669268;7.380678;201.0442;205.4436;-0.1989022;0.05921317;0;
150.6385;0;0;172.9133;-13.93882;6.301657;140.7474;145.1424;0.5159384;0.2540557;0;
-431.2204;0;0;-369.238;-17.07362;5.223598;-430.7318;-428.5277;0.320518;0.1238657;0;
-655.0494;0;0;-608.8089;-1.984943;2.806964;-653.4369;-649.5483;-0.1345755;-0.1361281;0;
-299.1947;0;0;-294.4174;-0.3763341;0.9957263;-303.0186;-298.2593;-0.06947292;0.1888454;0;
-226.1182;0;0;-218.9094;3.241366;-0.5458817;-227.8768;-226.683;-0.06940312;0.05872097;0;
-126.316;0;0;-129.9215;6.118497;-1.884992;-129.3847;-129.5039;0.190536;-0.2012074;0;
493.3745;0;0;452.4164;5.777557;-3.624654;480.1265;482.0688;-0.06952483;-0.3309399;0;
677.4109;0;0;658.2331;9.723866;-3.888822;664.3637;665.2421;-0.264357;-0.07073803;0;
273.3705;0;0;303.3123;-3.347698;-7.100095;267.7077;267.1485;0.19068;0.4490718;0;
215.6872;0;0;246.9107;-5.755231;-8.700551;208.6558;210.8457;-0.1343483;0.2537186;0;
141.4452;0;0;183.9441;2.689669;0.4177481;135.4828;139.607;-0.45905;-0.07137312;0;
-431.2841;0;0;-355.5946;1.748961;3.096524;-428.6823;-424.9995;-0.1987194;0.38347;0;
-638.4964;0;0;-587.1832;11.86224;-0.65751;-635.1476;-630.7813;-0.3284544;0.448052;0;
-300.5869;0;0;-293.6155;14.12749;0.1469459;-302.114;-297.5022;-0.3930917;0.1227651;0;
-232.1316;0;0;-226.8539;14.51544;1.553318;-231.7206;-230.112;-0.002892666;0.1876091;0;
-117.206;0;0;-127.4883;16.8444;1.752706;-119.1693;-118.6867;0.06207758;-0.1374161;0;
496.4159;0;0;451.1616;5.507972;2.018876;485.0219;487.6279;-0.002952135;-0.3321801;0;
677.5134;0;0;655.043;2.890469;1.681933;667.0677;668.2969;0.06201817;-0.007009591;0;
281.2189;0;0;303.0614;0.3419693;0.6086382;276.406;276.3845;-0.1979135;-0.2668719;0;
221.4038;0;0;241.7876;-2.739833;0.2061291;214.3468;218.2609;-0.457584;-0.1366691;0;
150.092;0;0;179.7632;-2.46866;-3.812932;145.1036;149.9508;-0.1322875;0.4481743;0;
-430.6419;0;0;-366.6429;-4.007398;-5.818589;-426.5674;-424.0364;0.2576495;0.5126914;0;
