Fp1;Fp2;O1;O2;POLY3;POLY4;A1;A2;Video;Audio;event;
179.1508;0;173.4837;212.8606;-6.360797;-0.6105188;178.5489;177.3008;0.03690145;-0.01117439;0;12:44:15 Рука;
23.79881;0;26.38321;52.35232;-8.22944;-0.5429224;26.00855;25.19897;-0.1580376;0.5085756;0;
-538.4425;0;-500.1287;-505.6698;-5.27441;-5.833907;-527.3019;-528.548;-0.09291151;0.4430972;0;
-642.2241;0;-608.0092;-638.8445;-4.934317;-6.698701;-631.7819;-629.7783;0.2969859;0.05284794;0;
-283.3213;0;-277.8139;-312.7412;-11.69451;-9.706202;-276.6377;-275.6982;-0.09311657;0.5725336;0;
-210.3856;0;-206.0082;-246.8349;-12.88821;-12.24168;-201.0851;-204.7691;-0.093023;0.1821543;0;
-16.70899;0;-25.142;-52.55944;-13.14368;-0.7756625;-9.604194;-14.22156;0.2968745;-0.5976369;0;
569.1383;0;521.9833;525.7028;-13.06313;2.239349;568.24;563.7522;0.1016742;-0.2072323;0;
638.094;0;598.2327;606.5086;-13.92066;-3.188397;637.8213;632.1511;-0.02836266;0.1178126;0;
242.339;0;237.0628;258.8861;-14.04039;-2.984244;245.6272;242.4615;0.1016005;-0.4670118;0;
183.1876;0;176.2925;216.6471;-6.123028;0.4347619;183.2866;184.6843;0.03653109;-0.3366079;0;
21.58463;0;27.25272;54.88561;-3.437558;0.7022568;23.86998;26.703;0.03649439;0.05353436;0;
-542.0912;0;-504.3824;-502.5144;-3.902619;-2.312559;-530.3754;-526.9205;-0.02850962;-0.01148678;0;
-647.3683;0;-621.2542;-638.2535;-3.832324;-3.850842;-634.6648;-629.5268;0.03648636;0.1184595;0;
-288.7728;0;-284.6113;-311.4011;3.271473;-3.846973;-279.8926;-276.3214;0.101417;0.05337308;0;
-215.0196;0;-205.4899;-244.1219;5.61271;-3.910091;-204.5866;-205.017;0.1662825;-0.2065499;0;
-19.71407;0;-26.06106;-50.84862;-6.516718;-13.48448;-13.35203;-14.71904;0.1661154;0.1834617;0;
575.5066;0;528.0616;532.3469;-8.586275;-16.95392;572.6169;570.5016;-0.02895354;0.4431467;0;
645.5803;0;605.7417;613.8957;-14.67322;-10.30582;643.7554;639.5808;-0.1588591;-0.01206997;0;
240.6973;0;237.4429;262.2053;-19.74869;-10.63038;242.2476;240.5135;-0.2886342;-0.2069599;0;
178.4866;0;175.3604;220.3378;-11.95931;-7.739429;177.3492;179.8647;-0.2233768;-0.1417846;0;
17.57553;0;25.32199;57.38566;-12.34846;-5.856252;20.12491;22.88774;0.231619;-0.2066094;0;
-546.3462;0;-504.9994;-502.5781;-12.93927;-8.864477;-534.679;-531.1693;0.1014516;-0.3363365;0;
-647.8709;0;-613.3748;-635.6309;-11.92189;-8.587639;-635.8406;-630.5853;-0.09355237;-0.1410965;0;
-283.028;0;-272.1171;-304.0961;-14.11973;-7.105385;-274.1956;-271.0696;0.03647632;0.2488493;0;
-207.7188;0;-193.758;-234.4504;-13.90447;-6.428416;-196.3341;-198.2087;0.101407;-0.01127014;0;
-15.1068;0;-17.08948;-41.6241;-10.67532;-8.565411;-7.606619;-11.22843;0.3611745;-0.07622615;0;
577.423;0;534.338;538.5636;-8.052628;-8.422838;575.358;572.5519;0.4257789;0.1837198;0;
646.8702;0;611.6995;617.6074;-13.73796;-6.873767;645.8691;641.5667;-0.0294203;0.1835352;0;
243.9849;0;243.8319;266.1007;-13.85788;-5.460341;246.1083;243.0595;-0.1593254;0.2483181;0;
182.0207;0;181.6805;221.7305;-8.485322;-5.58882;181.3934;182.2832;-0.02923065;-0.01180075;0;
17.10813;0;22.76527;54.46671;-9.01266;-4.77941;20.7293;22.43027;0.4255701;-0.2716583;0;
-545.064;0;-508.9279;-501.4336;2.114831;1.253735;-532.2635;-529.5648;0.8799138;-0.07648327;0;
-645.2157;0;-608.866;-632.0514;5.395236;3.061014;-632.8029;-628.795;0.4892257;-0.01143908;0;
-290.183;0;-276.9207;-311.2647;-0.6393814;6.674895;-281.5309;-280.5255;-0.09597195;-0.2063296;0;
-218.1775;0;-203.4293;-246.297;0.7014077;8.811642;-206.5355;-209.5292;0.2289612;0.1187144;0;
-19.1207;0;-16.69365;-45.77514;-7.470971;5.520624;-10.67634;-13.97931;0.2936985;0.3134972;0;
577.9109;0;536.9823;537.79;-8.60254;5.314128;576.9141;572.6149;-0.2913027;-0.5313933;0;
653.1671;0;617.0273;619.9581;-11.9428;1.490883;653.9203;647.4391;-0.2260427;-0.660794;0;
250.4629;0;250.7161;272.3221;-14.94491;-1.18981;255.2134;251.6747;-0.09588086;-0.07542398;0;
185.9935;0;185.1845;228.258;-2.337588;-1.523529;187.0536;188.391;-0.4855886;0.05458649;0;
29.13538;0;38.07225;66.35989;-1.263513;-4.134333;33.19286;35.27855;-0.09529659;-0.2053377;0;
-534.9854;0;-489.5133;-493.7378;4.765977;-4.063196;-522.1239;-520.54;0.4245379;-0.3350661;0;
-642.9557;0;-604.0262;-631.8595;6.904642;-5.331789;-630.8568;-628.2751;0.09927461;-0.009892698;0;
-277.6805;0;-267.4006;-299.0791;6.295468;-7.134849;-268.7172;-267.3874;-0.09572717;-0.0748501;0;
-204.813;0;-191.3575;-232.9991;8.968459;-6.591816;-193.4224;-195.6546;0.0343037;-0.2047096;0;
-16.76409;0;-16.25318;-44.3597;-10.26429;-15.29285;-9.695259;-12.36255;-0.1606328;0.1853002;0;
583.3261;0;542.1075;542.0776;-15.21047;-18.49254;581.8297;579.165;-0.6152428;0.380016;0;
657.3275;0;623.8339;624.4288;-11.98098;-8.024869;657.7066;652.9832;-0.2248205;0.1847322;0;
245.8735;0;249.2076;269.9167;-14.24612;-7.346976;250.1877;247.593;0.3601114;-0.3351922;0;
180.9715;0;183.5526;224.4182;-10.68183;-4.057552;182.2829;184.3759;-0.2249565;-0.2698881;0;
21.86949;0;30.88228;59.08824;-9.73309;-0.4365191;26.24054;29.01862;-0.4196325;0.3800565;0;
-541.4318;0;-502.9429;-500.0651;-3.292948;-10.61724;-528.3196;-525.5443;0.03556058;0.05483794;0;
-641.7746;0;-606.8226;-631.3089;-0.8787423;-11.67818;-629.4252;-625.2159;0.1004922;-0.3350212;0;
-281.6854;0;-268.0703;-304.526;9.036102;-6.910779;-273.159;-270.9529;0.1653586;0.1200868;0;
-210.1257;0;-195.2749;-239.8774;14.58575;-6.56892;-199.1091;-201.1531;0.1002251;0.2499008;0;
-11.76417;0;-13.10769;-41.61087;5.327696;-4.686919;-4.194375;-6.985969;-0.2247124;0.0547477;0;
580.0751;0;534.3178;537.3275;5.858206;-3.074619;577.8298;575.5408;0.1003501;-0.07524199;0;
646.8334;0;606.4944;613.3116;1.23062;-4.143257;645.4024;640.9293;0.3601187;0.1197357;0;
247.8212;0;247.9399;269.1805;-1.784727;-4.072111;251.4516;248.6071;-0.1599819;0.7043214;0;
187.0402;0;188.9078;227.6183;3.107186;3.902828;188.2306;190.324;-0.02988647;0.573679;0;
23.87164;0;32.98378;60.97321;2.835644;7.381896;28.12185;30.46304;0.3599476;0.2482659;0;
-538.8695;0;-498.2199;-496.8077;0.4218977;0.810274;-526.2527;-524.2888;0.09971657;0.5078858;0;
-644.0873;0;-610.5375;-634.6765;-0.3828094;1.144374;-632.1705;-628.2094;-0.03031831;0.1825388;0;
-283.4961;0;-275.5921;-308.9521;2.967454;1.813054;-275.0894;-272.4442;0.2945489;-0.4673181;0;
-211.06;0;-199.1035;-241.1132;2.897123;0.4715735;-200.3504;-201.7683;0.2942529;-0.2069792;0;
-22.81746;0;-24.67854;-50.77893;4.702873;7.638152;-15.9917;-17.84546;-0.03087948;0.1180655;0;
578.5907;0;533.2534;537.1016;5.234011;9.037118;576.7889;574.4998;0.03411889;0.05297955;0;
659.0311;0;620.4859;626.017;0.6070519;5.678891;658.7928;654.0072;-0.1608174;-0.07700837;0;
251.261;0;249.3612;273.2524;-0.1978413;6.543963;254.5837;252.5515;-0.09568848;0.2479057;0;
183.1052;0;181.9569;226.064;-5.957443;1.714738;183.4261;186.1435;0.4241464;0.6374607;0;
17.06706;0;24.60303;56.54691;-8.831844;1.043186;19.94883;23.10085;0.2937855;0.1820488;0;
-546.7917;0;-511.9645;-503.6034;-6.211002;0.9081721;-535.6669;-532.1432;-0.2912157;-0.2079382;0;
-647.254;0;-616.7097;-634.5938;-6.606903;-0.5663649;-635.3283;-630.309;-0.2259558;-0.0777946;0;
-294.5306;0;-281.8205;-314.1169;-7.47092;7.070137;-285.3031;-282.1628;0.09910797;0.05221825;0;
-221.6461;0;-205.638;-245.7729;-7.597136;7.93381;-209.8667;-210.2903;0.2939104;0.1821005;0;
-12.52842;0;-11.34142;-34.75694;-4.039528;9.533307;-4.571389;-5.244434;0.4235498;0.1819175;0;
582.5601;0;542.3292;547.3604;-2.896394;11.06433;582.0134;581.0286;0.2931895;0.3766367;0;
651.1274;0;617.4962;624.5838;-3.028181;4.555995;652.0181;649.0978;0.3578622;0.701095;0;
256.0464;0;257.8687;283.2525;-2.957789;2.943949;259.3724;258.8914;0.2925353;0.3755538;0;
194.1951;0;193.2044;238.9275;-2.418954;0.86452;193.7072;198.1617;-0.09756267;0.2452418;0;
24.0854;0;35.15216;62.71338;-2.416523;-1.212698;26.47153;31.60868;-0.162432;0.2449954;0;
-555.0852;0;-508.36;-511.7484;-7.639008;-6.034128;-543.2687;-538.9488;-0.03233409;-0.01512018;0;
-664.722;0;-629.1632;-650.5392;-9.305296;-9.846092;-652.9174;-647.1027;0.03266574;-0.210007;0;
-288.8052;0;-279.8313;-309.4316;-9.698087;-5.01355;-281.7601;-277.263;0.1625676;-0.3397307;0;
-205.9316;0;-192.3439;-234.3458;-9.755692;-6.1471;-196.7071;-196.5873;0.1624043;-0.4043567;0;
-15.25789;0;-15.23961;-40.77002;-14.03182;-6.207906;-8.916245;-9.733604;0.09727373;-0.2090483;0;
589.4535;0;547.4304;546.9131;-15.55894;-5.799893;586.9807;585.9142;0.03220865;-0.1438709;0;
674.3182;0;637.2724;635.2563;-6.835768;-13.09496;673.4721;669.9705;0.162111;-0.07875904;0;
259.4114;0;259.2592;279.5465;-5.62345;-15.09129;262.3767;260.1905;0.09698074;0.1162221;0;
181.8146;0;180.4132;223.4812;0.2103252;-15.67897;180.7165;182.7803;-0.09801874;0.3110074;0;
19.65085;0;27.30883;55.65335;3.760087;-17.47164;21.11503;23.98885;0.03201444;0.3756622;0;
-546.7717;0;-507.6372;-503.9338;-1.334882;-16.1814;-536.376;-533.0053;0.2918516;-0.144454;0;
-652.7313;0;-627.0669;-639.6715;-0.06074276;-16.09816;-642.2211;-636.1051;0.226591;-0.5341129;0;
-291.2567;0;-286.2328;-312.6303;-7.026906;-16.88578;-283.8805;-280.207;-0.03350601;-0.3386742;0;
-211.0668;0;-195.9279;-239.1654;-9.899258;-15.99804;-201.8239;-202.9642;-0.2933417;-0.4033012;0;
-5.020637;0;-8.450203;-33.09109;-4.129511;-16.18291;0.4648227;-0.6118417;-0.1631123;-0.207994;0;
585.1252;0;537.2215;543.4024;-5.063367;-15.49694;581.6722;579.9719;-0.2928831;0.05208439;0;
653.9399;0;614.0178;621.1295;-3.785481;-11.0605;650.7402;646.7928;-0.4225234;0.1169994;0;
261.9171;0;258.5168;282.5503;-3.982749;-9.240968;262.2188;260.899;-0.09726219;-0.07802019;0;
188.3158;0;185.9808;228.0437;-2.705949;-7.825041;186.7431;189.0479;-0.1621318;-0.5327132;0;
9.591298;0;16.87885;46.46817;-1.09564;-6.142605;12.39306;14.633;-0.03203421;-0.2073412;0;
-553.1355;0;-517.3696;-510.4861;-9.533656;-7.744023;-540.1542;-538.4162;0.03296532;-0.07719819;0;
-656.5899;0;-629.7305;-642.5315;-10.79687;-8.272105;-643.5591;-641.1358;-0.2269372;-0.142088;0;
-287.9276;0;-282.0222;-308.8033;-8.910992;-5.048735;-279.845;-279.3606;-0.09677446;-0.2069125;0;
-203.6805;0;-190.4097;-233.4058;-9.571623;-4.172884;-193.7944;-196.9962;0.03325747;-0.5315413;0;
-17.38192;0;-15.05643;-43.76646;-6.681617;-8.99134;-10.62918;-13.70277;0.1631587;-0.4660399;0;
580.3976;0;541.2416;540.6713;-7.077045;-9.183254;577.8982;574.7652;0.2279621;-0.1407349;0;
664.147;0;629.9029;630.0828;-0.30478;-13.19288;663.2119;657.2709;-0.09710363;0.3791453;0;
245.7521;0;248.5863;268.0063;1.637909;-15.99279;248.3161;244.5676;-0.3568754;0.703601;0;
172.7917;0;175.9979;216.6377;-1.980083;-5.728571;171.1678;172.5454;-0.4214842;0.1831553;0;
23.31818;0;35.39164;63.18459;-0.7062716;-4.65121;24.94422;27.13257;0.09867806;-0.07689814;0;
-546.9186;0;-505.0598;-501.72;-10.81962;-2.570066;-535.5491;-533.3005;0.4234156;0.1180812;0;
-659.5622;0;-630.5515;-644.7687;-13.88923;1.652319;-648.2666;-644.0212;0.09815346;-0.2068742;0;
-291.4592;0;-286.9028;-310.9758;-10.66107;-13.01824;-284.2354;-281.8683;-0.1618145;-0.4015684;0;
-213.9551;0;-200.9701;-241.1982;-12.45804;-15.61749;-205.2393;-207.3099;-0.03171726;-0.07632815;0;
-11.46679;0;-12.11296;-36.87095;-7.355309;-6.760173;-6.382938;-9.201092;0.09824929;-0.01128411;0;
585.8695;0;542.433;548.1845;-6.075121;-6.887346;581.6404;578.6377;-0.2266861;0.2485966;0;
650.3106;0;613.6644;619.4102;-4.796219;-1.45493;647.4601;642.149;-0.161491;0.5082162;0;
252.6068;0;252.0417;274.9606;-1.911012;1.024778;254.6317;251.1375;-0.2262961;0.05293412;0;
185.8239;0;184.7596;227.7079;-7.803589;-1.72243;184.286;185.6055;-0.4209707;-0.07705376;0;
7.851521;0;13.03522;46.32016;-8.532682;-1.05087;8.876434;11.38148;-0.03074369;0.1179257;0;
-553.062;0;-519.0229;-508.2601;-2.830682;-1.116797;-541.8557;-539.5405;0.3590913;-0.07709482;0;
-648.6454;0;-618.6386;-633.3738;-2.895186;-1.651538;-636.076;-632.9512;0.2937631;-0.01205001;0;
-290.6107;0;-279.812;-309.0251;2.131565;-2.051776;-282.1145;-280.8044;0.2285006;0.1178968;0;
-214.9192;0;-198.9463;-240.8737;5.143533;-2.719544;-205.3695;-207.8712;0.09833629;-0.4669277;0;
-15.05356;0;-13.58949;-40.48225;-5.712626;-7.53946;-9.199145;-12.76034;-0.2265992;-0.5314259;0;
581.8491;0;541.77;544.0146;-7.581921;-10.54612;578.8895;575.2694;-0.2913389;0.2487162;0;
656.9139;0;623.9341;626.6762;-2.617809;-4.373212;655.3316;649.029;-0.03117677;0.3784009;0;
246.7721;0;248.7454;270.2253;-2.949971;-2.895193;248.6272;244.205;0.5535606;0.1831187;0;
175.2475;0;175.0949;219.2293;-1.004624;-10.66206;173.54;174.3696;0.5530044;-0.2068694;0;
19.27472;0;27.86785;58.02747;-0.1329587;-10.65135;21.62942;22.27079;-0.03225733;-0.2716289;0;
-548.3344;0;-509.515;-505.8724;-0.7360375;-10.77461;-536.4243;-535.5337;-0.09719226;0.1834155;0;
-657.5407;0;-627.6934;-644.2943;-0.1994345;-11.70154;-646.2673;-642.8789;0.09780743;0.1182638;0;
-289.2523;0;-281.3615;-309.6273;1.609427;-0.1021061;-282.3006;-281.0395;0.4225459;-0.2066917;0;
-214.9364;0;-201.9311;-242.4748;3.416471;3.515075;-206.4299;-209.5429;0.552056;-0.07654934;0;
-16.88234;0;-19.44478;-44.20568;-1.276011;2.841714;-12.75724;-16.6167;-0.2281068;-0.1414398;0;
582.7707;0;538.3569;541.7318;-2.212734;5.785985;577.8337;573.9781;-0.3578123;-0.3361997;0;
652.025;0;614.7148;620.7724;3.683987;2.49813;648.8421;643.0539;-0.09758343;0.0539422;0;
249.4469;0;247.7813;271.8862;4.216149;2.093722;249.8904;246.7316;-0.4223221;0.1188553;0;
176.2954;0;173.9443;214.954;3.609676;6.378404;173.5525;175.7068;-0.4868651;-0.2061008;0;
8.077732;0;13.97481;41.51258;2.534323;7.041824;8.336102;11.11289;-0.03160448;-0.01099168;0;
-548.713;0;-516.5851;-508.1903;8.358925;2.814946;-539.2095;-536.498;0.293264;0.05398671;0;
-651.9845;0;-631.8203;-640.0507;11.69943;1.539442;-642.6155;-637.9077;0.1630346;-0.2059369;0;
-289.6362;0;-287.0459;-311.3225;-6.598057;2.676605;-285.0242;-281.6955;-0.03203121;-0.0757953;0;
-213.7581;0;-199.6763;-242.4191;-10.61089;1.87012;-206.4647;-207.6995;0.09793566;-0.07571914;0;
-20.0781;0;-20.3157;-49.14757;-2.963444;2.203156;-14.97836;-17.52375;-0.09706477;-0.4654471;0;
576.5172;0;533.6763;534.421;-4.300612;2.200942;571.8667;569.6362;-0.2269019;-0.4000121;0;
649.2136;0;613.3497;616.7174;0.7939236;0.6581228;645.0051;640.528;0.09816278;-0.07477344;0;
243.9521;0;243.7314;264.0871;1.53006;0.9253933;243.371;240.5226;0.09806414;0.2501384;0;
177.7402;0;178.3317;216.5331;3.203462;-0.1472635;173.7238;175.9382;-0.2918384;0.4447891;0;
16.70493;0;25.41682;51.71072;3.869828;-0.01314963;16.31582;18.84032;-0.6163819;0.3793748;0;
-550.9016;0;-514.3999;-511.6831;1.521415;1.393505;-541.8575;-538.9608;-0.2259585;0.5089283;0;
-656.4822;0;-625.9517;-648.4124;1.788306;1.258139;-648.0719;-642.4919;0.1640726;0.2485476;0;
-288.3822;0;-278.5595;-314.3035;-7.926382;6.615387;-282.9164;-279.8408;0.2288751;0.0533958;0;
-214.6294;0;-200.6312;-246.2093;-10.53039;8.082365;-205.296;-207.096;0.4885145;0.3132115;0;
-22.88499;0;-22.33159;-52.3717;-12.26112;6.198721;-17.18419;-19.91938;0.2281542;0.2479295;0;
573.7131;0;532.0997;531.2626;-14.52597;6.192493;570.4127;566.4933;-0.0319444;-0.01218903;0;
650.0355;0;614.0861;614.8115;-12.63634;3.641041;648.1127;641.6985;0.2929244;-0.01217678;0;
251.7697;0;252.7753;271.7409;-15.43668;2.297724;252.9098;249.6255;0.2276627;0.1827375;0;
180.4275;0;181.557;222.3675;2.061249;-0.04898722;178.443;180.2845;-0.09740273;0.2475212;0;
12.08071;0;24.95318;51.10505;7.818978;-1.388475;13.53401;15.43607;0.09759717;0.1823052;0;
-545.3387;0;-498.184;-500.8564;-5.651837;-5.339073;-534.9539;-533.3661;0.3573685;0.05218729;0;
-651.7371;0;-617.6231;-636.7845;-3.502705;-7.811954;-641.0503;-637.9648;0.292042;-0.4676039;0;
-298.4469;0;-289.8544;-315.6808;-15.69032;-0.8380018;-291.3316;-290.748;0.03187923;-0.272232;0;
-227.7449;0;-211.2276;-250.7711;-20.76477;1.574104;-218.7002;-222.6149;0.03184719;0.05287824;0;
-31.9269;0;-29.91885;-53.99286;-5.002796;-4.187888;-26.0772;-30.7376;-0.09811949;-0.01214224;0;
571.1146;0;531.3291;535.7025;-4.194462;-3.580834;567.963;563.2448;-0.1629882;0.377674;0;
652.3746;0;616.9395;622.183;-1.845723;1.379379;649.351;642.3262;-0.03288978;0.3123272;0;
257.2923;0;255.1261;279.6672;0.2995855;2.382737;257.7076;252.6889;-0.09782407;-0.4026274;0;
190.942;0;190.2772;234.846;-0.3703009;10.08314;189.4203;189.7165;0.1621436;-0.4022228;0;
19.71114;0;31.22836;60.69749;1.706176;13.75707;21.87663;23.35938;0.226948;0.1179201;0;
-550.3971;0;-506.7201;-503.8922;-4.92697;9.188525;-539.3632;-537.3823;-0.09811675;0.1827689;0;
-657.9772;0;-621.0908;-640.9418;-5.324162;9.982966;-647.1418;-643.1638;-0.2929202;0.1176179;0;
-291.6249;0;-276.6395;-308.0898;-5.184114;9.035296;-284.4861;-282.8234;-0.2276585;0.1824671;0;
-216.6194;0;-198.3382;-240.5015;-5.045183;7.887507;-206.989;-210.0756;0.03243961;0.1173164;0;
-29.80805;0;-25.10092;-52.10442;-3.499872;10.35783;-24.18531;-26.89401;0.03240701;0.05223117;0;
570.3577;0;533.1437;535.0903;-4.032219;10.21346;566.667;564.3983;-0.09756023;-0.077756;0;
658.7399;0;623.6872;628.6304;9.234697;7.523997;656.4272;651.2248;-0.2273969;-0.2076126;0;
256.9047;0;257.8691;282.2975;13.11018;6.578676;258.5298;255.0192;-0.4870378;-0.1424366;0;
183.6207;0;186.8331;232.1014;11.48942;7.710776;182.9329;183.8611;-0.6164831;-0.07732614;0;
18.76901;0;35.09652;64.51482;14.15719;8.171908;21.64257;23.25703;-0.2910269;-0.2071831;0;
-548.5897;0;-491.6115;-496.3931;3.291977;4.948516;-537.0359;-535.423;0.09906956;-0.07704026;0;
-651.1116;0;-602.9988;-631.2638;-1.13196;4.139871;-640.3815;-637.1461;0.293872;0.3778085;0;
-289.139;0;-276.1819;-306.355;6.102846;6.21206;-282.1678;-280.0601;0.09867473;0.3124616;0;
-219.4459;0;-205.1274;-243.2662;5.493501;5.134091;-209.858;-210.8758;0.09857558;-0.0126891;0;
-21.01251;0;-19.32712;-43.55953;-3.084858;9.817616;-14.55769;-15.94931;0.09847653;-0.07764369;0;
576.2084;0;536.1631;538.9415;-4.087112;10.14267;573.6613;572.0837;-0.1614918;-0.5973044;0;
654.1525;0;619.2698;623.6071;-7.364559;5.64474;652.42;649.2197;-0.03139484;-0.6616716;0;
259.0685;0;258.3287;284.0883;-8.362514;4.299531;260.6485;260.0127;0.1635387;0.2485361;0;
187.2816;0;185.9179;232.891;-1.990122;-0.594421;184.987;189.2244;-0.03152762;0.6380904;0;
15.42969;0;24.81195;54.62146;-1.385886;-2.603312;16.44827;20.99375;-0.1614306;0.3126125;0;
-549.1146;0;-500.5114;-505.0896;11.07409;-11.24125;-537.4149;-533.9984;-0.2912031;-0.07750565;0;
-646.6385;0;-603.2691;-630.2064;15.95308;-16.38752;-634.5133;-629.7884;-0.1609758;-0.2073625;0;
-281.7968;0;-269.268;-298.4896;12.18601;-7.99843;-273.8067;-270.336;0.09905531;0.1176826;0;
-216.4839;0;-200.407;-239.2193;14.58466;-8.191341;-206.128;-206.7212;-0.1609136;-0.07733766;0;
-29.48522;0;-24.35647;-49.51172;6.130888;-9.053889;-22.2007;-24.04266;-0.4855886;-0.4020967;0;
572.1795;0;534.0748;536.0562;3.043268;-7.16927;570.3987;568.2463;-0.09529664;-0.2067906;0;
656.4994;0;621.8688;623.161;5.518457;-12.92248;654.9703;650.5712;0.3595705;-0.07664814;0;
250.5435;0;252.4293;271.7737;3.50318;-13.51234;252.0769;249.6187;0.2942419;-0.2065058;0;
177.5158;0;180.4617;220.7761;1.423555;-8.140248;176.6114;178.6534;0.1640115;-0.2712657;0;
21.4158;0;33.72905;59.19788;0.08295423;-6.926376;24.07302;26.2379;0.09887938;-0.01112371;0;
-539.6987;0;-490.2915;-498.5813;-2.329003;-7.053382;-528.9232;-527.1353;-0.096122;0.5086262;0;
-647.0397;0;-603.1168;-635.3863;-4.402767;-7.180261;-637.1496;-633.1146;-0.2259601;0.3781805;0;
-281.0107;0;-267.4917;-302.0401;3.639608;-3.355141;-274.8162;-272.5969;-0.09579837;0.1828984;0;
-208.827;0;-194.8219;-236.7068;6.783783;-3.016855;-199.5777;-202.9828;0.03423258;0.3776167;0;
-24.33475;0;-22.77498;-51.06212;-2.801227;-5.425209;-17.90591;-22.05719;-0.3556059;0.3772373;0;
568.3918;0;529.5328;530.0096;-3.066832;-5.620584;565.3189;561.4842;-0.7450526;-0.2078479;0;
649.3422;0;615.3948;620.0566;1.625299;-14.38958;646.5223;640.7549;0.03530413;-0.2726064;0;
253.5134;0;253.3956;276.4184;2.695393;-18.19303;253.9447;249.9321;0.2301707;0.1174716;0;
183.0439;0;181.552;224.1668;6.577451;-14.69175;180.4763;181.5902;-0.3547667;0.05238621;0;
14.69452;0;23.76126;52.52773;8.580574;-15.34682;14.87811;17.80252;-0.09454083;-0.2075358;0;
-544.0394;0;-499.0623;-500.8094;12.323;-18.27853;-535.5477;-532.1265;0.2953582;-0.1423599;0;
-641.8184;0;-606.3192;-628.0545;15.12365;-18.26016;-633.0228;-628.1682;0.2300941;-0.07724953;0;
-282.1039;0;-273.502;-302.0245;11.08899;-16.70121;-276.8155;-274.5894;0.1648955;-0.2071066;0;
-213.4798;0;-197.6401;-240.6892;10.00612;-16.21554;-206.4475;-208.5341;-0.03017217;-0.3368332;0;
-22.98595;0;-20.6554;-47.9816;16.49378;-8.496458;-18.70936;-21.48099;-0.1600765;-0.2715274;0;
574.7367;0;533.6492;535.5233;17.28051;-4.870964;570.076;566.7449;-0.2898504;-0.1413199;0;
657.18;0;622.6306;624.4402;9.828411;-7.344316;653.6484;649.1962;-0.0946571;-0.2711126;0;
253.7846;0;256.3762;278.3615;7.74243;-5.796329;255.1291;253.6799;0.10034;-0.4657421;0;
185.064;0;188.3401;231.6676;5.523848;-4.584934;183.4086;186.5836;0.1652066;-0.3353395;0;
29.64357;0;40.10033;70.1409;2.705258;-3.910498;30.3637;34.0352;0.2949753;0.3146709;0;
-540.0374;0;-503.2918;-496.2699;4.242782;-5.045279;-531.5094;-527.8416;0.1647442;0.4442894;0;
-652.2505;0;-628.2231;-637.8248;3.903726;-6.178797;-644.106;-638.5053;0.2945133;-0.2058305;0;
-281.9685;0;-277.6428;-298.7291;0.1487591;-2.086752;-276.6432;-272.2975;0.22925;-0.4005257;0;
-208.9092;0;-191.407;-230.4006;-0.5209757;-0.7449962;-201.3404;-200.9346;-0.4206537;-0.2701885;0;
-18.04516;0;-15.36554;-39.39;2.427285;-9.652856;-13.73229;-14.51383;-0.8750024;-0.01004769;0;
582.4836;0;540.2456;543.9814;3.831365;-12.45632;577.7342;576.5162;-0.4843192;0.3797665;0;
654.9241;0;619.725;622.3326;4.899242;-6.348476;651.304;647.4009;0.1008735;0.2494502;0;
255.3416;0;255.7225;279.3169;7.104146;-6.944944;256.4726;253.9479;0.1657395;0.1192649;0;
187.1817;0;188.0619;232.9344;9.307811;-6.603051;185.0632;187.7259;-0.1592637;0.1841124;0;
13.33086;0;19.02035;54.47744;11.64298;-5.725638;14.15056;17.43527;-0.3540057;-0.01097467;0;
-544.4022;0;-509.2332;-500.4859;15.85084;-11.61426;-534.7753;-532.056;-0.2237153;0.0540037;0;
-638.6825;0;-601.9872;-624.358;19.0501;-12.40639;-630.1897;-625.3493;-0.1585232;0.2488515;0;
-277.3471;0;-264.739;-295.2083;15.68205;-11.32219;-272.1736;-268.8373;-0.09339657;-0.07623529;0;
-203.7302;0;-191.822;-229.382;13.92401;-11.17685;-195.5635;-196.1036;0.1665666;-0.2710607;0;
-12.30915;0;-13.96858;-37.56038;27.10553;-11.76847;-7.648838;-9.562729;-0.1584374;0.05404835;0;
576.1574;0;531.5212;535.8766;29.89133;-12.96233;571.6302;568.9061;-0.4181476;0.5087655;0;
653.8517;0;613.8206;619.1711;17.20262;-3.170046;649.9536;646.0454;0.1669786;0.3783196;0;
256.2067;0;252.1977;277.5953;14.90719;-0.7554748;255.9983;253.968;0.4916475;0.1180701;0;
184.9849;0;181.8546;227.1541;11.40958;-5.108606;182.0905;184.1228;0.1663168;0.2478861;0;
29.37719;0;35.37038;65.56944;8.250287;-4.232695;29.10939;32.57638;-0.02875231;-0.142167;0;
-534.8063;0;-491.5253;-493.6529;6.901851;-10.65856;-526.2657;-523.2395;0.2961133;-0.3369262;0;
-650.9602;0;-611.4709;-639.9581;5.019882;-12.85829;-642.6782;-638.7179;0.2308484;-0.01175097;0;
-276.9938;0;-269.3407;-299.2985;7.158291;-11.70666;-272.843;-270.6358;-0.02925291;-0.0767065;0;
-199.8791;0;-190.547;-228.0959;7.55324;-13.16852;-193.1712;-195.7139;0.3605805;0.05330526;0;
-21.39285;0;-23.50191;-50.39337;11.02828;-9.471347;-17.25293;-21.04246;0.1653162;0.2481537;0;
575.766;0;531.8051;532.8016;13.42809;-7.385359;571.406;567.4954;-0.09471928;0.1829371;0;
654.8349;0;617.4774;620.347;12.41022;-10.65998;651.104;645.4482;0.2951799;0.1177859;0;
248.8807;0;246.6056;268.4627;12.86627;-9.309732;248.6517;245.2505;0.3598507;-0.2071692;0;
178.9781;0;177.8922;219.53;18.41304;-3.272036;176.0008;177.1631;0.09961974;-0.2719284;0;
15.3804;0;21.04219;50.70662;20.06948;0.01329346;15.21718;17.0655;-0.09538238;-0.0767531;0;
-540.4182;0;-506.5887;-502.3164;17.77214;2.960529;-532.9601;-530.6763;-0.1602539;-0.01170864;0;
-634.8899;0;-601.969;-625.8743;19.76304;5.63675;-629.1259;-624.4082;-0.03015818;-0.3365336;0;
-277.119;0;-265.9702;-300.7835;6.816084;11.05658;-274.984;-271.9577;0.09980681;-0.2712281;0;
-210.6238;0;-200.1734;-241.5109;1.383251;13.59082;-205.6799;-206.5921;0.2946085;0.2487832;0;
-14.19831;0;-17.50152;-45.1793;18.79694;15.92145;-12.44524;-13.85631;0.1643778;0.4434352;0;
577.3936;0;534.2387;535.6367;20.78778;18.98666;571.1489;568.9896;-0.3555261;0.3780223;0;
647.278;0;611.5378;618.3066;16.27891;10.0591;642.4764;638.5702;-0.6800056;0.1177731;0;
250.7641;0;251.4165;275.2325;18.20494;8.37442;249.3406;247.6872;-0.4194529;-0.2721493;0;
184.1705;0;185.1346;228.2919;9.613809;12.11693;179.6875;182.2211;-0.3540641;-0.4018105;0;
22.06682;0;32.83754;63.58268;6.054175;11.03303;20.64926;23.68009;-0.483643;-0.2714721;0;
-540.9849;0;-500.24;-496.6371;17.0328;14.43807;-533.468;-530.2527;-0.1583203;-0.2711993;0;
-646.2631;0;-616.7411;-632.4446;18.28849;14.35658;-639.0036;-633.1055;-0.02822656;-0.3358941;0;
-274.925;0;-271.4196;-293.854;11.63868;17.02135;-271.7958;-267.2779;-0.0281982;0.1192148;0;
-202.4351;0;-193.3735;-227.7793;11.76071;18.61184;-197.4974;-197.3569;0.1667322;0.2490297;0;
-21.51002;0;-23.88929;-44.51743;5.453226;10.08642;-19.88814;-20.37243;-0.2232394;-0.07605729;0;
570.4016;0;527.67;536.4853;2.232566;7.53106;563.4636;561.7929;-0.09308043;0.1838885;0;
649.1011;0;612.4719;622.7151;10.93786;9.465998;643.4819;639.2517;0.4917192;0.3136384;0;
254.3969;0;252.4122;278.8244;11.46273;7.580964;252.9689;251.0542;0.1663884;0.3133233;0;
189.4239;0;187.8159;232.7548;10.04469;6.903517;185.6234;188.021;-0.1586155;0.2480411;0;
23.37939;0;31.39318;62.91867;10.57047;6.628649;23.58073;26.47567;0.1663806;-0.0120775;0;
-537.0499;0;-497.4351;-493.6773;6.741451;1.799339;-527.7908;-525.0862;0.3611154;-0.142;0;
-635.8978;0;-602.1324;-621.8041;5.194436;1.127702;-627.0853;-623.6338;0.03591586;-0.4017267;0;
-275.1898;0;-264.884;-294.3436;6.260943;2.06433;-270.1343;-268.0606;0.1008471;-0.5962251;0;
-206.885;0;-192.9664;-233.2034;5.718789;2.129238;-198.8986;-201.0748;0.4905498;-0.5306587;0;
-14.52375;0;-14.17479;-38.50434;3.234796;6.212936;-9.793666;-12.90471;-0.02968181;-0.4001908;0;
580.0045;0;538.8115;543.2419;3.49899;7.144454;575.2971;572.8138;-0.3544887;-0.009984612;0;
655.0712;0;620.1664;624.9048;-0.1208725;12.09389;651.4305;647.0757;-0.09426314;0.1199601;0;
260.4235;0;259.974;284.3228;-0.5902417;14.22519;260.5345;258.6204;0.1007336;-0.2049971;0;
196.069;0;192.8714;239.7468;0.6831492;12.87124;193.244;196.3292;-0.0293023;-0.07485647;0;
27.6441;0;33.69502;67.27999;-2.197925;14.66685;28.19515;30.96498;-0.3541096;0.3150228;0;
-540.7855;0;-503.2564;-494.5677;15.28671;4.939705;-530.8022;-528.0977;-0.2238191;0.2497389;0;
-644.1898;0;-616.5685;-626.0045;19.02239;1.451751;-634.0917;-628.8286;-0.2235942;0.3144553;0;
-273.2912;0;-267.3742;-287.8576;8.018564;6.741822;-266.4515;-263.63;-0.09343482;0.249172;0;
-202.1772;0;-187.0208;-224.6;8.881163;4.6587;-192.096;-194.8995;-0.0283736;-0.07591507;0;
-21.9395;0;-19.29214;-42.96553;-8.610185;9.007787;-15.49167;-18.91704;-0.2882144;-0.2057735;0;
579.093;0;539.134;542.221;-15.23297;10.80715;575.6642;572.1799;-0.1579902;-0.2055667;0;
662.1565;0;627.735;628.9448;-8.317807;2.088757;660.4179;654.5632;0.1670053;0.1194766;0;
254.2584;0;255.666;280.2378;-10.4529;1.952692;256.5195;252.9821;0.0369028;0.3792259;0;
183.6633;0;185.0694;233.7295;-11.58148;-0.7284654;182.2365;183.5751;-0.09306896;0.1839428;0;
19.18629;0;26.77546;62.95534;-13.64594;-2.670238;21.38414;23.03376;0.4267633;0.05382328;0;
-542.6131;0;-505.234;-494.6402;-1.240999;6.307914;-531.8593;-530.5861;0.6212364;0.2486712;0;
-641.0806;0;-607.1124;-624.1403;2.913433;7.440285;-631.0872;-628.1912;-0.02906114;0.2484214;0;
-283.3035;0;-270.5463;-300.7379;-4.725304;10.78183;-275.9438;-274.7373;0.0359354;-0.271567;0;
-214.8656;0;-197.8108;-237.28;-2.175937;13.24937;-204.3274;-207.6198;0.1008666;-0.1413594;0;
-17.43629;0;-14.3292;-37.57932;-8.604112;8.279441;-10.78175;-14.69558;-0.4839408;0.5084561;0;
575.908;0;537.6577;541.8547;-8.327047;8.070172;573.248;569.588;-0.3535199;-0.01179361;0;
649.542;0;617.5146;623.1441;-8.519751;2.837517;647.9467;641.7916;0.4264435;-0.1417164;0;
254.3377;0;257.3873;282.7513;-10.38622;-1.184188;256.3047;251.9673;0.5559497;0.5080994;0;
186.3037;0;190.0999;233.2419;8.043664;4.108531;185.0203;185.4975;0.360489;0.7024909;0;
16.82657;0;23.43005;58.34532;12.25514;2.89871;18.60547;19.45692;0.2301921;0.7667524;0;
-546.1573;0;-509.2632;-500.4325;12.37752;-3.333493;-535.6971;-534.6591;-0.02990855;0.3761778;0;
-644.9961;0;-602.8917;-629.6144;14.90971;-4.870751;-635.1086;-631.5104;-0.1598132;-0.2089062;0;
-280.8432;0;-262.3943;-296.7113;10.4741;-10.89408;-274.6513;-272.2437;0.03524942;-0.07876162;0;
-208.7846;0;-193.1028;-231.1335;9.592916;-13.89736;-200.1626;-202.7549;0.1651487;0.1162196;0;
-19.66979;0;-17.43448;-42.37101;1.478952;-9.52963;-14.92952;-18.39373;0.03504806;-0.01383192;0;
572.4898;0;532.8065;537.0678;-2.006135;-9.386088;567.043;564.2694;0.03501285;0.181084;0;
651.4371;0;615.9166;622.485;-10.44324;-10.31442;645.7458;641.5383;0.09994501;0.1159347;0;
253.2948;0;251.7304;277.595;-16.59566;-10.37104;251.17;248.9032;0.1648119;-0.01411646;0;
186.6987;0;184.9484;232.7135;-7.401958;-6.073709;181.7024;183.9981;0.2296137;-0.144037;0;
24.96729;0;34.46313;66.87544;-7.059727;-3.991257;22.97454;26.64222;-0.03048642;-0.07892489;0;
-542.8349;0;-493.806;-495.4091;-8.124361;-6.934373;-535.7677;-531.479;-0.09542313;0.1810238;0;
-651.0473;0;-604.7538;-630.7181;-5.906371;-5.989645;-643.6749;-637.9537;0.03460744;0.1158746;0;
-284.3271;0;-270.5638;-298.1262;-8.512404;-7.591217;-279.9606;-276.3066;-0.03039468;-0.1441113;0;
-210.2035;0;-198.7029;-233.484;-8.637572;-7.985487;-203.4676;-204.8148;0.2295052;-0.2739011;0;
-21.14975;0;-22.02946;-42.65769;0.1450165;-4.896369;-17.79387;-19.95183;0.1643073;0.1161781;0;
571.761;0;530.7773;539.3427;3.025259;-4.489552;566.1805;564.7119;-0.3555965;0.4408981;0;
647.2108;0;611.4532;621.5716;0.008109168;-2.40857;642.1981;638.4821;-0.2253046;0.4404551;0;
251.9463;0;250.2076;278.6191;2.151555;-1.669338;250.3744;248.5362;-0.03017615;0.5049798;0;
186.1636;0;184.9888;233.1744;-2.53868;-0.127175;181.7822;184.631;0.09978885;0.1796358;0;
19.43523;0;28.00673;60.58921;-2.938271;1.547526;18.05676;20.90265;0.1646559;0.1794553;0;
-544.3634;0;-497.5697;-498.3158;-0.6581429;-5.286166;-537.1823;-534.8391;-0.1603462;0.374177;0;
-647.077;0;-603.0165;-629.1865;-2.197723;-7.357203;-639.5908;-635.8131;-0.2251524;-0.1459378;0;
-281.985;0;-270.0777;-299.7196;9.056642;-1.187503;-277.6298;-275.9173;-0.09499153;-0.2757258;0;
-210.6749;0;-199.1543;-236.1378;11.32569;-0.5164804;-204.2625;-206.6747;0.294908;0.1793227;0;
-18.80954;0;-18.4824;-41.4982;8.232855;-3.597176;-15.46457;-18.12423;0.359579;0.2441098;0;
575.6606;0;536.3198;543.0622;9.69845;-3.191664;570.8812;568.0369;-0.3554231;-0.2109069;0;
647.1709;0;613.8666;621.8516;-0.6937711;-5.197945;643.8332;638.6178;-0.03022925;-0.600499;0;
248.5956;0;249.9949;273.2767;-3.639835;-6.599242;249.3842;246.1106;0.3596052;-0.1451242;0;
183.5659;0;186.3381;229.7114;-3.770875;1.378114;181.5426;183.3322;-0.03056021;0.2448257;0;
22.08753;0;36.16376;66.62492;-6.245333;3.587166;23.62694;25.72716;0.1643725;-0.1452244;0;
-540.6518;0;-489.171;-492.0363;-3.224948;-1.038139;-529.931;-528.1453;0.03427268;-0.0151438;0;
-649.5535;0;-603.8716;-631.2216;-2.819566;-0.635198;-639.6556;-636.0601;-0.0307291;0.3097081;0;
-283.9593;0;-269.9948;-299.5038;-1.008071;-2.041201;-278.1318;-276.6013;0.4890405;-0.01543978;0;
-208.5867;0;-193.4494;-231.2995;1.337466;-3.244843;-200.3913;-203.61;0.1637124;-0.2103263;0;
-23.03281;0;-21.34143;-45.66028;-1.410544;0.3753737;-18.90607;-22.80865;-0.1612888;-0.1451476;0;
574.0652;0;532.6516;536.0308;-2.413505;0.7099112;568.88;564.7314;-0.1611267;-0.08003443;0;
655.3847;0;619.8847;623.5729;10.31495;-1.969997;652.0787;645.6855;0.09890454;-0.1449213;0;
254.4274;0;255.6946;279.6813;13.85455;-2.905779;255.6225;251.8594;0.4886092;0.05012629;0;
188.2674;0;189.9706;236.6093;4.730955;-2.099064;187.025;188.2631;0.1632815;0.1800106;0;
20.53742;0;30.98453;62.45898;5.128343;-2.230921;21.91998;24.2813;0.09815013;-0.4698437;0;
-548.0099;0;-500.5919;-503.4444;-2.780064;-4.573082;-538.3829;-534.8995;0.3579209;-0.729241;0;
-648.8458;0;-606.0356;-633.8102;-6.997806;-4.702453;-639.4159;-633.8121;0.2925939;-0.2087695;0;
-284.3143;0;-272.7814;-302.7769;1.180899;-7.242957;-279.2666;-275.9173;0.2273325;0.05130967;0;
-207.8169;0;-196.3581;-233.6948;0.1079858;-8.575337;-200.9003;-202.177;0.03220211;-0.2735786;0;
-13.83049;0;-14.68952;-38.93273;0.4436461;-2.873294;-10.16916;-11.38213;0.09713709;-0.3382711;0;
571.3268;0;529.7391;535.2553;0.3085024;-1.932646;566.6761;565.9641;0.4218762;0.0518729;0;
642.8415;0;607.9797;616.8636;-2.437498;-1.394841;639.8821;636.1724;0.551387;0.1817555;0;
248.0811;0;248.1119;274.3532;-2.970912;0.08006347;248.748;246.6661;0.2909636;-0.01332919;0;
183.0519;0;183.7698;227.2261;-7.455905;-2.733178;180.6571;183.4499;-0.0341655;0.1166189;0;
23.44814;0;35.03481;65.07915;-8.854933;-2.529483;24.17915;27.5938;0.03083617;0.1814691;0;
-536.5439;0;-492.9225;-488.458;-11.25791;-2.459959;-526.8182;-523.3445;0.1607399;-0.2734847;0;
-639.5153;0;-601.1226;-621.0253;-12.71949;-2.323521;-630.6114;-625.517;0.4204477;-0.4681119;0;
-270.9326;0;-258.0033;-286.1319;-11.03275;-1.450408;-266.2231;-262.8205;0.2900906;-0.0778375;0;
-208.3168;0;-192.9016;-229.81;-11.55752;-1.047053;-199.9888;-200.775;0.09489707;-0.01279195;0;
-28.44775;0;-24.91712;-48.29523;-3.105817;1.164314;-22.25206;-24.41178;0.2897037;0.1171556;0;
584.2104;0;545.6961;547.9536;1.451655;1.832973;581.7167;578.9345;-0.1003914;0.2469726;0;
664.2079;0;631.4169;634.2969;-9.467168;3.237773;663.8406;659.3121;-0.5550619;0.1817571;0;
248.6865;0;250.9734;276.3391;-11.33366;3.23452;252.8174;249.9175;-0.1647002;-0.0133276;0;
185.031;0;189.0647;235.0196;-0.270215;5.508567;185.7219;187.3228;0.1603021;-0.4680856;0;
25.36273;0;36.88863;72.17767;-0.1362217;6.172862;28.98902;31.8376;-0.09972838;-0.792452;0;
-537.3799;0;-496.5678;-484.9898;3.146445;-1.134236;-524.6368;-521.6037;0.1602412;-0.466819;0;
-637.2894;0;-595.269;-614.6246;6.492186;-3.477499;-625.2463;-620.0298;0.09511284;-0.01157856;0;
-280.3282;0;-261.7132;-290.6696;-12.20221;-3.80892;-272.9199;-269.1454;-0.2298194;0.05340042;0;
-206.5835;0;-189.6738;-224.723;-16.81165;-5.211734;-197.4335;-198.7852;-0.2295885;-0.01162058;0;
-5.851674;0;-2.514734;-25.28483;-8.756804;-8.488539;-0.02170487;-2.871347;-0.3592925;0.05335844;0;
581.9837;0;542.9011;549.6391;-9.819733;-10.22157;579.0623;576.153;-0.03409478;-0.07662985;0;
644.6796;0;612.5703;622.0502;-7.666412;-5.120715;642.2608;638.1052;0.2258088;0.2482839;0;
247.9185;0;252.1982;278.2851;-6.520609;-3.574962;248.7505;246.8478;-0.1642221;0.4429364;0;
186.8874;0;190.1633;234.9646;-6.58043;-5.647718;184.97;186.7549;-0.2290244;0.2475893;0;
20.40822;0;33.11357;65.12626;-5.703162;-5.173285;21.80351;23.46169;-0.03389228;0.3772752;0;
-538.8312;0;-494.1547;-488.8483;-2.615972;-1.617992;-528.7542;-526.5355;0.2260111;0.1819941;0;
-641.9252;0;-603.1656;-621.7275;-0.9393805;-1.281451;-631.9207;-627.3929;0.09584936;0.2467786;0;
-280.1492;0;-264.7294;-291.7059;-3.014541;3.40852;-273.0284;-269.7545;-0.03418164;0.1815633;0;
-202.4066;0;-185.2532;-222.26;-2.542998;6.553171;-193.6063;-194.3337;0.3556568;-0.3383579;0;
-19.42013;0;-17.40131;-38.37902;-3.34375;-5.041217;-14.68911;-16.47771;0.03046269;-0.07814855;0;
578.1115;0;537.15;543.8044;-3.072946;-6.844569;574.4045;572.1805;-0.359372;0.2467667;0;
664.7368;0;628.3141;632.4007;-6.552483;-4.02453;662.2205;657.3749;0.1607279;-0.07831798;0;
250.9016;0;252.1216;276.6313;-9.292565;-5.828904;252.1358;249.5441;0.4204357;-0.3381087;0;
182.5587;0;185.4016;233.3749;4.5155;2.348627;181.293;184.3884;0.4200133;-0.1428669;0;
31.45111;0;43.97383;76.84399;9.065314;4.757652;33.55998;37.52689;0.09475453;-0.077756;0;
-534.9833;0;-485.9915;-484.9509;-3.536098;0.1980326;-524.2559;-520.6678;0.02969198;-0.1426452;0;
-641.0172;0;-597.6343;-620.7076;-3.197752;0.6667141;-630.8003;-625.2168;0.2245642;0.3122695;0;
-279.4295;0;-266.8248;-292.8734;-3.663054;1.93872;-272.5337;-269.0797;-0.1004982;0.1170537;0;
-207.6846;0;-194.9052;-228.9236;-6.272317;2.33867;-198.5469;-199.7816;0.02953748;-0.4028026;0;
-7.326572;0;-6.866258;-27.48223;10.54682;2.671234;-2.071075;-4.428928;0.1594425;-0.2074959;0;
588.194;0;546.7999;554.0656;15.359;3.472345;584.0739;581.3436;-0.4254238;0.1825167;0;
655.6937;0;620.5881;626.4722;3.822011;0.1197097;652.14;647.1011;-0.360029;0.05239859;0;
257.6096;0;256.2098;282.5777;3.215935;-1.487879;256.8081;253.8982;0.1600715;-0.2075234;0;
191.259;0;188.7986;237.129;6.226813;6.953221;186.8351;189.4878;0.224878;-0.07738022;0;
19.15324;0;28.68932;61.91619;5.818415;9.290638;18.41943;21.75665;0.1596847;-0.1422698;0;
-541.0219;0;-502.8224;-492.1176;6.147361;3.386926;-532.3223;-529.3007;0.02958957;-0.3370289;0;
-642.7394;0;-611.6371;-623.8691;7.212911;3.651455;-634.6107;-628.9685;-0.1003748;-0.01185352;0;
-285.7102;0;-273.8795;-300.5919;1.646934;3.781752;-281.5876;-277.0756;-0.03530664;0.2480278;0;
-210.5858;0;-197.2677;-234.1357;0.9083453;3.51002;-204.0935;-204.2711;-0.3601079;0.2477785;0;
-22.84343;0;-24.15644;-45.18274;3.854194;5.98474;-19.1688;-21.15783;-0.6845828;0.1825622;0;
576.3159;0;533.7749;539.5687;2.577523;6.380624;570.8664;568.567;-0.4240255;0.2473461;0;
663.0054;0;624.5676;629.9184;14.02914;9.723359;657.9987;653.5153;-0.3586321;0.5719343;0;
250.6712;0;250.6277;275.151;16.69436;11.85692;249.6674;247.125;-0.2933044;0.4414249;0;
180.392;0;180.6609;228.2729;12.85919;6.285545;176.8905;179.7854;-0.09810767;0.1161447;0;
26.8503;0;36.05201;70.06046;14.18642;4.805727;26.53828;30.30483;-0.03304175;-0.07887405;0;
-535.8314;0;-486.2217;-487.3548;3.857033;11.49895;-527.6473;-524.3218;0.4217629;-0.1437621;0;
-641.3022;0;-597.0522;-623.0466;0.6379769;12.02326;-633.751;-628.7422;0.09650235;0.05128434;0;
-283.6497;0;-272.8025;-299.2705;-1.037603;9.465946;-279.6045;-276.5997;-0.2933987;-0.1436692;0;
-211.5258;0;-200.502;-235.3143;-5.055049;9.523418;-205.5481;-206.8567;-0.09820183;-0.2734595;0;
-10.3518;0;-12.70738;-32.74208;0.509736;4.289302;-8.003243;-9.997668;-0.5528746;0.1815866;0;
588.545;0;544.2755;552.3093;0.4418748;2.141538;581.8333;579.5286;-0.4873517;0.1164368;0;
659.2928;0;622.5639;629.5277;-2.104165;2.474301;653.4624;649.2234;-0.09705794;-0.2085169;0;
260.8303;0;261.557;289.9405;-1.767258;0.1274124;258.9413;257.0804;-0.03199307;-0.01340534;0;
194.6639;0;195.2024;244.7343;-2.233996;6.155626;189.8407;192.8542;-0.03196093;0.2464775;0;
21.18038;0;31.401;63.45436;-1.562166;8.694793;19.73534;23.05817;-0.09689615;0.3111972;0;
-542.62;0;-496.0529;-496.3281;-3.301909;-2.097952;-535.1306;-531.936;0.03313589;-0.07891956;0;
-644.1485;0;-604.4998;-626.6386;-3.633384;-2.966622;-637.2288;-631.4763;0.2280046;-0.2737423;0;
-282.3078;0;-272.4339;-297.8614;-0.01241061;0.6533149;-278.1437;-275.208;0.2927428;0.3112389;0;
-206.2497;0;-194.0744;-229.6587;0.9919798;0.116795;-199.6535;-201.9681;0.2274814;0.4408608;0;
-18.63668;0;-18.84243;-38.89874;1.995361;7.953559;-15.42041;-17.98259;-0.03261657;-0.01435358;0;
576.2081;0;533.5864;543.2852;3.600946;9.754107;570.8629;568.3033;-0.3574205;-0.1442738;0;
656.8383;0;619.7566;627.1344;0.3821475;11.55272;652.1856;647.5046;-0.3570614;0.05077315;0;
250.1324;0;250.6316;275.4307;-0.8910342;13.88552;249.4199;246.1805;0.0980688;0.3755589;0;
186.5379;0;187.3489;235.299;6.009713;8.111155;182.9526;184.5264;0.2928723;0.1153121;0;
33.98952;0;43.35798;78.01653;6.874331;8.303953;32.71918;35.41589;-0.09722604;-0.2746078;0;
-532.3225;0;-488.106;-485.2163;4.389177;2.401233;-524.4711;-522.027;-0.032161;-0.2093645;0;
-641.295;0;-604.057;-625.5955;5.590215;0.05441773;-634.2637;-629.1984;0.2277407;-0.3390889;0;
-283.2678;0;-274.7403;-302.6289;-0.7120414;3.135578;-280.2415;-276.6805;0.2275118;-0.2737808;0;
-211.6441;0;-200.5014;-237.6698;-1.046119;1.055956;-204.9351;-207.1248;0.2922506;0.05133102;0;
-9.657818;0;-11.83214;-33.53345;-1.37986;11.37002;-6.578816;-9.765786;0.1620222;0.1162468;0;
584.7406;0;540.3397;548.2078;-2.450201;14.1049;578.821;575.8247;-0.09800993;0.311032;0;
647.996;0;609.4493;619.8707;9.743399;7.191606;644.1438;638.9016;0.03202324;0.3756868;0;
251.9811;0;249.455;277.9819;13.28358;7.318346;251.2562;247.9558;0.2268931;0.05047262;0;
189.5092;0;189.4219;236.8481;16.28435;4.765641;185.5367;186.9247;0.2266651;0.1153893;0;
15.84346;0;26.81323;59.26177;20.95605;3.890196;15.31072;17.00971;-0.228334;0.05030596;0;
-542.2669;0;-498.0124;-497.8928;13.43291;1.876799;-535.6152;-533.3558;-0.3580393;0.1152228;0;
-639.423;0;-601.9595;-626.3276;11.74545;1.205084;-633.9024;-629.5837;-0.2277448;0.115107;0;
-285.2082;0;-277.5799;-305.4843;18.43145;1.13689;-283.004;-281.2509;-0.3574507;-0.4047474;0;
-210.2716;0;-202.776;-238.7732;17.00641;1.001782;-206.3205;-208.6921;-0.03225482;-0.2094387;0;
-13.53413;0;-19.03946;-39.50832;16.72188;5.220578;-13.08524;-15.51688;0.03274493;-0.1442609;0;
582.1176;0;533.6393;541.7392;16.8388;5.550247;573.5081;570.5791;-0.2271573;-0.6638547;0;
663.7413;0;620.6841;626.4645;1.482912;15.52488;655.5153;649.7157;-0.2918964;-0.338351;0;
256.1539;0;250.4338;275.6985;-3.943586;20.26495;251.1845;247.7021;-0.2266358;-0.07814159;0;
182.6834;0;176.5317;225.0094;0.3472846;10.33136;174.533;176.0516;-0.1614407;-0.2729651;0;
29.76407;0;30.17775;66.42537;-1.596423;10.45494;24.12068;26.44984;-0.2262459;-0.3376582;0;
-534.7946;0;-505.146;-493.1726;-3.201434;10.37745;-532.6237;-529.8596;-0.1610512;-0.1424169;0;
-642.7027;0;-621.2673;-631.4199;-4.337293;9.76418;-641.5335;-637.7727;0.09898002;-0.07730642;0;
-270.8685;0;-271.9433;-294.267;0.4224876;11.02705;-273.1987;-271.878;-0.03105412;-0.2071634;0;
-195.8214;0;-190.5858;-227.3174;1.828583;10.81502;-195.4007;-198.1417;-0.2259249;-0.01205324;0;
-6.53219;0;-15.48225;-36.43478;-1.253738;12.74665;-10.04741;-12.91062;-0.2256979;0.1178936;0;
590.5493;0;538.5673;546.7462;-1.989412;12.33195;576.6053;574.2448;-0.3554058;-0.01215959;0;
664.231;0;618.5482;624.7823;0.8256261;21.16106;650.426;645.2567;-0.3550487;0.247722;0;
258.7046;0;247.1131;273.4558;1.36066;25.3596;248.3493;244.6219;-0.2897246;0.1825058;0;
189.8541;0;178.0868;225.9548;-6.678659;14.95201;175.3238;177.6597;-0.1594988;-0.3374164;0;
25.99564;0;22.42354;57.31241;-8.815402;15.33888;12.72927;16.31217;-0.09437122;-0.27211;0;
-532;0;-513.4547;-497.2789;-9.47613;12.57729;-537.0696;-533.8652;-0.02930905;-0.1419019;0;
-629.1663;0;-619.8849;-626.1517;-11.0742;9.349595;-634.7307;-630.1551;0.1006551;-0.2067267;0;
-269.9644;0;-276.1845;-301.6229;-7.245654;22.66944;-280.1458;-277.8237;-0.1593154;-0.07658425;0;
-199.416;0;-200.6324;-238.289;-4.893849;24.18727;-208.0879;-210.1409;0.03574668;-0.01153996;0;
-2.002212;0;-19.08443;-40.71126;-8.773698;22.42141;-14.85082;-17.90127;0.1656455;-0.07649571;0;
593.3256;0;535.2186;541.1622;-7.960598;23.80552;570.0576;566.5729;-0.224325;0.05351584;0;
666.5673;0;612.4542;621.8276;0.08437616;17.21739;642.4481;637.2178;-0.02919762;0.1833968;0;
266.6607;0;245.523;272.9403;1.960302;16.73121;244.4398;241.5886;-0.2240703;0.05327779;0;
200.2385;0;177.248;222.9411;8.589764;10.48511;172.7926;174.9417;-0.8085513;-0.01174308;0;
37.93127;0;25.14624;56.738;10.72459;7.99633;12.01222;14.97128;-0.4179347;-0.07669862;0;
-522.3253;0;-499.053;-498.0402;13.72792;10.26559;-540.1598;-537.4536;0.1022239;-0.07662155;0;
-623.8741;0;-607.1845;-630.2855;18.20113;7.777031;-643.1275;-638.7999;0.2970232;0.2482921;0;
-261.3042;0;-274.4288;-301.1298;-3.519141;19.15607;-284.911;-282.2119;0.1667901;0.1830753;0;
-190.1398;0;-203.5011;-237.2342;-9.074334;21.07921;-212.2236;-213.3378;-0.02827951;0.05295667;0;
0.5180666;0;-27.44753;-46.9039;1.249911;18.04392;-25.6041;-27.65417;-0.09321844;-0.07703122;0;
596.1556;0;525.7395;536.0377;-0.5600062;18.7626;560.2521;557.5795;-0.3529941;-0.2068885;0;
669.7068;0;604.4214;617.0206;5.468776;10.371;633.652;628.6082;-0.6774762;-0.271648;0;
263.925;0;232.8131;262.7659;8.142598;7.882333;230.0304;226.9282;-0.3519587;-0.2064077;0;
195.2567;0;162.177;213.1517;3.378995;0.7073611;156.0238;158.3595;-0.0917357;-0.1412329;0;
36.39031;0;11.5897;48.95744;3.643043;-4.249965;-1.616269;1.404207;-0.4164802;0.3136804;0;
-517.8677;0;-506.8488;-504.1263;8.663224;-0.4947721;-548.2149;-545.8221;-0.4810291;0.4432999;0;
-617.2346;0;-611.5367;-635.1786;10.26211;-1.900795;-648.4259;-643.9741;-0.0907417;0.1180177;0;
-259.1066;0;-284.6487;-310.5782;6.367033;-1.831902;-294.7643;-291.3789;0.1692188;-0.01203553;0;
-189.4436;0;-215.8347;-248.2973;5.623701;-0.5575072;-224.5658;-225.1818;0.1040815;-0.07699078;0;
5.773678;0;-34.77119;-53.6455;6.421357;-1.628552;-33.93582;-35.73812;0.03900954;0.1179886;0;
602.0931;0;518.4232;529.8027;5.879042;-0.2873789;552.2411;550.5656;-0.02599699;0.1828374;0;
675.8258;0;596.7377;610.1047;2.591581;5.339354;624.5871;621.0392;0.1039638;-0.01224835;0;
278.3462;0;232.8831;260.8544;0.7129664;8.817101;229.033;227.0504;0.3637287;0.1176987;0;
212.0372;0;167.6193;214.0532;1.717604;8.138412;159.9;162.4796;-0.2213428;-0.01235431;0;
38.59868;0;5.157488;39.05094;-0.160132;9.402789;-9.737939;-5.786669;-0.4809898;-0.2722113;0;
-526.5935;0;-531.328;-521.4566;2.720417;15.68961;-566.136;-561.6265;0.1691669;-0.3369051;0;
-620.7668;0;-633.4301;-645.8698;3.655689;17.48239;-661.8312;-655.7021;0.363899;-0.1416645;0;
-251.266;0;-287.9669;-314.1373;-5.19022;17.86672;-297.8488;-293.5374;0.4285007;0.2482819;0;
-176.2386;0;-212.7152;-250.6659;-6.456826;19.05446;-223.0245;-223.0278;0.2981354;0.1830651;0;
16.46673;0;-34.6534;-57.8233;-8.326348;14.94936;-35.39463;-36.39737;-0.2219029;-0.01202092;0;
612.9004;0;522.4139;530.8764;-10.52781;14.86735;553.8448;552.5931;0.03818945;-0.4018129;0;
683.6862;0;600.0372;614.6756;-1.609599;9.4939;626.3141;623.0023;0.4929225;-0.3364418;0;
274.8918;0;224.2479;255.1134;0.8712413;7.274045;219.2016;217.3923;0.1026231;-0.01126704;0;
207.3369;0;154.8074;202.9457;-2.880678;12.49128;146.5177;149.3954;-0.287284;-0.1411904;0;
49.70771;0;3.977538;39.44881;-2.476618;12.00985;-9.925932;-5.989132;0.2327434;-0.1410485;0;
-505.1884;0;-525.0731;-513.6878;1.679056;18.96389;-556.0789;-551.7713;0.6872809;-0.07593947;0;
-606.5045;0;-629.9924;-643.9185;2.280581;21.62403;-656.5319;-650.3545;0.4916883;-0.1408305;0;
-249.0745;0;-289.9675;-317.2478;3.41639;17.65043;-301.7377;-297.8779;0.1013902;0.1841477;0;
-178.7969;0;-217.3375;-252.0242;4.886826;18.23554;-228.3463;-228.8631;-0.5483851;0.5087994;0;
16.84699;0;-37.20956;-57.68097;-5.500561;15.9398;-36.52563;-37.60417;-0.8077034;-0.01145059;0;
610.7191;0;513.0513;523.335;-9.111381;14.45016;546.9678;545.3906;-0.2871531;-0.5311778;0;
682.0692;0;586.4361;603.8309;-3.141355;14.36865;616.3206;612.621;-0.09196258;-0.2058074;0;
284.7707;0;224.0912;253.9622;-3.606713;12.81373;220.6499;218.953;-0.2218049;-0.07566591;0;
218.0805;0;158.9611;205.1689;-4.473745;11.12628;151.6502;155.015;-0.02667996;0.05434481;0;
47.88428;0;0.006228167;33.73634;-2.795286;9.842426;-13.85655;-9.308207;0.1682489;0.1192576;0;
-514.0064;0;-523.7305;-522.7054;-7.145758;8.158085;-566.5648;-561.7712;0.1680798;-0.205699;0;
-610.2538;0;-624.9656;-649.3662;-6.737412;7.413075;-664.3835;-657.5333;-0.2218931;-0.07555762;0;
-248.4472;0;-295.378;-322.3153;-2.376386;6.534849;-307.3951;-302.1759;-0.3516048;-0.140449;0;
-179.607;0;-227.5527;-260.3974;-2.708791;6.059402;-236.6216;-235.8429;0.1684872;-0.2702426;0;
12.85181;0;-48.97615;-69.60652;11.96234;9.067423;-48.22845;-49.07471;-0.02658414;0.05486565;0;
609.4765;0;505.5443;516.5438;17.17523;10.39797;537.5256;536.7427;-0.1564921;-0.01015682;0;
685.9503;0;586.8702;605.6672;5.703771;7.976259;613.1347;611.2906;0.2984365;-0.3999507;0;
278.653;0;214.6548;247.0511;4.358869;7.16445;209.3463;209.8154;0.2331693;-0.4645161;0;
211.5941;0;147.4728;196.4532;8.372977;14.05625;139.4834;144.5747;0.03803299;-0.1392127;0;
57.77115;0;2.272556;37.33567;9.570989;15.64972;-11.76825;-5.994925;0.2328968;-0.07410546;0;
-511.3134;0;-531.274;-529.7918;-5.777598;10.61039;-573.1617;-567.3942;0.1676954;-0.2039657;0;
-617.5584;0;-642.4341;-665.1912;-10.72829;10.46576;-680.9064;-672.6459;0.03759226;0.2510107;0;
-246.4991;0;-300.71;-327.5671;-0.2013073;7.173208;-312.8444;-306.4662;0.3623912;0.5106278;0;
-178.2231;0;-232.1921;-265.519;-1.005388;6.02729;-241.3783;-240.129;0.5569291;-0.1395587;0;
11.42322;0;-54.79787;-75.66;4.756398;5.150456;-55.54152;-55.293;0.4264348;-0.2693532;0;
606.6125;0;499.0413;512.3705;7.296238;3.738761;530.3448;530.5931;0.1011696;0.3156236;0;
676.78;0;575.4387;599.9988;3.738934;8.222738;602.0256;600.7119;0.2310026;0.3802738;0;
282.7351;0;217.5401;252.1955;4.27104;8.817323;211.9915;212.6781;0.3607052;-0.009912372;0;
219.2328;0;151.4796;199.8433;1.387337;11.15274;144.3748;149.496;0.03550606;-0.1398371;0;
46.34934;0;-12.84004;23.04373;0.1131449;13.01706;-26.7468;-21.06852;-0.0944643;0.05520544;0;
-512.0416;0;-540.9367;-532.6376;-1.96405;9.788799;-576.8184;-572.1453;-0.1593367;0.1850847;0;
-604.1055;0;-643.154;-655.5404;-3.434969;9.91293;-669.2546;-663.3993;0.1656601;-0.2049054;0;
-250.8008;0;-310.6121;-334.6052;-6.981491;9.568054;-319.5076;-315.2199;0.3603956;-0.2696668;0;
-183.7699;0;-238.711;-274.1117;-9.721142;9.022576;-250.7209;-250.9353;0.4250009;-0.1394612;0;
20.43722;0;-52.12726;-71.56295;-4.621159;8.27682;-51.13171;-52.03301;0.4895412;-0.0743537;0;
616.1797;0;502.8961;515.339;-4.616516;6.928845;535.4998;535.7863;0.2941473;-0.009311653;0;
687.5869;0;581.7885;602.0273;-5.817326;9.668061;608.4248;606.9619;0.09894966;-0.2691717;0;
286.4723;0;216.0124;249.162;-5.275617;9.457397;210.8255;210.3011;0.09885024;-0.1389665;0;
220.4674;0;149.3913;196.8128;-6.94428;7.170598;141.5234;145.1849;0.1637183;0.3159445;0;
63.19986;0;0.8782107;35.19619;-6.000273;6.560546;-13.04117;-8.821113;0.2285211;0.3805944;0;
-504.0161;0;-527.8569;-525.4949;-10.5486;4.209551;-571.8097;-566.7193;0.1633241;0.3152446;0;
-610.8307;0;-635.0224;-657.9625;-11.67707;3.535614;-677.994;-669.7228;-0.1616767;0.0550585;0;
-242.5267;0;-295.1173;-322.7195;-5.770841;-0.01803386;-311.8714;-305.7325;-0.1615142;-0.4647355;0;
-174.8794;0;-229.5411;-263.9871;-5.430249;-1.826433;-241.4058;-241.4574;0.03355008;-0.5292359;0;
13.26431;0;-57.58429;-77.81532;-0.8694655;1.658393;-57.44309;-58.86898;-0.2913203;-0.3338021;0;
615.8856;0;501.0678;514.4027;0.8727204;1.388795;534.1923;533.2051;-0.4209623;-0.1385647;0;
694.1021;0;582.0234;604.5903;4.153397;3.128955;610.6793;608.5687;0.09919942;-0.008490782;0;
292.9809;0;214.9353;250.0981;9.776278;3.527709;212.0158;212.2811;0.6838058;0.1214525;0;
226.7822;0;150.6265;200.6216;-4.83558;4.461803;143.1497;147.85;0.8130534;0.2512651;0;
57.95155;0;-5.00917;32.12959;-3.826344;5.997928;-21.09911;-16.27859;0.2275304;-0.008856758;0;
-504.0742;0;-530.9897;-524.4979;-0.4062473;-2.246756;-573.7376;-568.6096;-0.09753495;-0.00884786;0;
-602.0182;0;-638.0896;-653.5933;-1.678637;-4.655884;-672.9235;-664.9895;0.1624324;0.3809651;0;
-247.2164;0;-313.2364;-334.3466;26.92391;-0.5653687;-321.6111;-316.0589;0.2272365;0.05574558;0;
-177.6903;0;-240.6455;-270.9174;34.86843;-1.569422;-249.0117;-249.2747;0.4868776;-0.3341145;0;
25.26135;0;-50.24928;-66.62274;35.10084;-0.9651212;-49.54917;-50.81138;0.421421;-0.0739094;0;
621.3113;0;504.0226;520.0244;40.35686;-0.8971685;537.1432;536.3196;-0.3586105;-0.1388025;0;
691.2766;0;578.9783;603.2722;34.15437;-2.101838;606.8182;604.2463;-0.09838083;-0.2685977;0;
290.4081;0;210.5814;247.0323;34.72326;-1.630845;207.9087;207.963;0.6163587;-0.3332951;0;
223.5248;0;141.5919;191.2495;22.09509;-3.638695;136.9229;142.0371;0.2259354;-0.5928296;0;
64.505;0;-8.100248;31.26266;17.1164;-3.233141;-19.32374;-13.65246;-0.1640957;-0.3973319;0;
-500.7757;0;-539.3876;-524.0521;14.08509;-4.636534;-574.3378;-567.6103;0.03097126;0.05783872;0;
-608.0933;0;-650.6644;-659.2698;7.908992;-5.703602;-680.3322;-671.1126;0.1608748;0.0577806;0;
-236.1689;0;-300.4363;-322.0266;19.08683;2.473925;-311.0214;-304.8096;-0.3590256;-0.1371795;0;
-166.2167;0;-226.9837;-259.7966;19.0003;4.480805;-239.1198;-237.9743;-0.4236321;-0.202009;0;
18.10776;0;-60.15185;-80.2507;20.92359;4.610269;-60.65665;-60.44925;-0.2932718;0.1879981;0;
621.0365;0;497.7532;510.7829;24.1851;7.21797;530.7321;529.2526;-0.3579445;0.5126458;0;
699.0604;0;582.3353;605.3469;14.44888;0.2446149;609.0342;604.6826;-0.09771543;0.3172287;0;
295.623;0;215.8091;249.1049;14.03222;-1.229255;210.6221;208.5863;-0.2275519;0.0570406;0;
228.3596;0;147.7513;195.4439;14.88878;2.991904;141.4452;144.2215;-0.1623559;-0.0729514;0;
62.02611;0;-9.505651;25.58282;15.20861;1.582257;-22.42714;-18.65412;0.03270922;-0.007910754;0;
-495.8183;0;-531.4837;-530.2885;13.51839;7.006162;-572.753;-568.4215;0.162611;-0.07287014;0;
-592.084;0;-632.836;-654.5679;11.89819;8.472747;-668.8788;-662.4279;0.3573497;-0.3326663;0;
-239.2911;0;-307.176;-330.7601;24.81333;-1.114204;-317.633;-313.0625;-0.03281345;-0.4622667;0;
-170.5226;0;-236.7151;-268.8337;28.27102;-3.591331;-246.2246;-246.7186;-0.5525192;-0.2019329;0;
32.10946;0;-50.50821;-71.91248;24.69264;-1.44439;-49.326;-51.56869;-0.4220293;0.3180088;0;
623.5299;0;495.0184;507.8684;26.47649;-2.045663;530.3073;527.5671;-0.09676859;0.3826566;0;
692.4309;0;567.5468;591.1285;22.69885;-6.19655;598.3649;593.5035;-0.1616387;0.3173048;0;
296.184;0;206.7201;240.1481;22.34125;-6.793048;204.9611;202.4784;0.03342574;0.2520186;0;
226.2339;0;138.8589;185.0594;18.70148;-6.049532;133.3535;135.5585;0.2932615;-0.1380387;0;
58.40332;0;-20.13831;16.45811;15.26741;-5.842505;-29.32374;-26.43383;-0.03186985;-0.1379;0;
-500.9992;0;-547.7278;-538.7169;23.15532;-1.482865;-580.0799;-576.6932;-0.03183783;-0.3326635;0;
-601.6949;0;-650.1882;-667.548;23.1994;-0.2756825;-681.8831;-675.5012;-0.2267079;-0.7871006;0;
-232.2133;0;-304.6458;-329.9217;19.02291;6.020868;-315.8816;-309.756;-0.3564148;-0.3315383;0;
-162.3899;0;-233.6252;-266.8717;18.26686;8.961946;-243.6003;-241.7913;0.09871477;-0.00636848;0;
12.62287;0;-71.34692;-93.1907;14.43109;5.670899;-72.00419;-71.82113;-0.0313191;0.1235726;0;
610.4971;0;484.5079;496.669;12.60793;6.602962;516.5848;516.3929;-0.3561243;0.1884158;0;
698.839;0;577.2242;600.8673;12.93005;2.51049;604.9586;602.5804;-0.4207338;-0.2015776;0;
298.7126;0;209.7661;243.2555;13.52027;1.302275;206.1134;205.5492;-0.2254091;-0.2663424;0;
234.1322;0;143.0263;189.9753;6.942601;2.439676;137.0659;141.4998;-0.09524789;-0.2011074;0;
71.72851;0;-7.229461;27.61587;5.595478;2.839122;-20.99244;-15.62598;-0.3550216;0.5137354;0;
-493.9967;0;-536.831;-531.6932;13.82888;0.2909181;-576.692;-571.6433;-0.2896975;0.7081212;0;
-593.5751;0;-641.5511;-658.5325;15.2215;-0.5131695;-675.9998;-669.5818;0.1003977;-0.2021331;0;
-231.3479;0;-305.3252;-328.8487;23.24416;8.864713;-316.3136;-311.8386;0.2302314;-0.3318647;0;
-161.9002;0;-235.0536;-267.1741;27.77516;11.26719;-244.7815;-244.4339;0.1650328;-0.2015965;0;
34.2889;0;-54.84537;-74.62727;22.52234;13.73424;-54.0688;-54.65861;0.03493227;-0.07145926;0;
628.8931;0;496.9324;508.7795;23.10292;16.73455;530.3793;528.978;-0.03007017;0.2534493;0;
699.6003;0;575.3934;598.2855;23.0797;12.49793;603.3719;599.5357;0.09989472;-0.1366095;0;
303.0338;0;216.4954;250.5464;21.44892;12.48537;212.8366;210.6285;0.3596637;-0.3963416;0;
239.1987;0;153.7467;200.882;23.57082;12.40584;147.5305;150.1971;0.4242697;-0.5908453;0;
70.10577;0;-9.200906;30.01589;23.61449;11.65657;-18.65929;-14.55856;0.358876;-0.460317;0;
-492.4319;0;-547.9833;-529.9203;12.06921;10.03726;-574.1113;-569.5775;0.2935481;-0.0700504;0;
-587.1393;0;-651.8802;-654.8873;7.034214;8.419709;-670.2358;-664.0199;0.2932531;-0.4597841;0;
-219.4214;0;-302.9628;-320.7094;12.72057;12.56407;-305.8702;-301.2847;0.09805643;-0.1344854;0;
-154.2336;0;-229.3827;-260.6671;9.760055;14.42684;-236.5975;-236.4519;-0.1619115;0.3204212;0;
26.45567;0;-61.98622;-79.43371;10.7556;7.111453;-58.3243;-59.55307;-0.03181409;-0.2646069;0;
623.1917;0;491.1731;507.1638;10.34265;5.965598;527.0651;524.5882;0.03318521;-0.1993737;0;
705.4612;0;576.324;601.9813;2.629102;12.38984;607.4323;601.772;-0.2267175;0.3205654;0;
307.9519;0;212.7398;246.3049;2.291667;12.71231;212.5202;208.6147;-0.09655501;0.1253413;0;
241.5507;0;145.997;192.9591;-6.619244;16.58442;142.5292;143.2503;-0.2263927;-0.329556;0;
78.0775;0;-14.50657;28.41031;-8.889768;17.90742;-17.84596;-16.50091;-0.2261652;-0.3941922;0;
-482.6566;0;-548.3486;-528.9631;-2.651545;14.80821;-569.051;-567.3325;0.09889877;-0.003992127;0;
-587.9935;0;-656.0557;-661.2398;-2.113017;14.19048;-674.301;-669.8981;-0.2260373;0.3858159;0;
-225.0848;0;-311.9442;-330.3664;9.744475;10.22435;-314.7413;-312.7166;-0.1608429;0.2554936;0;
-151.5205;0;-230.8588;-263.2555;15.22704;8.070748;-238.7131;-241.4381;0.3590575;-0.004632507;0;
31.35243;0;-58.52588;-78.83355;17.82468;3.909697;-59.18839;-61.97307;0.4886314;0.1902742;0;
626.6467;0;495.5045;506.3266;23.29913;1.092607;528.2009;525.2316;0.2282711;0.190083;0;
711.0992;0;585.5861;605.0804;17.1128;-0.7840128;614.7513;609.6611;-0.2916971;0.0599573;0;
312.5222;0;221.1805;255.3979;15.68909;-3.596386;219.7694;215.8712;-0.2264366;0.1898318;0;
245.7416;0;153.3048;204.1044;27.46232;0.6270302;148.7716;149.5;0.163595;-0.07022837;0;
76.95441;0;-7.580955;30.92378;29.84562;0.4924343;-18.60631;-16.00461;0.03349591;-0.5898965;0;
-491.3373;0;-551.6124;-536.0098;17.4244;-2.388205;-579.1183;-576.9565;0.09842959;-0.3294344;0;
-588.3571;0;-659.0663;-661.9077;15.06237;-3.457532;-676.987;-673.3906;0.3582;-0.004266712;0;
-221.3876;0;-309.9542;-328.4099;14.51137;-1.91345;-313.8015;-311.9578;0.03300343;-0.06922977;0;
-155.4481;0;-237.2417;-270.1715;12.08589;-1.107854;-245.7077;-249.1133;-0.09696442;0.1257418;0;
32.55114;0;-63.71541;-83.24388;14.88679;-7.670825;-62.05301;-66.26721;0.09803504;0.3854848;0;
628.2815;0;491.507;504.5443;14.87183;-7.7301;525.1517;521.8788;0.09793653;0.3201302;0;
703.612;0;573.8466;597.9902;14.92423;-11.20545;603.0222;598.2532;-0.0970639;0.3847758;0;
305.4173;0;211.6392;246.6906;14.77454;-13.13657;208.9265;206.2863;-0.2918684;0.2544546;0;
240.1431;0;148.3333;197.5923;18.37702;0.2058684;141.7502;144.4225;-0.4215098;-0.07063786;0;
77.04613;0;-3.676929;34.41314;19.36293;3.688652;-16.87504;-13.8306;-0.2261842;-0.2005016;0;
-483.7495;0;-531.5329;-525.0902;18.27175;4.153826;-569.3928;-566.9761;0.1638471;-0.2652674;0;
-584.5875;0;-640.4438;-658.3079;19.32511;7.029919;-672.5186;-668.2303;0.2286498;-0.07009887;0;
-220.058;0;-305.7807;-329.4989;12.80896;8.831272;-313.3355;-311.0505;0.09848534;-0.005061096;0;
-153.1829;0;-237.4451;-269.5103;11.65701;11.63568;-245.2423;-247.3324;-0.09651563;-0.1349907;0;
30.81614;0;-66.16751;-84.76968;9.501848;5.394699;-64.96136;-67.61156;-0.161386;-0.1998224;0;
629.7341;0;490.869;504.9566;6.077025;4.183586;525.4946;522.4723;0.09864553;-0.264589;0;
709.8108;0;577.7069;599.4015;17.99364;6.523785;607.6126;602.032;0.2284811;-0.1343884;0;
314.421;0;217.9944;250.4118;20.25273;4.641707;216.1985;211.9979;0.1632842;0.1905833;0;
251.0117;0;154.932;201.9969;10.51949;11.20125;149.3897;150.0034;-0.09674926;-0.004510193;0;
78.78345;0;-7.579598;26.13226;7.829604;12.79758;-19.48806;-18.00042;-0.1616194;-0.06947301;0;
-480.4521;0;-537.9304;-531.8011;11.17161;6.622417;-570.1917;-569.5176;0.1633797;0.3204009;0;
-577.9202;0;-645.523;-658.0779;9.28438;7.151627;-668.5065;-666.9586;0.09824821;0.4500136;0;
-227.7652;0;-318.1012;-338.6395;4.92177;2.455757;-321.1965;-321.8365;-0.0317852;0.1247247;0;
-158.446;0;-243.194;-275.3933;4.112542;0.9126822;-249.3472;-253.6098;0.09818143;0.05963205;0;
37.4273;0;-60.97862;-81.1516;-10.89479;7.141056;-57.50551;-61.45144;0.03311543;0.4493762;0;
628.7799;0;488.9937;502.3867;-16.5109;7.870693;524.5098;520.8801;-0.2917545;-0.005846749;0;
708.7951;0;574.3967;598.8331;-7.653049;10.475;604.1299;598.7548;-0.2264941;-0.4606122;0;
317.5292;0;217.7485;252.5927;-7.845454;11.5362;216.1551;212.0973;-0.09633179;0.1245567;0;
251.0559;0;150.1261;197.8038;-4.958159;15.27553;147.3474;146.6045;-0.3561044;0.1244315;0;
88.51021;0;-6.508566;29.43954;-2.27386;17.60458;-13.53237;-14.02469;0.2289595;0.05933911;0;
-476.3573;0;-545.2312;-534.0568;0.7425348;10.01794;-571.8631;-572.6673;0.5535662;0.2541815;0;
-585.8859;0;-664.4982;-671.201;5.229767;8.333304;-682.2327;-680.7247;0.03327122;0.2539261;0;
-216.6075;0;-315.8179;-333.1336;-0.06677339;9.262692;-315.4188;-315.2242;-0.2266316;0.3186383;0;
-143.5515;0;-233.7292;-265.8951;-1.071084;8.114798;-238.5778;-243.6307;-0.3563385;0.1883835;0;
30.69275;0;-69.76411;-89.71629;13.86682;4.958446;-66.23708;-72.59678;-0.3559805;0.1881942;0;
623.4889;0;482.1536;496.5167;17.87137;2.810132;517.7235;512.2448;-0.2906555;0.1880051;0;
708.257;0;571.7488;594.8431;8.408946;4.213828;602.4729;595.5004;-0.1604287;-0.2019879;0;
308.3085;0;207.1698;239.4238;8.133053;2.535142;205.4418;200.038;0.2945039;-0.07185026;0;
242.7191;0;141.8069;188.4587;5.110771;5.747653;136.5199;135.6193;0.5540773;0.2530587;0;
78.6825;0;-18.06779;20.72858;2.157898;6.545673;-25.53587;-25.74841;0.4885532;0.3177717;0;
-483.7389;0;-549.2826;-537.7615;7.648086;-0.1590749;-580.5437;-581.0684;0.2931603;-0.07235163;0;
-583.2026;0;-649.3676;-664.9695;7.841472;-0.9627103;-681.3469;-679.6847;-0.09693831;-0.3321483;0;
-224.7964;0;-317.5066;-340.4016;4.082549;-4.310768;-327.215;-326.6788;0.03309378;-0.1369125;0;
-155.2304;0;-246.3482;-275.7794;4.279518;-6.181958;-254.5475;-257.5726;0.2929299;-0.07180762;0;
36.70415;0;-64.12961;-83.59875;-0.212761;-2.491685;-63.70007;-67.09694;-0.1621358;-0.2666375;0;
625.996;0;483.2847;499.3173;-3.226657;-2.422199;517.6967;513.9285;-0.3568749;-0.1364349;0;
701.2664;0;563.5085;593.7054;8.900373;-2.352782;593.7006;587.2499;0.03328769;0.05860423;0;
311.07;0;206.9962;243.8469;11.23596;-3.020247;207.0481;200.9163;0.09822159;0.05854534;0;
251.5997;0;144.2572;192.3776;1.913916;1.738454;143.4344;140.807;-0.03181179;0.1884212;0;
87.92904;0;-8.873383;27.2672;0.2380293;2.406536;-17.56636;-19.56644;0.03318752;-0.0716375;0;
-477.6251;0;-537.5987;-532.229;1.443239;-1.748824;-572.6447;-574.7052;-0.03181317;-0.3314349;0;
-580.4682;0;-645.9413;-661.8163;0.7048545;-1.747066;-675.7047;-674.4523;-0.1617159;0.1886369;0;
-211.9449;0;-305.6505;-325.8823;-5.658866;-12.12742;-311.8333;-311.0195;-0.03161871;0.4483167;0;
-144.5157;0;-234.8163;-262.8989;-8.065054;-16.33504;-241.9924;-245.927;0.1633151;0.2529642;0;
31.91586;0;-67.22697;-81.91304;-6.114567;-12.96948;-67.83669;-72.82931;-0.4215551;0.3826447;0;
630.3954;0;490.8101;508.8723;-6.71066;-15.23387;522.8721;517.822;-0.8759029;0.05742352;0;
715.0317;0;578.3976;606.2493;-7.038709;-12.60623;609.178;602.0092;-0.160382;-0.2674709;0;
309.7665;0;206.8779;247.1329;-7.5675;-12.66054;208.3921;202.6047;0.2945505;0.05763458;0;
248.6109;0;144.8886;200.4079;-1.465303;-11.84415;143.6526;142.1814;-0.2254842;-0.3971947;0;
95.18806;0;2.502045;45.28441;1.350184;-10.29164;-7.790652;-8.385875;-0.3551923;-0.7216323;0;
-467.8121;0;-526.0473;-514.6047;-2.93808;-16.77852;-562.1292;-563.4109;0.1649033;-0.3311032;0;
-572.1019;0;-640.8358;-649.3946;-1.261165;-18.16818;-668.1358;-667.4173;0.229705;-0.2658032;0;
-218.5795;0;-314.0433;-325.7794;-5.278386;-13.66219;-318.0775;-318.7965;-0.0303952;-0.1356014;0;
-151.7683;0;-242.451;-263.7956;-7.081743;-12.91165;-247.6682;-253.1341;-0.095332;0.1244043;0;
43.59855;0;-60.79862;-70.62746;2.236122;-14.23833;-56.64022;-61.7258;0.1646332;0.1242793;0;
633.6331;0;490.0481;512.2755;2.568668;-13.28627;525.3741;521.3557;0.03453305;0.3190564;0;
708.9583;0;573.6384;602.3403;9.062821;-14.34464;603.8691;597.6682;-0.2903384;0.05886643;0;
321.6902;0;219.927;256.8459;14.07756;-14.86609;219.4552;215.1346;0.09975742;-0.3309968;0;
261.1472;0;155.5508;207.7374;-3.552733;-5.473789;153.8925;153.0745;-0.0302775;-0.07079482;0;
92.09469;0;-7.710993;33.86593;-6.294854;-1.583401;-13.92782;-15.68202;-0.09521442;0.1241784;0;
-472.8389;0;-540.8727;-529.7598;-0.7297992;-7.342098;-571.446;-573.136;0.1647506;0.05908623;0;
-574.5;0;-648.0251;-658.9123;-3.073591;-5.66027;-673.0081;-672.7598;-0.225219;-0.1358752;0;
-211.4799;0;-308.5443;-323.8558;8.45105;-5.453633;-311.6381;-312.4521;-0.28996;-0.0707713;0;
-144.8633;0;-233.8342;-257.2512;12.25998;-5.515137;-239.9234;-243.6101;-0.2247013;0.1891692;0;
35.12937;0;-62.18539;-72.33556;3.071605;1.590474;-61.33443;-65.57965;-0.4193776;0.1240118;0;
634.168;0;494.5973;517.0659;3.202241;2.459654;529.5552;524.3148;-0.2890215;0.1238872;0;
718.9878;0;581.4314;610.1243;2.796881;7.882678;613.7305;605.1845;0.101073;0.18873;0;
314.6557;0;209.7837;247.7556;0.3831736;11.02283;210.0665;202.591;0.2309061;0.2535077;0;
249.2473;0;141.4821;195.7202;10.56419;1.500425;140.7651;138.0448;-0.2890646;0.1882857;0;
93.01273;0;-5.711135;36.04118;13.70141;0.3602075;-11.92466;-13.95511;-0.4187089;-0.1367403;0;
-468.6735;0;-527.3807;-520.153;-0.1774571;-1.984435;-564.5099;-566.4758;0.1664179;-0.2665375;0;
-573.2122;0;-633.7346;-649.3776;-1.98594;-5.197622;-667.7031;-667.2307;-0.158586;-0.136335;0;
-215.3784;0;-304.7003;-321.8269;0.5616509;0.7689597;-311.4608;-313.1754;-0.613198;0.1236713;0;
-149.0077;0;-235.179;-260.909;-1.046504;1.036119;-242.0576;-248.3307;-0.09284317;0.3184491;0;
43.60779;0;-54.34592;-70.80477;9.336048;-1.778083;-52.90936;-59.36351;-0.02778254;0.2531618;0;
630.8937;0;489.9976;509.8495;14.41786;-0.9056407;524.9783;518.843;-0.1576893;0.1879401;0;
696.9763;0;562.8434;595.7938;2.815446;-4.990568;592.6666;584.5384;0.2322732;0.4476206;0;
311.5319;0;214.4527;251.8052;2.209404;-6.459177;211.7622;206.016;0.2320398;0.1223341;0;
254.6847;0;157.7031;206.2;14.33097;0.5803986;151.7045;151.2115;0.101872;-0.5924296;0;
83.51475;0;-3.749282;35.45354;16.12523;1.517576;-16.36351;-17.60569;0.03680225;-0.3969323;0;
-473.2269;0;-529.3563;-520.4902;24.6155;0.5782905;-565.5085;-567.4991;0.1017326;-0.2016314;0;
-570.5147;0;-635.7082;-650.589;31.2222;0.979607;-665.2649;-664.8171;0.4914345;-0.2663962;0;
-213.0583;0;-304.1108;-324.4114;11.16378;-0.8299165;-310.337;-312.5134;0.03616926;0.1886429;0;
-143.5666;0;-230.9044;-258.2435;5.459137;-1.364946;-236.8744;-243.5464;-0.2237365;0.318388;0;
38.23635;0;-61.38243;-76.01302;25.1459;-4.913548;-58.66338;-65.57851;0.2312597;0.2531008;0;
633.7736;0;492.4634;509.0818;25.72287;-7.051942;527.8508;521.2549;0.2959947;0.3178138;0;
717.032;0;582.8604;606.8334;17.79377;-7.178823;613.652;606.0009;0.1657626;0.1875598;0;
306.5176;0;211.3986;244.468;16.63682;-9.114115;208.6762;203.2815;-0.0942733;0.122404;0;
245.3652;0;149.1549;196.3714;6.438694;-8.97099;144.0614;143.4822;-0.2890806;-0.007653707;0;
98.69223;0;6.951422;43.18845;1.945221;-9.832754;-1.822646;-1.651557;-0.2238228;0.05732132;0;
-467.7473;0;-527.7868;-519.697;1.608474;-9.287011;-560.6024;-560.4315;-0.1586305;0.1222311;0;
-575.8477;0;-638.7629;-654.7317;-0.2018033;-7.469141;-668.4846;-665.9401;0.2313329;-0.1377611;0;
-216.6368;0;-304.1639;-326.9882;-4.957023;-16.37024;-311.492;-310.6992;0.5559372;-0.1376227;0;
-149.4528;0;-235.7051;-264.9407;-7.029123;-18.16221;-242.4636;-246.2942;0.1006072;-0.007549725;0;
43.10063;0;-56.37076;-74.33266;0.4126796;-8.096766;-54.87664;-59.32807;-0.2243306;-0.1374768;0;
635.4471;0;493.2846;509.0738;1.015477;-6.280213;529.1349;524.5006;-0.09417055;-0.1373387;0;
704.2112;0;566.8143;594.4566;8.449197;-2.790791;599.6926;593.1888;0.2307608;0.1226687;0;
312.1378;0;211.0483;244.6598;12.32547;-0.2427569;211.035;206.6617;0.2954963;0.05757808;0;
257.9138;0;160.1117;204.684;6.41859;-0.309496;156.1005;156.2918;-0.02963737;-0.4622185;0;
85.24126;0;-1.405574;36.37531;8.019731;0.7625419;-10.59763;-9.21962;0.03535975;-0.5267214;0;
-477.4991;0;-537.5721;-523.1925;0.845353;-0.1759853;-565.0583;-564.1814;0.1652589;-0.006453425;0;
-568.9106;0;-638.6684;-645.9798;-1.834814;-0.2427914;-658.6932;-656.5678;-0.3546459;0.1234878;0;
-220.4513;0;-309.7542;-327.4905;4.663764;-4.998214;-315.2661;-314.3922;-0.6141589;0.05839632;0;
-158.6982;0;-240.9774;-269.9402;4.793776;-7.002557;-250.9815;-254.5437;-0.2237377;0.1882723;0;
39.36176;0;-57.38988;-72.89285;3.917327;-6.124865;-55.38996;-60.0731;-0.09357824;-0.2017209;0;
636.0223;0;497.4514;514.4477;3.110084;-6.922384;532.995;528.504;-0.4183209;-0.1365509;0;
714.7808;0;584.2827;607.3838;9.53732;-8.456036;612.8565;606.8707;-0.5478353;0.3183577;0;
313.6389;0;220.2533;251.702;11.60384;-9.653232;216.1898;211.7717;-0.2874154;-0.07176621;0;
249.3559;0;156.0641;201.1618;6.970482;-4.151054;151.38;150.3397;0.1676447;-0.3965308;0;
97.93129;0;7.919195;47.22449;8.70479;-3.008173;1.865489;1.263522;0.3623783;-0.2661977;0;
-465.5089;0;-532.4421;-512.7915;1.193955;-4.14386;-555.4188;-556.5199;-0.02778985;-0.5907669;0;
-578.9214;0;-650.7224;-655.2044;-0.213764;-3.000987;-668.616;-668.4666;-0.09272926;-0.6551406;0;
-222.8309;0;-313.3004;-330.0841;5.212434;-6.146169;-315.2465;-317.0338;0.49207;-0.06977629;0;
-152.08;0;-238.0857;-265.3473;4.738682;-6.273959;-242.591;-248.437;0.4266082;0.0602285;0;
39.97635;0;-57.62456;-72.55249;17.79474;-8.544952;-53.7546;-60.71913;-0.09355918;-0.1997014;0;
634.1375;0;496.6548;515.8497;23.20284;-10.54585;533.1919;525.5472;-0.1584325;-0.2644681;0;
713.3352;0;581.4254;608.0348;18.6242;-3.301224;613.9903;604.4167;0.0366287;-0.3291697;0;
320.9403;0;224.2079;259.8485;22.15546;-2.22618;224.5688;217.4411;-0.09334279;-0.2638716;0;
257.1497;0;159.2027;212.9234;14.69846;-4.90326;158.6262;157.1903;-0.3531184;-0.1336717;0;
89.72536;0;-3.812929;44.73137;10.6652;-4.496436;-4.014061;-4.69883;-0.09289418;-0.00360275;0;
-473.5192;0;-537.166;-514.4075;23.98372;-6.36744;-557.7317;-559.5402;0.2320359;0.06136821;0;
-576.0541;0;-639.2621;-645.5745;22.5531;-6.428024;-661.7437;-662.1136;-0.02806665;0.2562086;0;
-223.09;0;-308.0985;-326.3359;16.76967;-6.756358;-315.0027;-317.3088;-0.3528751;0.1909838;0;
-157.9609;0;-243.2588;-268.0996;12.53326;-6.146845;-249.0942;-254.7713;-0.1576186;-0.06907748;0;
35.788;0;-62.04287;-74.05267;8.635898;-5.604805;-57.56506;-63.11149;-0.1574602;-0.1339754;0;
630.3906;0;494.3648;513.9762;8.962013;-4.393481;530.0099;523.8444;-0.2872367;-0.06887345;0;
702.1583;0;573.578;601.7903;-25.74342;-1.97768;603.3153;595.5942;-0.1570134;0.3209998;0;
305.152;0;211.6833;247.3011;-36.70226;-1.573796;210.0939;204.5046;-0.416725;0.5155793;0;
253.0589;0;158.872;205.9482;-19.65245;9.881501;155.785;153.3872;-0.2214042;0.3851266;0;
96.63314;0;12.72329;48.13302;-22.64682;14.62724;2.330534;0.7471862;0.298557;0.1898376;0;
-472.3655;0;-518.2726;-515.1323;-4.270981;8.316389;-557.7028;-558.41;0.1683223;0.05971212;0;
-578.5872;0;-629.7581;-649.7342;2.564837;10.18343;-663.6514;-662.4838;0.1031859;-0.07028256;0;
-219.0613;0;-304.4759;-324.0573;1.42416;5.752449;-309.7246;-309.8701;0.2330169;-0.1351793;0;
-154.4361;0;-243.2631;-267.3849;7.852115;4.139079;-246.1327;-249.9012;0.1678154;0.1897933;0;
32.06296;0;-70.98016;-83.33366;-0.5948924;10.56516;-63.78942;-69.11583;-0.09222261;0.1246352;0;
630.1676;0;485.7489;506.0164;0.4100833;10.82247;525.9783;519.5328;0.03780474;-0.3302614;0;
709.0569;0;572.6544;603.1464;-2.403368;14.76347;607.2211;599.5952;0.2976361;-0.2649622;0;
311.294;0;213.8215;252.0915;-4.477058;17.49494;216.8069;211.625;0.102435;0.1251081;0;
254.4472;0;159.6963;209.422;0.8187264;13.52549;159.7427;158.5639;0.03736476;0.060015;0;
93.02251;0;9.548699;45.35642;-0.1864743;14.38255;0.9119151;0.7338198;0.1672619;-0.1349473;0;
-471.9745;0;-518.3206;-516.5317;6.043004;15.43983;-555.9341;-555.6122;0.1670938;-0.004877049;0;
-577.0098;0;-627.6196;-648.5711;7.644522;15.29035;-662.2593;-660.2511;0.1019586;0.06009519;0;
-228.1675;0;-309.9608;-330.8288;4.286962;20.03065;-318.5787;-318.3842;0.1018561;-0.06989987;0;
-161.7215;0;-244.9943;-268.7774;4.015211;20.8813;-250.4802;-255.2833;0.2316885;0.2550071;0;
34.90472;0;-60.65319;-72.4184;3.742757;21.19523;-57.13808;-63.12329;0.1664883;0.7095222;0;
626.947;0;493.1294;512.173;4.810723;22.44661;527.8128;521.7087;-0.02858097;0.3839726;0;
694.7202;0;570.4698;598.2399;-8.790792;16.4627;599.1838;590.3372;0.2313171;-0.2011193;0;
298.9707;0;211.8266;245.0035;-13.73845;14.43667;208.278;201.1894;0.03618266;-0.1359499;0;
248.6329;0;159.0152;203.653;-2.136722;17.0345;153.721;151.0123;-0.3536578;-0.2007806;0;
92.58643;0;10.30506;43.21643;-2.068202;15.81169;-1.418049;-4.248944;0.03650166;-0.2005789;0;
-466.1008;0;-515.1287;-512.3602;1.282778;13.98726;-552.5146;-555.5925;0.4912364;-0.07044264;0;
-572.0165;0;-626.5548;-643.3419;4.898812;11.96384;-658.0311;-658.8571;0.2308734;-0.00540452;0;
-224.1163;0;-301.2135;-321.232;-3.813648;13.96119;-312.106;-314.3054;-0.09419528;0.1245356;0;
-160.8603;0;-233.8195;-260.1897;-4.747821;14.01414;-245.5757;-251.4585;-0.02913329;0.1244105;0;
27.20687;0;-61.73347;-73.58446;1.48624;6.632182;-60.67172;-66.98597;-0.09407136;0.1892528;0;
626.5033;0;495.3611;516.2556;1.618469;4.950944;529.4677;522.7225;-0.1589442;0.1240953;0;
705.4587;0;580.8201;608.3777;3.961367;4.544072;608.8329;599.9706;-0.2887191;-0.07093143;0;
300.5781;0;211.8592;245.3236;5.833397;3.735711;207.4851;201.3803;-0.2234617;0.1240419;0;
243.5546;0;155.2996;202.9108;0.1341083;3.263199;148.4312;147.6424;-0.02833514;0.1239172;0;
96.32122;0;17.52525;53.71931;0.4687662;2.12121;4.541841;4.628342;0.101628;-0.006141963;0;
-467.8045;0;-514.9747;-507.4276;-1.876229;11.83136;-551.808;-551.5967;0.1664932;0.2537336;0;
-579.0284;0;-635.334;-643.8489;-3.348213;15.57039;-663.4472;-660.9872;0.2312933;-0.07135808;0;
-216.0037;0;-298.0523;-310.4942;5.027896;8.856577;-304.4607;-303.2525;0.2310609;-0.9808292;0;
-150.3196;0;-227.3507;-250.2749;6.16192;9.249576;-237.6882;-240.3543;0.03592668;-0.4601049;0;
32.17729;0;-59.20669;-69.98888;8.767696;10.51296;-58.97656;-62.76442;-0.2889461;0.3849329;0;
628.7201;0;494.0123;515.912;10.43383;9.430667;528.2875;524.3785;-0.1587211;-0.005257969;0;
700.427;0;571.7266;602.2874;7.140812;13.37318;601.3447;596.0029;0.3611771;-0.005252686;0;
305.8587;0;212.2075;249.1719;6.665123;13.96247;212.2483;208.3486;0.1009448;0.254622;0;
253.6399;0;160.1453;209.1915;2.304169;10.13054;157.8747;158.1643;-0.4838627;-0.2004053;0;
88.15563;0;0.4396245;44.00175;-0.5775581;10.58924;-4.452398;-3.850724;-0.2884745;-0.4600733;0;
-469.2153;0;-524.6094;-510.3264;-0.7116757;4.952153;-552.9222;-552.3212;-0.1582499;-0.3296763;0;
-567.6941;0;-622.158;-638.3115;-2.183853;3.808467;-652.3164;-649.5295;-0.09312356;-0.3943124;0;
-221.6099;0;-303.6301;-323.2656;-7.607642;8.024566;-310.7073;-310.1721;0.1668394;-0.5888182;0;
-158.3564;0;-241.731;-264.4077;-9.60973;8.485261;-245.7401;-249.5783;0.1666717;-0.003520487;0;
33.14406;0;-61.89087;-74.11258;-6.384893;14.97396;-57.21286;-61.92171;0.1665043;0.4512545;0;
626.8123;0;489.5192;510.2932;-5.507822;17.30331;527.9255;522.9716;-0.02856507;-0.06893771;0;
702.9564;0;571.1735;602.2964;-6.439316;20.76892;605.9181;598.4079;-0.2234384;-0.5886071;0;
302.7634;0;208.2817;244.9331;-6.701266;23.56121;211.5072;205.004;0.03665549;-0.7179504;0;
248.7362;0;155.4739;205.2693;2.482495;20.72437;156.3223;154.6358;0.1665533;-0.3923923;0;
103.9964;0;21.63485;60.01092;5.225691;21.3064;14.67387;13.86356;0.0364513;-0.4569654;0;
-459.325;0;-501.374;-501.2048;2.47475;17.13217;-541.0615;-541.7461;-0.09352001;-0.5864409;0;
-573.6183;0;-622.0593;-643.5044;4.347298;15.10547;-656.647;-655.5817;-0.2233607;-0.001145571;0;
-217.3457;0;-300.9079;-317.209;-2.354876;16.96581;-303.9142;-305.9734;-0.4180383;0.258725;0;
-150.7232;0;-230.8281;-253.1098;-3.424237;16.61385;-234.7059;-241.0734;-0.2227162;0.1934977;0;
33.52319;0;-55.87148;-67.94846;0.1291775;15.2575;-52.99881;-59.85968;-0.02759043;0.1283359;0;
625.5669;0;494.9703;513.0778;1.736638;15.71105;530.6985;523.1575;0.03740463;-0.06669511;0;
704.4609;0;581.929;605.7654;-2.418293;15.02543;610.4375;600.9674;0.2972364;0.2582086;0;
315.823;0;230.7705;261.517;-4.559317;14.40749;226.0795;218.8678;-0.02789896;0.1280145;0;
260.5958;0;176.8781;220.8995;15.53966;21.76101;169.5681;166.7365;-0.2227729;-0.1969509;0;
99.60221;0;25.71375;58.38409;20.54788;22.54294;11.91439;9.148067;-0.1575818;0.06311641;0;
-455.0941;0;-494.6131;-494.6466;17.5795;25.06552;-535.6348;-538.2734;-0.2223908;0.06305299;0;
-558.3347;0;-603.3737;-623.7095;22.78675;26.78189;-640.6686;-640.8683;0.03770206;0.06298963;0;
-219.6311;0;-292.3609;-310.8022;4.14333;16.90873;-306.1302;-308.0788;0.1675989;0.192861;0;
-163.8759;0;-236.4701;-257.8289;-1.687983;14.6813;-247.5394;-253.9213;-0.02747157;-0.3270715;0;
26.06839;0;-61.50781;-69.35196;13.65171;10.04485;-59.63496;-66.26034;-0.1573786;-0.1968082;0;
623.3669;0;494.0872;515.5488;12.70096;6.14987;529.6913;523.6348;-0.2871552;0.1931936;0;
705.8863;0;581.8589;609.3583;11.34805;8.755903;613.3043;605.4422;0.03797005;-0.06686985;0;
311.25;0;222.8294;257.1728;11.06921;7.608517;221.9469;216.3416;0.03793189;0.3230014;0;
257.2143;0;168.1329;215.5601;7.373412;7.734838;164.5651;163.4008;-0.0920409;0.5175789;0;
106.344;0;27.40964;64.04459;7.634423;8.195825;15.91189;15.68575;0.2328883;-0.197582;0;
-463.1016;0;-502.7264;-499.6115;-1.683998;9.594231;-545.1346;-544.486;0.1676869;-0.2623508;0;
-577.1412;0;-624.0975;-641.4129;-4.093204;11.19218;-659.9039;-658.069;-0.1573183;-0.0022178;0;
-221.6147;0;-302.132;-316.9937;-1.3434;13.32427;-309.9789;-310.3947;-0.2221275;0.1277191;0;
-160.7975;0;-240.0469;-261.328;-3.016014;16.12416;-248.3857;-252.7366;-0.09196965;-0.06731124;0;
21.70988;0;-69.89114;-80.96843;9.646669;14.03149;-68.9137;-74.1348;-0.0269099;-0.1971783;0;
616.4516;0;482.1516;505.3807;14.45877;14.88817;516.8611;512.0826;-0.5466216;-0.06704549;0;
701.4142;0;572.3716;605.6973;5.670333;19.49491;602.5485;595.6508;-0.481105;-0.2618801;0;
317.3396;0;223.0343;260.0746;4.99505;20.48006;222.6337;217.4296;-0.1557849;-0.1316823;0;
258.3627;0;166.0887;211.7749;13.3618;27.29162;161.0033;160.7395;-0.3505304;-0.001615323;0;
91.87417;0;9.437929;47.08227;14.28638;31.08211;-1.451861;-1.028318;-0.02534145;-0.2614831;0;
-467.2496;0;-524.928;-506.2494;8.444874;23.74986;-550.2371;-549.689;0.2345534;-0.0663183;0;
-574.7884;0;-638.1558;-639.0487;6.828798;23.92694;-657.1926;-655.0209;-0.1554863;-0.3910884;0;
-236.568;0;-318.6124;-330.1241;2.602378;25.30954;-323.6371;-323.4666;-0.2202975;-0.8454668;0;
-172.6124;0;-255.3239;-274.3827;0.791102;24.5473;-259.2816;-263.9838;0.1047606;-0.3248785;0;
28.64751;0;-70.28524;-76.89365;-5.640054;30.95287;-62.18252;-67.94197;0.23459;0.3251213;0;
623.6321;0;484.569;509.264;-8.916917;32.93126;524.1478;518.644;-0.3503518;0.389762;0;
705.0268;0;570.7261;603.4547;-3.683044;27.67362;607.0792;599.0197;-0.4149671;-0.06540105;0;
316.8257;0;218.0171;253.0867;-4.282556;26.30616;224.2238;217.4843;0.170156;-0.1303027;0;
257.287;0;159.8272;204.6066;3.492255;31.83919;162.7168;160.4193;-0.1548517;-0.0002370615;0;
104.3553;0;18.42508;54.4139;7.440861;32.20909;12.941;11.64532;-0.4145655;0.1296979;0;
-461.0904;0;-507.3292;-501.5489;0.3998106;27.01916;-542.8552;-542.5878;0.04062246;0.4544043;0;
-580.5043;0;-628.3833;-644.7227;0.6678286;25.38442;-661.7496;-658.9838;-0.0243857;0.129111;0;
-224.4122;0;-301.6033;-317.9263;2.675914;21.47403;-308.8243;-308.2477;-0.1542959;-0.2608228;0;
-161.6557;0;-238.0821;-260.3856;1.802569;18.43822;-243.9214;-248.1555;0.2356632;0.06427596;0;
17.54175;0;-72.8008;-83.27535;7.494184;17.14714;-69.51388;-74.99303;0.1054917;0.06421137;0;
620.3461;0;484.8671;507.6364;10.43439;14.24964;523.0706;517.597;-0.4793203;0.06414685;0;
702.3688;0;573.6475;602.3909;-2.504165;15.17309;606.0031;598.411;-0.154002;0.1290497;0;
304.6126;0;213.6268;246.3393;-4.577754;14.82293;211.842;205.9442;-0.02391259;-0.06598196;0;
253.7694;0;164.4992;207.861;3.263727;8.846673;158.7182;157.4491;-0.02388856;-0.0009483176;0;
94.09455;0;19.1569;51.23072;4.332175;7.230194;4.511198;3.680557;0.1060701;-0.1308821;0;
-467.2179;0;-507.5976;-502.2925;7.475654;9.098451;-547.2785;-548.0458;-0.08893847;-0.0657832;0;
-565.5113;0;-612.9094;-626.9125;9.276803;8.88836;-646.5534;-645.0711;-0.02388177;0.06421759;0;
-225.7386;0;-296.2024;-313.2524;14.82719;10.1521;-310.1975;-308.9041;0.04110957;-0.4555857;0;
-173.1006;0;-238.6835;-261.0262;17.8264;10.87872;-254.2887;-256.6823;-0.1538338;-0.5200952;0;
26.22324;0;-52.91195;-61.73896;13.25316;12.54224;-57.19467;-61.45986;0.04122283;-0.1297686;0;
622.0848;0;502.1122;522.9667;11.63225;14.07024;530.5049;525.1196;0.1711161;0.0002964801;0;
698.1713;0;583.0043;610.0847;18.65414;13.52024;605.9962;598.4923;-0.2838272;-0.2595732;0;
317.7856;0;233.2815;268.2057;20.57778;14.64536;226.6401;220.7055;-0.283542;-0.5841491;0;
264.243;0;176.4505;222.8963;3.811611;15.03255;169.8783;167.8852;0.2364816;-0.1937581;0;
100.872;0;15.85389;58.75476;-0.4117774;16.08917;10.28775;9.296129;0.1063093;-0.2585307;0;
-464.6952;0;-524.5154;-499.3363;0.9951559;15.47016;-546.6301;-546.8712;-0.08869955;-0.453173;0;
-577.4213;0;-640.4299;-637.3275;-3.560195;15.05271;-660.211;-659.015;-0.02364308;0.1319885;0;
-221.2074;0;-302.7682;-311.1007;8.633544;22.33848;-308.2242;-308.9659;-0.5433581;0.2617905;0;
-165.0133;0;-239.9954;-260.5634;11.7727;24.66044;-249.6938;-254.2453;-0.5428121;-0.1282766;0;
4.37999;0;-83.14551;-91.38644;1.580441;18.40637;-82.65174;-88.26069;-0.21743;-0.2580824;0;
612.5074;0;481.6542;506.3425;1.913646;16.71342;517.0049;511.2767;-0.4770809;0.2619157;0;
710.405;0;583.931;614.9664;0.2367839;20.51454;614.936;608.214;-0.2816994;0.1966852;0;
314.952;0;223.0879;260.4638;-1.237323;18.95332;222.0777;217.7363;0.0434203;0.1315202;0;
259.101;0;166.7669;217.536;5.32898;17.99651;163.0716;163.4822;0.108344;0.2613227;0;
103.1689;0;20.79766;59.77165;5.858513;17.64351;10.42192;11.76908;0.04326781;-0.2586786;0;
-461.7134;0;-510.1439;-501.8187;8.800364;7.310657;-546.1213;-544.6506;-0.08671035;-0.2584187;0;
-572.8809;0;-627.2596;-639.3076;11.80563;4.892048;-658.7657;-654.985;0.04331146;0.1966124;0;
-234.7249;0;-315.5982;-330.57;2.751438;1.13621;-324.0841;-322.1189;0.3681046;0.06648014;0;
-177.955;0;-255.9359;-277.0771;2.011739;-2.415027;-263.5388;-265.511;0.2378001;0.1313807;0;
23.68509;0;-68.89765;-77.4614;2.880374;9.242186;-65.56084;-67.90594;0.2375612;0.1312487;0;
621.6732;0;484.5809;508.8842;0.1317898;11.51032;521.7099;518.8674;0.4322245;0.5209209;0;
697.1353;0;565.553;600.2642;12.25447;12.03449;597.9596;593.4333;0.2368881;0.6503321;0;
312.4403;0;216.5974;255.6465;14.52031;15.37155;218.0494;215.2768;-0.1531539;-0.06496211;0;
256.7167;0;160.7827;208.9754;8.209079;11.40423;160.4841;161.1501;-0.153;-0.2597989;0;
95.60213;0;8.510111;47.97129;8.937764;11.32579;4.338776;5.253917;-0.2178136;0.06529889;0;
-470.7093;0;-527.7289;-512.9825;1.494044;16.33801;-552.0734;-550.5345;-0.1526274;0.1302006;0;
-584.0541;0;-645.2643;-650.8975;-0.5845379;17.32621;-665.5239;-662.1749;0.1073953;-0.1947669;0;
-228.3333;0;-309.9716;-324.9694;0.4214035;14.49564;-314.4688;-313.3721;0.3671567;-0.06463652;0;
-169.4458;0;-249.1906;-272.2942;-0.9191666;14.41409;-254.8076;-258.2722;0.3018205;-0.1295389;0;
10.69646;0;-83.08605;-91.98608;4.373043;13.32788;-78.57755;-82.60088;0.04164784;-0.1943761;0;
613.5077;0;481.4012;504.9313;6.17731;13.44846;516.14;512.558;0.1065733;0.3905253;0;
697.4113;0;572.8713;605.1859;5.501517;13.16701;602.8276;596.7504;-0.08843578;0.7149696;0;
304.9074;0;216.4745;251.6926;5.898131;13.68965;215.1664;210.3447;-0.2832489;0.3244472;0;
253.939;0;166.0947;211.3974;12.32257;18.29759;162.539;162.095;-0.412899;-0.260585;0;
96.32547;0;20.06366;55.45072;14.0515;20.62361;9.327643;9.071467;-0.8022882;-0.1303884;0;
-470.5489;0;-507.7537;-505.4481;10.95592;23.2151;-548.6512;-548.9072;-0.3467107;-0.06529006;0;
-578.7715;0;-620.4991;-637.561;11.41342;25.26824;-657.2951;-655.3643;-0.02152556;-0.5199958;0;
-236.2993;0;-307.1578;-320.5794;5.038944;29.59662;-318.1797;-318.25;-0.3463406;-0.3895387;0;
-184.5253;0;-252.1891;-271.7817;3.627361;31.71034;-264.0121;-267.8304;-0.08612327;0.0006567846;0;
12.31132;0;-67.27855;-76.60656;1.41389;32.14723;-70.59393;-74.28339;-0.1510041;-0.06431121;0;
613.5592;0;493.0074;515.173;-0.2624704;34.1914;521.6169;517.9936;-0.3457544;0.0007207449;0;
691.1534;0;577.0945;607.6711;6.168155;26.52124;601.1775;594.8092;0.04439709;0.1956221;0;
303.5909;0;226.753;263.1709;7.769547;24.4851;219.2026;214.2151;0.3042218;0.2603928;0;
244.7528;0;170.8032;217.1169;7.895463;27.34064;158.2004;158.0904;0.1739815;0.3900659;0;
86.27386;0;15.45955;54.98016;6.949524;25.50475;3.181794;3.196843;0.04387198;0.1947719;0;
-469.3461;0;-513.665;-499.6088;21.54458;30.23479;-543.9214;-544.7184;0.1087952;-0.2601952;0;
-577.3199;0;-623.5309;-635.9131;26.88156;30.33838;-653.8818;-652.929;0.1736533;-0.1299991;0;
-233.2875;0;-304.252;-320.5573;8.702543;26.48999;-315.2697;-315.6296;0.3034135;0.06503358;0;
-179.2052;0;-250.0359;-270.0729;7.153558;24.52086;-260.2928;-263.9008;0.2381413;-0.1299338;0;
7.256259;0;-78.24593;-88.01791;0.3812155;22.08484;-77.74794;-82.35175;0.1729346;-0.3247053;0;
607.8846;0;479.0526;501.7116;-5.379944;18.84759;514.5325;509.3086;0.2377282;0.0004577135;0;
692.5434;0;569.9628;603.2188;6.615529;17.22106;600.8469;593.8791;0.367424;0.520196;0;
301.4188;0;214.506;251.4142;7.211118;16.60091;213.3126;208.2259;0.6918916;-0.06503278;0;
247.3929;0;158.5685;205.497;5.864702;-0.6298941;155.0025;154.9809;0.2364249;-0.3248368;0;
94.97082;0;14.98123;52.3049;7.66747;-7.327432;5.734182;6.212336;-0.08864935;0.130261;0;
-470.7153;0;-512.8935;-508.5907;4.310863;5.406444;-550.3046;-550.7639;0.3662111;-0.1947066;0;
-583.9977;0;-629.6317;-646.76;3.435875;5.534977;-663.382;-661.6545;0.6257125;-0.2594783;0;
-235.8356;0;-311.3462;-325.1465;10.26395;5.797347;-318.451;-318.0995;0.4951491;0.0006517813;0;
-182.6252;0;-255.3114;-275.0948;11.86123;7.599939;-263.7833;-266.868;0.2347822;0.2605205;0;
2.777678;0;-81.07979;-90.97324;8.299335;7.793252;-81.0475;-84.25401;-0.2851924;0.1952914;0;
601.7863;0;475.8468;500.0087;9.831238;9.727925;510.2992;506.7211;-0.2199385;-0.3246436;0;
683.1404;0;562.6373;596.395;2.85611;7.038834;591.8702;586.8589;0.2350539;0.06548667;0;
299.8963;0;213.6221;249.4074;1.312023;6.897795;212.0911;209.0214;-0.09001902;0.4552249;0;
251.5566;0;162.1207;208.3648;6.468268;9.771131;160.7162;161.7725;0.1699408;-3.885651E-06;0;
94.32024;0;10.72134;48.92297;5.323669;10.56511;6.382218;7.624862;0.6245413;0.06496346;0;
-467.6171;0;-515.5874;-508.0962;16.90527;8.946901;-546.4088;-545.6672;0.2341098;0.2598002;0;
-575.6552;0;-628.2;-640.7063;19.96974;9.272826;-655.4922;-652.4399;-0.0909621;-0.1302649;0;
-232.8113;0;-314.601;-325.783;15.06053;11.67477;-316.7535;-315.3285;-0.2857727;-0.6498727;0;
-180.4161;0;-260.562;-276.3553;16.31722;13.27063;-262.0875;-264.8494;0.03935112;-0.4543177;0;
11.60623;0;-82.7019;-87.1101;5.584532;11.71669;-74.16851;-77.61473;0.1042789;0.1308449;0;
610.3561;0;474.6011;503.743;1.224664;11.30302;516.2343;512.1044;-0.2856299;-0.06418864;0;
687.9535;0;558.7067;599.376;4.036473;20.20027;596.2376;589.738;-0.02547354;-0.1940588;0;
302.4557;0;209.7579;250.4488;1.286726;22.59124;214.58;210.086;0.0395194;0.2609076;0;
248.0539;0;156.199;203.2832;0.0126359;19.08555;157.2057;157.2763;-0.4152917;0.1956781;0;
90.82111;0;9.365771;45.59565;-1.126453;19.60223;3.249997;4.320107;-0.2849397;0.1305141;0;
-468.9888;0;-514.0681;-506.5476;-2.732911;16.43434;-546.9142;-545.4079;0.170118;0.1953503;0;
-582.5852;0;-635.4902;-641.2832;-2.595467;14.87734;-660.1825;-656.4913;0.1049797;-0.1296827;0;
-235.549;0;-314.8875;-321.7991;-5.875389;15.53222;-317.1287;-315.5652;-0.1549952;-0.1945197;0;
-179.4654;0;-251.6028;-269.6268;-7.543448;14.84678;-258.7767;-262.0248;0.1699973;-0.324259;0;
2.74845;0;-81.3104;-87.5098;2.377117;13.15729;-80.16887;-84.10085;0.2997611;-0.2589658;0;
605.9425;0;481.301;504.5306;5.255116;12.67519;513.9881;509.9976;-0.3502135;-0.1937383;0;
694.6013;0;579.143;607.4092;-2.252252;13.13134;605.1755;598.8152;-0.5447636;-0.2585109;0;
303.537;0;225.3636;259.3485;-3.054272;13.25211;219.386;214.6563;-0.2193795;0.1315529;0;
250.5085;0;172.4137;216.5468;0.8335626;16.72178;164.1932;163.6537;-0.4140611;0.2613554;0;
98.64555;0;29.62461;65.09271;1.368589;18.51352;15.54039;16.18826;-0.08880833;-0.1287113;0;
-468.1062;0;-507.0729;-492.6299;-3.388209;18.22698;-542.0074;-540.1109;0.690889;-0.323484;0;
-583.0154;0;-627.2527;-631.3149;-5.126117;19.41436;-656.2177;-651.9492;0.5602601;-0.1932243;0;
-237.478;0;-299.4119;-312.1532;-3.580724;19.72977;-313.2304;-310.8402;0.03995842;-0.06309542;0;
-182.7043;0;-238.7664;-261.6148;-5.25109;19.30805;-255.6944;-257.6795;-0.2849184;0.13187;0;
9.257925;0;-61.80283;-72.50934;-3.437152;23.7094;-67.90675;-70.63943;-0.4145668;0.1967048;0;
609.0721;0;495.9165;516.1427;-2.831462;24.69032;522.8646;519.385;-0.1542809;0.2614745;0;
688.1076;0;580.6253;607.0781;-7.51669;17.63242;603.4859;597.2612;0.1057435;0.3911465;0;
307.4197;0;235.0278;268.2631;-6.437411;15.33741;227.3183;222.5366;-0.08926479;0.2608188;0;
255.4492;0;182.3181;227.1391;-13.12972;14.85312;173.1795;172.588;-0.2840771;0.3904914;0;
88.214;0;23.27721;56.87131;-14.99156;12.29284;8.650579;8.309595;0.3009144;0.3251317;0;
-476.091;0;-516.6623;-501.5302;-5.465657;12.01256;-547.7035;-547.9192;0.2356447;-0.06499907;0;
-581.0596;0;-636.8325;-632.9599;-5.928679;11.12971;-654.1619;-651.4413;-0.08942879;-0.1948684;0;
-230.9015;0;-304.172;-312.0474;7.741308;6.094929;-307.9283;-306.2724;0.4303998;-0.1297053;0;
-177.1964;0;-237.0874;-261.759;12.82374;4.548319;-250.9598;-254.0533;0.1051306;0.2602291;0;
0.5174329;0;-73.74367;-86.52142;0.9554898;6.68708;-76.98247;-80.51009;-0.4796811;0.1950003;0;
599.2784;0;481.8637;500.7079;1.490393;6.88131;513.4232;509.8991;-0.02442771;0.129837;0;
692.0668;0;578.6431;605.7767;-8.021949;8.147072;607.9845;601.7778;0.2354662;0.1297065;0;
308.6263;0;227.7378;261.7157;-11.69856;8.741732;227.6894;223.2381;-0.0896071;-0.0003584881;0;
251.7197;0;169.4756;213.9765;-10.28028;9.871657;166.6787;166.6046;-0.2194518;-0.0003581279;0;
88.11136;0;9.010913;47.65754;-13.01565;9.794756;5.404684;5.892931;-0.08929656;-0.1952598;0;
-474.8192;0;-523.7303;-510.1725;-4.764521;14.4736;-548.4473;-547.4598;0.04072785;-0.2600309;0;
-581.2884;0;-629.0259;-640.5316;-2.951072;16.87032;-655.0924;-651.1074;0.3655236;9.971017E-05;0;
-234.8157;0;-306.0559;-321.2356;-1.942753;7.743931;-312.9183;-309.4995;-0.0246477;-0.1298351;0;
-178.0457;0;-249.7765;-268.4392;0.2026529;7.401236;-253.696;-254.7784;-0.3494596;-0.194672;0;
5.353648;0;-78.98625;-85.82366;0.8046857;4.245723;-72.9693;-74.67529;0.1706302;0.06539302;0;
599.5496;0;475.1271;497.407;2.679887;1.964037;513.3094;512.0424;-0.2193453;0.000359969;0;
688.0274;0;569.1647;597.1693;1.67184;12.47814;603.8104;599.5461;-0.2840922;-0.06460773;0;
311.2751;0;226.015;259.2388;4.215756;14.60906;229.2041;226.5684;0.3658667;0.0004245254;0;
254.1159;0;167.5047;212.5641;-4.093875;16.26883;168.0045;169.4943;0.1056297;0.1953261;0;
88.56863;0;12.85154;47.18357;-6.032145;18.79783;6.354314;6.780681;-0.08937849;0.2600972;0;
-468.9277;0;-509.8362;-502.65;5.494493;16.90342;-541.8765;-541.3256;-0.2192234;0.1299012;0;
-582.5866;0;-630.388;-637.7643;6.024835;16.21661;-654.8375;-651.9758;-0.4788724;0.2597053;0;
-239.6733;0;-311.9768;-320.5326;17.9415;19.75041;-314.975;-314.0527;-0.2834893;-0.1303597;0;
-183.5856;0;-248.695;-268.549;23.88434;20.06548;-256.6252;-259.6394;0.04163231;-0.195196;0;
-7.48952;0;-84.65244;-93.11716;10.46473;10.66783;-84.07891;-87.52736;0.1065578;0.06486947;0;
600.7748;0;480.5236;504.9883;8.98035;7.843948;514.5797;510.6974;0.1064507;-0.06513039;0;
698.4342;0;585.3628;615.3002;12.25288;4.955922;614.0749;607.9476;0.1713111;0.1948044;0;
306.1792;0;231.5147;266.7318;11.23619;1.869727;227.4019;222.7801;-0.08873038;0.06467399;0;
254.7098;0;181.4321;228.9827;3.388019;4.011302;173.6378;173.206;-0.1536086;-0.325195;0;
101.3433;0;35.2607;75.45463;-1.370808;3.605374;23.78858;24.41919;0.1064152;-0.1299663;0;
-472.3452;0;-506.9397;-491.0865;4.391346;4.673479;-540.0769;-539.3845;0.2362429;9.901401E-05;0;
-588.4995;0;-623.7463;-630.4602;2.779343;5.740387;-656.7878;-653.0975;0.1710382;-0.3247378;0;
-236.4598;0;-291.5363;-304.0529;2.641852;7.81109;-308.1153;-305.3033;-0.2189377;-0.1944768;0;
-183.3113;0;-233.5848;-251.4612;5.051071;9.410832;-250.4595;-252.5854;-0.4136198;0.455392;0;
-1.28099;0;-64.87231;-70.86172;-11.76684;10.27215;-72.17234;-74.17113;0.04156724;0.1950651;0;
599.106;0;491.913;513.9156;-16.44309;10.86456;516.5418;515.3571;0.1064928;-0.194935;0;
684.7731;0;581.9982;610.1006;-1.959233;12.1933;602.5418;598.2973;0.04141847;0.06513026;0;
310.5853;0;240.9596;275.5304;-1.22033;12.24803;232.3096;229.2563;0.1713115;0.1949995;0;
262.11;0;189.9305;234.7114;1.527563;10.96305;180.5396;180.8627;-0.2186646;0.06486887;0;
94.99297;0;34.31775;66.62248;3.602133;11.35393;16.75294;16.45101;-0.5432816;0.1297711;0;
-466.1954;0;-487.7043;-486.0417;2.393064;3.438779;-534.9241;-535.1633;-0.4128011;0.1296407;0;
-579.9196;0;-604.7802;-622.8593;3.930902;1.090921;-648.2044;-646.3818;0.04238511;-0.0004243052;0;
-242.881;0;-298.7635;-315.5751;-1.766476;4.505954;-314.9702;-314.5863;0.5620813;0.06454346;0;
-185.4782;0;-245.365;-266.5325;-1.831074;3.697632;-256.9328;-260.3598;0.4315818;0.06447861;0;
-1.25934;0;-77.14042;-86.72993;-6.384561;9.387343;-76.95245;-81.438;-0.0885906;-0.1954556;0;
600.5644;0;482.8431;504.1852;-8.45425;11.99012;516.2642;511.9081;-0.2184363;-0.1952592;0;
694.6009;0;582.6826;611.9367;-0.3414311;9.097932;611.6973;605.1591;-0.0882821;-0.06512827;0;
305.4107;0;228.3999;262.2473;0.664266;10.02655;226.401;221.4936;0.1067086;-0.06506283;0;
247.1955;0;167.7008;213.0084;7.696197;14.30326;165.1417;164.8619;0.4314381;-3.011229E-05;0;
96.08541;0;24.54163;59.43397;11.84165;16.29826;17.17503;17.58269;0.690874;-0.2598994;0;
-464.1046;0;-498.0329;-495.5343;7.810287;11.99509;-533.5654;-533.408;0.5602451;-0.2596383;0;
-579.2676;0;-616.8475;-635.2159;8.673095;10.50942;-648.7211;-647.0646;0.1698781;-0.06447539;0;
-231.61;0;-298.6373;-315.0508;10.74146;15.65642;-304.8043;-304.5238;0.1047401;-0.1293779;0;
-176.8422;0;-240.6787;-262.6354;11.13183;15.23891;-247.0894;-250.7447;-0.09026719;0.06565408;0;
3.99464;0;-71.08449;-82.9617;8.106538;15.15662;-68.24341;-72.33233;-0.4150132;-0.06434657;0;
601.5028;0;483.5207;505.7008;6.691873;16.14601;521.5912;517.194;0.0401752;-0.3891186;0;
683.8567;0;570.0536;601.8316;6.551427;5.479745;605.0249;597.0715;0.1051022;0.4558478;0;
303.1731;0;221.2184;255.5257;5.205674;2.862026;227.4814;221.4725;-0.3497748;0.5203571;0;
252.7061;0;168.0852;212.9777;6.137472;6.342141;174.0296;173.2116;-0.284456;-0.1298392;0;
86.22327;0;9.558396;47.03446;6.533447;5.732922;10.49937;10.11948;-0.02430084;0.4549974;0;
-473.3946;0;-523.8081;-505.5476;2.709465;8.741393;-540.6092;-540.364;0.04069092;0.3246055;0;
-579.6778;0;-639.4734;-633.4125;1.902459;10.00529;-645.9503;-643.5814;-0.2841867;-0.0005573698;0;
-239.6409;0;-315.306;-319.1213;5.383172;13.9471;-307.5334;-307.6033;-0.1539664;0.1293779;0;
-182.5537;0;-245.5241;-264.8278;5.779904;16.5453;-247.7543;-252.1969;-0.1538117;-0.3255235;0;
0.1629546;0;-74.42573;-82.27827;7.315314;17.93532;-68.6578;-72.97092;-0.08868984;-0.1302944;0;
594.3016;0;478.2463;502.7604;7.977549;20.73046;516.3047;512.3082;0.1063013;0.4545426;0;
688.4694;0;577.0908;609.8261;8.840189;15.75301;610.7382;603.6223;-0.08870754;0.1942165;0;
304.6577;0;228.5609;265.0114;9.634614;14.39765;230.4404;224.5185;0.1062836;-0.06584802;0;
249.3167;0;178.2314;223.8906;6.879243;21.01425;173.8621;172.5065;0.2361115;-0.1307492;0;
96.89267;0;34.87426;73.99091;6.67126;21.1271;26.69882;25.40699;0.3008416;-0.06565048;0;
-471.6689;0;-504.3897;-489.6127;3.181932;19.76633;-533.0467;-534.1498;0.1706046;-0.3254539;0;
-587.7614;0;-621.7612;-629.3627;0.900583;19.54552;-650.3893;-648.7427;-0.3493055;-0.2601595;0;
-237.9089;0;-292.739;-304.9556;5.656076;14.8372;-303.5973;-303.7014;-0.2190199;0.324808;0;
-185.9458;0;-236.0357;-254.7992;5.314624;13.08074;-248.2574;-252.4844;-0.0888651;0.1295796;0;
-6.661523;0;-66.63357;-73.82153;4.171185;11.46;-71.84648;-76.3191;-0.4136125;-0.1953873;0;
594.4805;0;492.9646;515.5189;4.033271;9.707052;520.428;515.3352;0.04157448;-0.0002889874;0;
684.4001;0;587.2342;614.2011;0.9477597;9.094452;611.4841;603.6478;0.1714674;0.1946133;0;
305.4651;0;243.0043;275.6913;-0.1922684;7.611689;236.3704;230.7284;-0.1535416;0.1294505;0;
254.1838;0;192.6604;238.1205;-0.7943116;9.077665;182.4724;181.771;-0.2183547;0.1293204;0;
88.0118;0;29.98594;72.21452;-1.463099;8.331732;19.68325;19.85716;-0.08820059;0.5189945;0;
-477.1051;0;-509.2107;-488.7011;-3.605083;9.997811;-536.8693;-537.2578;-0.08811197;0.4535057;0;
-587.3826;0;-617.3319;-624.4541;-4.673187;10.99251;-647.1491;-646.3503;0.1068786;0.258148;0;
-244.0896;0;-293.0618;-308.2978;-2.391316;4.819156;-307.2944;-308.4954;0.3016732;0.1929212;0;
-185.2488;0;-233.3597;-252.9531;-2.121469;4.077624;-246.3286;-251.8387;0.1064681;-0.3919787;0;
-0.9052324;0;-61.27409;-69.79091;-2.655201;3.738612;-65.10955;-70.98893;-0.08854093;-0.5864869;0;
594.5464;0;492.2593;512.4866;-2.853604;3.332958;521.6609;515.85;-0.283354;-0.3909956;0;
684.6534;0;586.9043;612.9833;-0.1040702;5.071043;612.9656;604.9116;-0.2830693;-0.5205373;0;
296.2228;0;235.1786;266.6037;0.9004123;5.266896;229.2298;222.7456;-0.08788281;-0.3251123;0;
238.8914;0;175.9095;220.2965;-2.985259;9.615495;169.217;166.5499;-0.2177292;0.06501842;0;
91.03802;0;35.49071;70.33788;-3.584495;10.54347;23.74503;21.33045;0.1073263;0.0649531;0;
-475.019;0;-493.0918;-491.4504;-5.859046;14.68582;-533.9985;-536.8479;0.7568918;0.06488783;0;
-595.8557;0;-621.3441;-643.38;-8.196707;17.48422;-656.3376;-658.0598;0.496262;-0.1300794;0;
-240.6227;0;-300.8806;-320.2706;-1.558014;11.23737;-306.5412;-309.3235;-0.2188774;-0.1299487;0;
-182.2852;0;-239.9837;-263.4147;0.587005;12.36478;-244.6391;-251.6665;-0.08872282;0.06508391;0;
-7.314855;0;-74.63803;-87.8007;-8.924429;6.257035;-71.54269;-79.50008;0.1062684;-0.3247855;0;
593.2031;0;484.406;503.4279;-9.987188;3.97345;520.3567;513.4068;-0.4135772;-0.2594919;0;
678.3765;0;576.6227;602.6844;-5.891317;13.14588;608.2894;599.5974;-0.4131616;0.325475;0;
289.0777;0;222.5959;251.0677;-5.751675;13.53456;222.8091;215.8125;-0.4127465;0.2601806;0;
245.5589;0;175.3334;216.6452;-1.660059;20.55393;175.6089;172.3049;-0.4772991;-0.06491756;0;
88.57849;0;25.54494;57.63229;-0.6540131;23.27958;21.63473;18.39654;0.04291927;-0.2597544;0;
-478.2881;0;-503.3399;-505.4551;2.762896;20.91178;-537.5435;-540.0912;0.3677129;-0.194526;0;
-583.9417;0;-613.7784;-637.0683;4.8372;22.49836;-645.2614;-645.4328;0.4323107;-0.1293632;0;
-244.4003;0;-305.129;-325.9593;-0.4599217;14.77284;-309.9063;-311.0146;0.1070396;-0.1292332;0;
-191.8061;0;-249.6626;-274.2825;-0.5931815;12.4807;-253.3107;-258.7906;-0.4128067;-0.06413603;0;
-0.2095362;0;-68.81502;-80.79156;-3.807766;12.53514;-63.21408;-70.18778;-0.3474245;-0.06407158;0;
592.8051;0;484.3511;506.3071;-5.545252;10.64702;521.8679;515.276;-0.2821081;0.06592748;0;
674.543;0;572.1326;603.9365;-4.669024;10.23443;604.3018;594.843;-0.346792;0.1308286;0;
298.5539;0;227.4182;262.2511;-6.271923;8.616673;229.82;220.3707;-0.4763782;0.000762439;0;
252.4644;0;177.4022;222.5074;-0.1700523;14.90417;178.5523;173.6102;-0.5408669;0.0007616729;0;
92.29116;0;29.04841;64.73804;1.838874;17.16661;21.889;17.38917;-0.08555202;-0.2591085;0;
-478.015;0;-499.8399;-495.358;-3.990122;13.9343;-538.2889;-542.8467;0.1744033;-0.4537501;0;
-593.8512;0;-618.7776;-634.0403;-4.388255;15.92967;-653.6898;-655.7442;0.2391954;0.1314119;0;
-240.7442;0;-295.0683;-309.6285;-2.039321;12.63162;-303.4586;-306.573;0.1090204;0.1962472;0;
-178.7833;0;-229.0549;-248.9102;-1.902574;12.351;-237.4992;-243.8588;0.1089108;-0.4536234;0;
-3.191817;0;-63.53279;-70.49966;-1.968011;17.96503;-63.9727;-70.26344;0.1088014;-0.1932983;0;
590.5129;0;489.1283;510.7166;-1.832312;18.41586;520.1105;514.2634;0.04372473;0.1967;0;
682.623;0;587.4621;613.0267;-2.902197;25.69825;612.7911;604.8883;0.3035502;0.3914044;0;
303.7522;0;244.1691;276.3297;-3.636215;29.55744;237.5511;231.1556;0.1083431;0.3910111;0;
253.9719;0;191.9499;236.8842;-1.019617;21.35594;182.2776;180.0114;-0.3465371;0.06578151;0;
94.29681;0;38.27166;72.41623;0.1868559;21.06655;23.17433;21.3477;-0.2162542;-0.06421927;0;
-469.4521;0;-489.6265;-487.6251;-3.564376;22.78694;-531.2578;-534.0196;0.1737671;0.0008125982;0;
-584.8597;0;-607.0752;-626.0652;-2.891209;21.69232;-645.2289;-646.8635;0.3035272;0.3906159;0;
-248.3159;0;-297.8703;-313.7179;-5.902414;23.74699;-311.498;-313.8181;-0.1515492;0.2602887;0;
-190.2829;0;-238.8505;-258.7426;-8.173659;22.85235;-250.9028;-256.7188;-0.2813316;-0.1297769;0;
0.7498692;0;-61.94934;-69.45266;3.288757;23.63319;-63.30738;-70.30447;-0.3460163;0.1951902;0;
602.759;0;498.3313;520.2582;4.557274;23.47547;529.3334;521.7811;-0.4106359;0.1300267;0;
689.9842;0;590.2216;616.8117;3.682039;18.02639;617.3195;607.5259;-0.0853866;0.1298961;0;
302.6103;0;235.4941;268.7415;4.548995;16.3337;232.4549;224.4827;-0.02033346;0.2597002;0;
256.1419;0;186.8443;232.9269;-1.884961;14.17396;182.1839;178.2178;0.1096217;0.06453724;0;
98.2138;0;37.91882;74.14754;-2.620001;12.55213;27.95331;24.55338;0.1095115;-0.06546228;0;
-475.2217;0;-498.6621;-492.7046;-12.5977;13.74521;-535.9164;-538.126;-0.2804026;-0.1303639;0;
-587.8748;0;-614.2277;-629.1407;-16.87195;14.60205;-647.7589;-647.7798;-0.2151535;0.06466916;0;
-245.0811;0;-298.0816;-311.9801;-12.36702;10.63551;-308.4657;-310.2983;-0.344872;0.3244736;0;
-191.1119;0;-242.8722;-262.6913;-14.49805;9.352147;-253.4958;-258.7622;-0.2795581;0.1292455;0;
-3.888864;0;-70.08988;-80.01898;-4.771566;19.18912;-70.8952;-76.15639;-0.0843752;-0.1957211;0;
598.3123;0;488.1375;510.2023;-0.8820053;20.30843;521.0035;516.1849;-0.01932307;-0.1305571;0;
685.1047;0;579.1635;608.1401;-9.320236;22.16354;609.5602;601.5606;0.4354677;-0.0004912108;0;
295.8616;0;225.1342;256.2682;-9.914083;23.34696;224.8284;216.8992;0.1751608;-0.1953927;0;
249.0253;0;177.3069;219.529;-2.736826;16.55835;174.7525;172.0162;-0.1498519;-0.1302291;0;
97.2262;0;34.76283;67.88451;-1.394906;15.00111;27.02608;24.97967;0.2401027;0.1297712;0;
-471.6481;0;-504.3761;-496.0253;-5.411992;6.747376;-533.157;-535.826;0.6296654;-0.2601633;0;
-590.1144;0;-634.8035;-639.5795;-5.272832;2.855708;-652.2487;-652.5412;0.6940002;-0.3898365;0;
-244.6948;0;-311.5778;-320.347;-7.879502;1.0443;-309.2029;-311.6191;0.4334335;0.0003591972;0;
-192.6;0;-249.3583;-272.6114;-8.206378;-2.037842;-254.6694;-261.0812;0.3030633;0.0003588363;0;
-17.49435;0;-86.68942;-98.92464;-11.01117;3.255735;-83.49947;-89.90478;0.2377914;0.1952605;0;
591.9044;0;481.4247;501.9977;-13.74677;4.391051;517.2825;510.6338;-0.08728424;0.2600317;0;
692.6337;0;586.9501;615.1862;0.3332114;5.190434;617.8994;609.3832;-0.2820986;-0.1300337;0;
308.6929;0;236.9735;271.7404;4.016572;6.859792;236.345;229.7115;0.1079889;-0.129903;0;
256.5338;0;186.823;231.8622;-1.412472;9.130198;182.1971;180.6302;0.1078804;0.1300969;0;
95.23199;0;36.96048;69.64818;1.669431;10.05878;25.59267;25.08932;0.0428047;0.1299662;0;
-470.1421;0;-493.4975;-490.2654;-4.762609;13.53179;-531.2157;-532.4057;0.3675984;-0.1300338;0;
-586.6733;0;-618.1887;-631.7639;-5.092616;15.39359;-648.7476;-649.2492;0.2372943;-0.1948705;0;
-246.567;0;-303.7878;-319.2859;-0.1300294;7.407401;-312.6393;-315.2019;-0.1527481;0.06519467;0;
-182.2265;0;-232.8306;-259.7448;-1.001531;5.792367;-248.1075;-254.4156;-0.2825293;0.0001618266;0;
4.36292;0;-58.68405;-72.8901;12.12862;3.777059;-65.26244;-71.87659;-0.3472128;-0.4546097;0;
599.1221;0;497.5329;516.0121;15.6664;1.161051;523.4448;516.7123;-0.1519619;-0.3891856;0;
688.1625;0;595.7333;619.8787;12.16706;4.307961;615.3723;606.7726;0.2379948;0.2608789;0;
300.603;0;244.8733;274.9289;14.36564;3.365993;232.9459;226.6662;0.2377557;0.1306821;0;
251.1382;0;194.0277;235.3599;3.299143;5.171028;180.4256;178.2126;0.2375168;-0.389188;0;
103.5849;0;52.15393;82.32524;-0.1867962;5.768678;32.19376;30.23286;0.1723108;-0.1938949;0;
-464.2339;0;-486.6277;-481.4741;2.491733;1.476096;-529.8686;-531.765;-0.2176664;-0.1937001;0;
-582.895;0;-617.5102;-624.6681;0.07833151;0.0009885876;-649.6507;-649.5463;-0.02254563;-0.5183421;0;
-232.1728;0;-292.1779;-301.3901;3.494504;1.139697;-302.2347;-303.0049;0.172379;-0.2579519;0;
-178.3415;0;-229.1034;-251.7371;5.164956;0.2677742;-244.3975;-248.5402;-0.08766353;0.00217661;0;
-4.624491;0;-65.20546;-77.63404;-3.480422;-2.545656;-72.48817;-77.12651;-0.1525428;-0.1927276;0;
597.3276;0;496.7651;515.0836;-6.088893;-3.346893;521.1613;516.7775;-0.08742217;-0.06259926;0;
687.7441;0;592.1553;616.5772;7.179114;-7.362384;613.0287;606.4005;-0.2822363;0.06739832;0;
299.1231;0;236.0515;267.7577;9.248005;-8.627663;228.1059;221.7342;-0.2169854;0.1322979;0;
250.7217;0;185.2772;229.133;7.564749;-6.877437;176.1527;172.9733;0.1080693;0.132165;0;
95.85999;0;34.35428;70.98211;9.766975;-7.071475;22.86515;20.43854;0.1729281;-0.2577718;0;
-467.8905;0;-503.5349;-488.4955;1.250695;-2.107755;-533.3158;-535.1777;0.04281963;-0.1275782;0;
-581.7379;0;-621.7192;-628.1218;-0.2908034;-0.09627096;-647.847;-647.1459;-0.1521254;0.2623541;0;
-247.696;0;-305.6281;-321.0821;-1.161167;-0.9669523;-316.9871;-316.9738;-0.2819073;-0.2576483;0;
-189.7886;0;-243.3522;-266.2869;-3.705596;-0.4301173;-255.4493;-259.6215;-0.08672196;-0.4522914;0;
5.116743;0;-62.94822;-73.17876;1.589413;3.455325;-62.85184;-68.14422;0.2382019;-0.06203288;0;
598.1885;0;490.1495;510.5389;0.9855797;5.26027;522.2297;516.318;0.1729952;0.1329315;0;
683.7316;0;579.7368;606.6024;4.400841;2.37484;607.6618;599.3197;0.107854;-0.1920388;0;
300.9867;0;227.9558;259.4795;6.472524;4.716735;226.3676;219.9079;0.2376803;-0.1268785;0;
246.8988;0;171.6924;214.3663;-2.308866;-5.000286;168.2942;166.0264;0.3673762;0.2630531;0;
99.22477;0;30.84058;65.35075;-3.914136;-7.875405;24.01004;22.24431;0.2370724;0.3277561;0;
-463.9044;0;-495.8007;-490.3731;-2.771128;6.734421;-528.9236;-530.6876;0.04193214;0.2624594;0;
-588.3755;0;-620.0523;-637.6187;-4.041141;8.134295;-652.8921;-652.4679;0.1068574;0.06729364;0;
-241.5833;0;-302.4012;-318.7004;-5.176156;15.02512;-309.8457;-310.234;-0.08815204;-0.2576107;0;
-183.1198;0;-245.5007;-265.4068;-6.912267;18.69408;-249.5645;-253.5756;-0.1530308;-0.06244981;0;
-6.212154;0;-83.08557;-93.10162;-5.230382;13.71869;-77.15028;-81.15734;-0.02294236;0.002580282;0;
596.741;0;475.4047;499.0693;-6.565274;14.97746;516.0042;512.5009;-0.2827887;-0.06238965;0;
691.7184;0;575.564;606.9509;-3.61094;6.5228;611.3749;605.7512;-0.0876025;-0.06232696;0;
304.2177;0;223.9746;257.2665;-1.79865;3.836928;227.7032;222.8348;-0.08751448;-0.192199;0;
252.313;0;172.3379;217.6528;-15.52822;4.435919;173.3766;171.9488;-0.2173612;0.1977982;0;
94.57614;0;24.55139;60.38799;-18.86152;2.823994;19.02986;17.72847;0.2376286;0.3275341;0;
-472.5464;0;-511.204;-499.6412;-13.95343;4.428625;-538.584;-540.4463;-0.08744691;-0.2575011;0;
-583.8279;0;-627.9439;-633.0718;-15.01113;4.290209;-649.9241;-649.1608;-0.3472284;0.06759435;0;
-243.0372;0;-306.1619;-318.7809;-13.18739;12.12278;-312.8152;-312.4275;0.1078919;0.3923632;0;
-185.5093;0;-243.3232;-264.5502;-12.83934;16.39738;-252.9683;-257.0162;0.2377182;0.002164842;0;
6.205789;0;-65.85525;-74.69216;-10.07978;11.0224;-65.18333;-70.22675;0.1075446;0.1320974;0;
600.0886;0;490.3064;510.9011;-8.328337;11.21227;519.6507;515.1746;-0.2823675;0.1319646;0;
682.9436;0;582.1423;609.4629;-9.994907;21.58311;604.4607;598.3649;-0.3470511;-0.257972;0;
298.2629;0;233.8572;265.9604;-9.04686;24.97743;224.6689;219.7661;-0.1518004;-0.1277781;0;
250.3621;0;186.6458;231.148;-12.78881;16.31178;174.1559;173.5684;-0.08668051;0.00228494;0;
102.6222;0;49.15227;84.23948;-14.7857;14.48685;30.42811;30.34093;0.04334128;-0.0626847;0;
-465.7578;0;-482.6299;-479.187;-7.870986;20.56762;-528.509;-529.0959;0.3031671;-0.2575237;0;
-587.3534;0;-609.2685;-626.6312;-6.456558;21.35075;-652.1655;-650.1281;0.3678298;-0.06236295;0;
-239.3129;0;-289.6292;-305.2253;-12.81406;14.83207;-308.4952;-306.7721;0.1075908;0.3275038;0;
-179.7897;0;-228.4313;-249.1966;-13.33705;14.08036;-246.3413;-248.8678;0.1074827;0.2622074;0;
1.17506;0;-60.536;-70.0361;-10.97912;12.79366;-68.80787;-72.33139;0.2373094;0.2619439;0;
600.0604;0;495.183;516.9893;-10.03008;11.50813;521.527;517.8197;-0.1527331;0.131746;0;
689.4122;0;588.3259;615.545;-12.02974;16.92206;610.6454;604.3806;-0.217547;0.3265156;0;
300.4146;0;234.3499;267.7885;-12.95468;17.57488;224.8505;220.0912;0.1075083;0.7159916;0;
248.8885;0;182.1405;229.7883;-1.95695;19.16469;172.151;171.5818;0.3672697;0.5853375;0;
93.40398;0;33.65704;72.94866;2.197227;19.54733;20.61656;20.29785;0.3019333;0.32488;0;
-471.5934;0;-504.8561;-487.0932;-6.043028;20.86735;-536.5616;-536.6926;-0.08817412;-0.0002831796;0;
-581.689;0;-621.5399;-623.8472;-5.702163;21.51621;-647.5289;-645.9106;-0.02311818;0.06468444;0;
-245.9605;0;-303.1376;-315.6875;-1.94539;14.72944;-315.295;-314.5529;0.04187239;0.3894562;0;
-194.2392;0;-246.3614;-265.7077;-0.8053349;13.17415;-261.0052;-263.7622;-0.2180391;0.2591302;0;
0.5456682;0;-67.26627;-73.41228;-2.344767;5.993864;-69.27674;-73.34272;-0.1528526;-0.260869;0;
596.9953;0;486.2731;510.493;-3.54786;0.9642436;516.6859;512.5615;-0.2176664;-0.5854436;0;
682.4772;0;574.4899;606.8689;5.230591;8.130326;601.3114;595.1297;-0.08751298;0.1297855;0;
304.7934;0;231.1475;266.3674;6.899299;6.782498;228.8316;223.2808;0.04250963;0.5194591;0;
253.0755;0;179.2537;223.2463;0.7304245;6.7087;175.5659;174.0186;-0.2823698;-0.0008015781;0;
97.21193;0;31.71013;66.72557;-0.4093853;7.572738;21.52928;21.85768;0.107718;-0.0008007727;0;
-466.6649;0;-495.3069;-491.311;-2.68615;-0.941582;-534.9001;-533.3228;0.4324464;0.1291347;0;
-587.0103;0;-618.3096;-636.8689;-4.492112;-2.749053;-655.4268;-651.7271;0.04220789;0.06403762;0;
-242.7182;0;-304.908;-320.2003;-8.037572;-3.148188;-314.3769;-312.3675;0.1721002;0.38881;0;
-183.6288;0;-247.8177;-266.0931;-9.569736;-5.422445;-254.0911;-255.582;0.5617313;-0.1962868;0;
-4.534272;0;-83.08886;-91.22604;-13.71331;0.008499295;-79.67336;-81.35011;0.4312322;-0.3909916;0;
601.6656;0;478.0251;502.1924;-16.98108;0.812286;516.2322;514.1199;-0.2838419;0.4539768;0;
698.6995;0;579.2437;612.3821;-5.577164;-2.470572;613.9141;609.9299;-0.543426;0.5184879;0;
301.6341;0;220.3418;256.3205;-2.82587;-2.267141;222.931;220.45;0.1067934;-0.1317065;0;
247.608;0;168.2714;213.8966;-6.908867;-4.743231;167.1724;168.5044;0.4964902;-0.4564108;0;
100.4331;0;31.23365;66.88049;-4.557401;-6.011141;22.70196;25.1571;0.2361219;-0.3260176;0;
-467.2575;0;-500.7803;-496.2787;-8.371215;-1.651332;-536.5397;-533.4624;-0.3488214;0.1940488;0;
-584.4164;0;-622.8405;-639.2079;-8.496525;-0.3100143;-654.5036;-649.1804;-0.2185362;0.2588211;0;
-243.6876;0;-309.6843;-324.3486;-3.397773;-5.199335;-316.2032;-313.509;0.1714874;0.06365904;0;
-185.4095;0;-251.3398;-269.8624;-3.05859;-5.462042;-255.2284;-257.2846;-0.2834563;0.1285624;0;
10.05369;0;-71.24015;-77.68769;2.972703;-4.652759;-64.94248;-67.2465;-0.2182042;0.06346589;0;
607.7432;0;484.1148;510.8446;5.514336;-5.71981;523.5145;520.838;0.1068518;-0.06653256;0;
687.7795;0;570.1474;605.9707;1.892449;0.9841079;604.6974;599.5873;-0.2180923;-0.2613677;0;
299.4707;0;220.9372;259.6606;2.560132;2.456743;221.1573;218.0513;-0.3478078;-0.1961378;0;
245.0095;0;170.8653;219.2948;3.763009;1.114616;166.2751;167.8573;-0.2175236;-0.001038663;0;
91.09058;0;30.2642;67.4632;6.036403;2.989018;16.62062;18.4512;0.172499;-0.1959396;0;
-466.4083;0;-488.3805;-482.8905;4.623818;-4.515951;-531.6205;-530.6663;0.3672277;-0.3256775;0;
-584.9423;0;-613.8265;-626.8326;9.643014;-5.851072;-650.7137;-648.1363;-0.02294537;-0.0005134956;0;
-252.3964;0;-311.174;-322.6679;4.208317;-2.696995;-322.9743;-321.8987;-0.4776937;0.2593564;0;
-194.7966;0;-251.0164;-269.7451;4.873674;-3.431098;-264.3041;-266.5404;-0.4122464;0.4539978;0;
-5.508438;0;-76.22696;-83.25518;34.67508;1.796897;-79.8186;-81.8653;-0.2169301;0.06373758;0;
598.3186;0;485.5048;509.7804;44.15206;3.201733;515.275;513.1054;-0.4765815;-0.3261305;0;
689.0465;0;584.5919;614.7152;50.40336;3.06455;608.835;604.4812;-0.54107;-0.3907702;0;
294.7395;0;227.9335;262.3368;57.38629;3.99911;219.2312;216.0687;-0.2156896;-0.0655408;0;
241.47;0;174.4812;219.3447;57.59607;3.995091;162.9142;163.8777;-0.02057086;0.1294271;0;
96.2377;0;36.43771;72.82285;58.40886;5.263752;20.69686;22.65898;-0.2154522;-0.0006376532;0;
-468.5127;0;-493.0828;-484.0954;56.80993;0.3018486;-535.9192;-533.0845;-0.02033371;-0.06560435;0;
-591.6673;0;-619.2736;-631.1599;57.55615;-0.1673352;-659.8181;-654.7374;0.1096214;0.06439625;0;
-251.1186;0;-305.8711;-318.9323;27.69201;-0.3011329;-322.3244;-319.6226;0.04454392;-0.1305705;0;
-191.4587;0;-245.1566;-265.7009;16.4784;-1.841316;-261.2811;-262.3926;0.3693359;-0.3903086;0;
-0.8620055;0;-69.99821;-80.71426;27.11176;4.724618;-74.61225;-75.78509;0.4339321;-0.1300471;0;
600.5865;0;487.6668;508.6331;20.98895;4.384956;517.9774;516.8057;0.1736267;0.129953;0;
686.1898;0;579.443;607.697;34.4318;10.54286;604.4132;600.8065;0.04351757;0.1298224;0;
302.5052;0;231.7852;263.5091;38.21462;13.27856;225.4961;222.2053;-0.2813629;0.06472457;0;
252.9136;0;181.8273;223.8266;27.59365;-0.6000011;172.3586;173.5064;-0.1511455;-0.0003078039;0;
94.67636;0;30.78292;64.61915;28.10179;-3.479542;15.3892;18.47236;-0.08602625;0.1296272;0;
-471.7591;0;-510.1636;-497.0385;27.40299;-8.164729;-543.283;-539.953;-0.08593981;0.1944643;0;
-592.3492;0;-645.5202;-642.903;26.5048;-13.51504;-663.9886;-658.3507;0.3039506;0.1293015;0;
-255.673;0;-331.4666;-334.9115;23.93354;-5.932631;-330.5512;-326.1683;0.3686125;0.06420428;0;
-196.883;0;-261.4186;-281.4767;20.82804;-4.78796;-270.1867;-269.5564;0.3032748;0.3240092;0;
-5.343824;0;-83.30782;-93.41322;25.36146;-14.69638;-82.50945;-81.94218;0.2380027;0.6485203;0;
597.671;0;474.8704;498.8205;25.67077;-15.48541;511.7748;511.7168;0.04286155;0.3230319;0;
687.5249;0;570.0951;604.3285;15.12975;-9.575471;602.6521;600.0955;0.4326225;-0.002129365;0;
300.7157;0;218.7611;254.4593;12.70268;-8.025242;220.6758;219.8083;0.2372858;0.06284012;0;
245.7535;0;163.8188;204.2912;13.56057;-2.792632;164.0449;166.8015;-0.217724;-0.002190367;0;
92.02122;0;17.22777;50.10085;12.40884;-0.3785619;13.33071;16.64676;0.1073315;0.1277465;0;
-475.536;0;-518.2079;-510.4802;15.879;2.63605;-546.2764;-542.5264;-0.02271106;0.2575529;0;
-596.4347;0;-640.313;-656.5811;17.67171;3.905955;-668.166;-662.1084;-0.2175903;0.1923267;0;
-249.3221;0;-317.5816;-336.7693;15.84529;5.71057;-324.4795;-319.6149;-0.02246961;0.2571008;0;
-192.7873;0;-261.478;-284.0822;15.56192;7.71432;-265.7453;-264.6962;-0.1523817;0.1269078;0;
-10.87245;0;-91.86291;-102.8252;24.4549;-5.354859;-86.006;-86.08239;-0.2821633;0.256715;0;
592.7101;0;472.1335;495.4774;26.5728;-8.564537;509.781;509.5797;-0.4118145;0.1265223;0;
684.693;0;568.5479;602.8628;24.26892;-9.091795;602.2845;599.2099;-0.3464333;-0.2634089;0;
298.9485;0;219.0894;254.6193;25.65106;-12.69962;220.8083;217.6743;-0.0212485;-0.06824217;0;
239.4279;0;162.3977;206.5125;15.77965;-5.38596;158.68;159.7346;0.1087075;0.1916958;0;
83.1408;0;15.18341;49.25893;12.81605;-5.179599;4.535473;6.588478;0.433435;0.2564705;0;
-471.4765;0;-505.0079;-501.3888;16.4205;-3.633787;-542.5691;-540.5181;0.6928688;0.2562128;0;
-587.1319;0;-626.4391;-641.5018;15.80079;-1.754614;-660.277;-655.6669;0.4972706;0.1260207;0;
-248.7742;0;-315.8405;-329.2014;11.76642;-7.178347;-326.2811;-321.9255;-0.02296776;-0.3288774;0;
-191.2405;0;-254.179;-271.5869;8.47207;-8.108894;-266.1083;-264.8805;-0.4127487;-0.3935142;0;
-4.329736;0;-78.32435;-84.5329;13.88954;-4.952671;-81.62101;-81.14409;-0.4773013;0.3864893;0;
592.687;0;478.7869;503.6314;8.650672;-3.808985;509.5389;508.5161;-0.4768218;0.3211336;0;
683.9828;0;576.5689;610.7588;25.58854;-9.766517;602.9797;599.1468;-0.1515059;-0.004025806;0;
304.7983;0;234.3488;271.6277;32.12691;-10.09162;226.875;225.4823;-0.02141901;0.06094558;0;
247.4582;0;177.5167;224.316;-12.91692;-7.000263;167.4268;170.4083;-0.1513322;0.06088434;0;
94.53629;0;32.91097;70.85509;-20.9419;-6.323522;17.95867;21.31195;0.1736566;-0.004144175;0;
-472.3363;0;-496.7309;-487.4355;-24.26976;-0.4897744;-540.4037;-535.3047;0.3034168;-0.3289767;0;
-600.4846;0;-629.4773;-638.4321;-33.22035;1.118308;-668.9833;-661.3907;-0.02172479;-0.003809454;0;
-247.4958;0;-305.195;-315.5775;-11.55234;7.68139;-320.361;-315.1498;-0.3465397;0.1261291;0;
-189.1513;0;-242.0449;-261.5375;-8.861414;10.95571;-259.5695;-258.9237;-0.2162568;-0.003932361;0;
-15.67337;0;-80.63271;-88.7364;-3.159083;5.921107;-89.51904;-89.62354;-0.0861048;0.06103893;0;
594.2233;0;484.2894;508.74;1.934306;6.317055;509.8947;510.3525;-0.6707243;-0.4587611;0;
690.2027;0;583.9399;615.3624;8.229002;1.889956;606.8958;605.1667;-0.9299198;-0.1334635;0;
296.5192;0;226.8449;261.9215;16.25869;0.5483983;218.231;217.6906;-0.279312;0.2564747;0;
239.9995;0;171.3947;218.8673;-2.981387;0.2799156;159.9784;163.624;0.3056748;0.3861517;0;
89.45892;0;30.60568;68.16054;-4.585981;0.1456684;13.32881;16.72082;0.2404003;0.5156984;0;
-472.2237;0;-496.7225;-488.4407;-2.437919;0.0115562;-539.4067;-536.3929;0.2401587;-0.1994606;0;
-592.5635;0;-624.5964;-632.6272;-5.985443;-0.390353;-659.9914;-653.9821;-0.01995197;-0.3941622;0;
-252.1389;0;-311.5633;-321.0228;6.947667;11.33181;-323.6219;-318.4933;-0.2148339;0.2559073;0;
-195.7262;0;-251.3429;-270.1007;8.079762;15.33928;-265.7007;-264.5128;0.1102186;0.1257155;0;
-8.37365;0;-80.36364;-88.6079;9.679234;15.52481;-82.52569;-82.27593;-0.08479414;0.1905565;0;
591.3333;0;474.1259;498.561;11.00868;18.9922;506.6986;507.0106;-0.6044477;0.5152017;0;
678.4451;0;566.6653;601.8829;9.457376;14.61935;593.2083;591.8333;-0.4739057;0.1898474;0;
298.8913;0;220.7695;258.5129;11.6577;14.13578;217.8006;217.4265;0.04630928;-0.2001475;0;
244.1183;0;165.4503;211.0894;-7.845193;17.26978;161.6723;164.7344;-0.0187046;-0.1999464;0;
85.57763;0;15.10957;53.70626;-14.66981;17.45337;6.275408;9.896585;0.1762162;-0.1997455;0;
-474.1646;0;-514.0771;-501.9434;-5.947536;13.28301;-545.3286;-540.899;0.8257126;-0.1345774;0;
-595.1271;0;-639.4973;-647.1783;-10.49591;11.39415;-665.7199;-658.5461;0.2401768;0.06045983;0;
-249.8273;0;-319.5152;-328.2505;1.437353;13.65999;-324.0349;-318.43;-0.1498686;0.06039909;0;
-188.1072;0;-254.2893;-271.8239;5.722816;12.17277;-259.9289;-258.3276;0.1751187;-0.004628947;0;
-15.25499;0;-93.36454;-102.7606;-11.56429;14.03593;-89.94049;-88.6532;-0.3447959;0.2552451;0;
583.8342;0;460.8882;486.6089;-11.68639;14.08881;498.2917;499.2654;-0.08458014;0.1250539;0;
682.1978;0;563.5608;601.2496;-17.63649;7.979455;596.4915;594.778;0.5002109;0.1249283;0;
293.6448;0;211.3588;249.572;-22.10577;6.095915;212.8346;211.9975;0.1099043;0.5795741;0;
240.9386;0;158.2979;202.8446;-3.93253;3.946336;157.7733;160.9975;-0.2150429;0.6439591;0;
91.27162;0;16.21023;53.40326;-1.04819;2.267919;12.31285;16.28335;-0.1498595;0.253508;0;
-474.9105;0;-514.7267;-503.8079;-1.448303;0.7920159;-544.4197;-540.0784;-0.08474154;-0.006616089;0;
-590.0002;0;-627.7774;-641.857;2.169499;-0.3474898;-660.564;-653.7908;-0.2145911;-0.2015115;0;
-242.5818;0;-301.7477;-321.1229;-3.592481;2.198211;-316.7602;-311.2432;-0.01947343;-0.5261457;0;
-189.3646;0;-245.66;-269.701;-2.852913;3.200624;-261.1572;-260.0185;0.4353175;-0.330715;0;
-7.265796;0;-75.87339;-88.8957;-5.328293;3.331374;-82.54697;-82.34644;0.3699128;0.1243887;0;
593.3146;0;483.7966;502.8337;-6.729459;4.131822;509.6758;509.7512;-0.08523031;0.1892311;0;
683.173;0;579.2622;608.65;-0.4934062;8.548422;600.7427;598.4442;-0.2150794;0.1240736;0;
303.4895;0;233.9784;269.3337;0.8472362;10.6163;224.9526;224.0308;0.1099735;-0.1359205;0;
249.5241;0;180.9574;228.0212;1.850763;8.797096;169.0671;172.0817;0.1748303;-0.4606206;0;
84.66858;0;28.03981;65.24881;3.657564;9.123172;7.290926;11.05211;-0.02024738;-0.1353211;0;
-480.32;0;-501.4722;-494.348;4.926687;9.9178;-548.9368;-544.7421;0.174675;-0.3300871;0;
-591.9686;0;-616.7227;-629.9703;6.394629;10.0418;-660.3914;-653.9521;0.3044342;-0.5896248;0;
-243.5486;0;-294.5146;-307.1868;7.326209;8.558085;-315.6508;-310.155;0.1741936;-0.524065;0;
-185.5204;0;-234.8111;-253.9672;7.65364;8.683453;-254.989;-252.5596;0.1740185;-0.6534731;0;
-6.736262;0;-67.28419;-76.30122;10.99485;8.00502;-78.69626;-76.7691;-0.02105833;-0.3279798;0;
597.8416;0;496.9373;517.9767;12.72609;9.068582;517.4582;519.1335;-0.1509719;-0.06778086;0;
693.0677;0;598.4492;623.5905;5.813454;7.987864;614.2643;613.6266;0.4338859;-0.06771275;0;
298.0695;0;240.9023;271.1407;4.602163;8.180665;224.905;225.0176;0.7582866;-0.1975794;0;
242.7352;0;182.3146;227.9523;5.401823;15.00458;167.5827;171.5683;0.237786;-0.4572502;0;
96.18983;0;40.07781;77.54879;3.788804;15.32442;23.29928;27.59315;0.3025144;-0.1969214;0;
-473.433;0;-500.5033;-486.5581;8.339349;26.49493;-538.7542;-535.3391;0.1073084;-0.001821531;0;
-597.02;0;-635.8071;-634.8069;8.73311;31.22397;-663.7747;-658.1767;-0.3475708;-0.1317544;0;
-250.0317;0;-311.331;-316.5163;7.987401;18.93497;-320.9047;-315.9995;-0.1523195;-0.001687313;0;
-195.6827;0;-246.9254;-266.5357;8.983753;18.71499;-264.6729;-262.7711;-0.2821012;-0.001685618;0;
-11.82835;0;-76.45034;-86.54572;4.621446;10.59149;-83.87267;-82.78491;-0.151883;-0.1316186;0;
590.3809;0;481.5335;504.3068;4.28201;5.959152;509.1635;509.0009;0.4329756;-0.001551673;0;
678.2432;0;573.3783;605.7488;2.200626;13.72294;596.4203;594.2588;0.04273655;0.06341723;0;
300.2513;0;228.9125;265.4359;-0.0787606;13.17329;222.0714;221.911;-0.2821431;-0.06658117;0;
245.8518;0;175.5842;222.0034;6.954893;14.29876;166.3762;170.3389;0.04297711;-0.06651428;0;
