Fp1;Fp2;O1;O2;POLY3;POLY4;A1;A2;Video;Audio;event;
-549.176;0;0;0;-4.588984;1.144422;-546.5077;-543.2373;0.2318035;0.1404594;0;12:39:26 Глаза закрыты;
-235.7814;0;0;0;-6.325686;-1.93782;-236.4891;-234.284;0.1016359;0.01038357;0;
-270.9017;0;0;0;-9.869303;-3.744412;-270.047;-271.5922;0.4913378;0.07534049;0;
1.608657;0;0;0;2.465473;-1.329265;-3.097183;-4.390984;0.1660074;0.2051995;0;
620.8583;0;0;0;3.668445;-1.930775;607.474;606.4939;-0.1589961;0.4648626;0;
564.7623;0;0;0;3.59741;-0.6561595;554.515;550.6622;0.03606566;0.2694935;0;
191.3822;0;0;0;5.603527;0.3491217;186.0177;182.7311;0.03602942;0.07432072;0;
223.1114;0;0;0;-3.579131;-2.933271;215.4409;215.2185;0.2308953;-0.05568866;0;
5.059195;0;0;0;-4.914705;-3.198255;0.4573947;0.6725224;0.03576122;-0.3804694;0;
-554.2272;0;0;0;-11.87599;-1.520468;-552.2028;-551.8629;-0.1591767;-0.3800871;0;
-542.0512;0;0;0;-17.15534;-1.317992;-542.3401;-539.3145;-0.02908211;0.01009885;0;
-212.422;0;0;0;-5.550181;0.357784;-216.2713;-213.7484;-0.1589876;-0.05487864;0;
-237.3209;0;0;0;-4.138085;1.362169;-239.0424;-240.8949;-0.02889314;-0.4446276;0;
14.35367;0;0;0;-12.10453;2.030629;8.63591;7.222582;-0.09383145;0.07555797;0;
608.603;0;0;0;-12.15972;3.904111;595.02;594.9824;-0.4185739;0.4003187;0;
547.272;0;0;0;-10.53991;1.756734;536.3888;534.1648;-0.02834924;0.01011245;0;
184.904;0;0;0;-9.993454;2.491781;177.9672;177.2447;0.491418;0.334939;0;
224.3858;0;0;0;-6.83558;5.10149;214.9572;217.109;0.3609895;0.009765739;0;
-3.475276;0;0;0;-4.952702;5.364295;-8.646512;-6.684278;-0.2240793;-0.1851461;0;
-562.0035;0;0;0;-5.282518;13.26277;-559.9232;-557.4008;-0.3537888;0.2698113;0;
-542.136;0;0;0;-4.741347;15.66071;-542.744;-538.7248;0.2312728;0.07463821;0;
-225.4377;0;0;0;0.487354;13.36767;-229.6057;-226.2777;0.2310404;0.07456321;0;
-244.0142;0;0;0;2.496596;14.22502;-246.2415;-245.3532;0.03590619;0.07448829;0;
31.34266;0;0;0;-2.998269;9.722869;24.43245;24.88265;-0.02909723;0.07441345;0;
621.0148;0;0;0;-4.871266;7.904683;606.4903;607.1274;0.1008667;0.4641427;0;
548.8018;0;0;0;-0.2446712;8.298637;537.9151;536.6151;0.2956674;0.1388396;0;
185.2453;0;0;0;-0.3107982;7.62047;179.2421;178.1933;0.03550091;0.07373279;0;
218.7922;0;0;0;-6.071262;3.058095;211.4832;213.309;-0.4842735;0.4634628;0;
-13.12371;0;0;0;-7.27061;1.045534;-15.17798;-13.2291;-0.4837869;0.1381604;0;
-571.1425;0;0;0;-12.55459;5.934116;-564.9489;-563.6266;0.03643795;-0.1868152;0;
-547.5802;0;0;0;-16.09195;6.263068;-545.0784;-541.7585;0.166336;-0.2515948;0;
-220.694;0;0;0;-8.574667;7.797382;-224.4416;-221.3749;-0.1586678;-0.1214073;0;
-241.3368;0;0;0;-7.694419;8.928257;-243.5189;-243.7661;-0.02857371;-0.25122;0;
22.83556;0;0;0;-11.23764;10.05787;15.84555;16.91042;-0.1584797;-0.705739;0;
620.5122;0;0;0;-10.28834;12.52614;605.4708;607.2217;-0.3532225;-0.5101278;0;
556.0458;0;0;0;-11.08131;5.279515;545.5172;543.7057;0.1668712;-0.1198112;0;
185.4231;0;0;0;-10.26687;4.269588;180.2149;179.7795;-0.4180025;-0.1846582;0;
223.5925;0;0;0;-8.179471;9.221913;217.1402;220.3284;-0.4175825;-0.1195053;0;
-0.707056;0;0;0;-6.832082;9.011698;-2.342805;-0.2197451;0.5573472;-0.4442219;0;
-563.1736;0;0;0;-3.743758;15.70069;-558.8732;-556.9397;0.4268525;-0.1839062;0;
-541.0561;0;0;0;-2.199755;18.43122;-541.3826;-536.765;-0.02834784;0.4009847;0;
-223.2344;0;0;0;1.218707;13.65703;-228.1209;-224.3199;-0.158254;0.07574508;0;
-244.8741;0;0;0;2.891446;13.71029;-248.8811;-247.7701;-0.09312768;-0.05426572;0;
35.60609;0;0;0;2.420026;14.8351;25.98095;28.02789;-0.0930341;-0.0542112;0;
624.6492;0;0;0;3.221877;14.8202;607.7249;609.9572;-0.4177773;0.07577797;0;
555.7434;0;0;0;-1.604131;11.99214;542.5217;541.8157;-0.3523902;0.4005385;0;
199.2389;0;0;0;-3.880671;10.70742;190.6532;191.4472;-0.09216676;0.07529937;0;
225.6503;0;0;0;-1.062757;13.24201;216.5735;220.4901;-0.2220088;-0.1846457;0;
-9.146017;0;0;0;-1.73225;13.76457;-13.65349;-10.86525;-0.1568184;-0.2494275;0;
-561.1718;0;0;0;-3.137029;10.73651;-560.0526;-557.3297;0.2331432;-0.1842095;0;
-537.8069;0;0;0;-2.329594;10.45779;-540.6243;-535.6553;0.1679416;0.2057796;0;
-220.7381;0;0;0;-10.09776;11.98789;-226.6762;-223.4612;0.2327402;0.3355076;0;
-242.5678;0;0;0;-13.43652;11.10506;-244.8766;-245.2256;0.362441;-0.1845683;0;
30.91362;0;0;0;-2.504676;17.25621;24.3592;23.69826;0.03724013;-0.1843829;0;
622.0854;0;0;0;-2.770579;18.77948;607.3542;606.6939;-0.287634;0.2705738;0;
554.1191;0;0;0;-1.561371;13.93796;541.8391;539.5552;-0.287345;0.1403673;0;
195.4924;0;0;0;-1.292358;13.92396;185.2236;184.6287;0.2326825;-0.3145452;0;
231.7151;0;0;0;-11.13767;9.154177;218.0833;220.7999;0.1674813;-0.05435976;0;
-3.899383;0;0;0;-14.60911;7.470527;-12.83233;-10.43083;-0.1575237;0.2055642;0;
-568.7366;0;0;0;-19.34985;7.329055;-569.3522;-567.0781;0.2324387;0.01045565;0;
-538.5549;0;0;0;-21.80865;5.915049;-540.8566;-536.6483;0.2322051;0.1403798;0;
-210.7408;0;0;0;-32.10187;10.39684;-215.4765;-213.0214;-0.2227996;-0.05466325;0;
-238.2027;0;0;0;-36.15545;11.72605;-239.3104;-240.2936;-0.2875431;-0.3144777;0;
31.46376;0;0;0;-27.27786;10.97746;27.42114;26.18906;0.03758257;0.205577;0;
618.3871;0;0;0;-26.17872;11.56927;608.2891;606.5585;0.2974142;-0.0544989;0;
542.3037;0;0;0;-19.05247;14.57176;535.2143;530.9243;0.6219521;-0.3143135;0;
188.8737;0;0;0;-15.08121;15.56186;183.5405;180.6291;0.7512618;-0.1190957;0;
230.6003;0;0;0;-8.434627;15.74717;222.0866;222.8638;0.1008335;-0.1839433;0;
-8.074052;0;0;0;-2.465281;17.33894;-12.70611;-11.92976;-0.1591372;0.07611088;0;
-563.2869;0;0;0;-8.893166;10.08748;-562.1672;-560.3921;0.6206308;0.2059691;0;
-534.0478;0;0;0;-7.410361;8.335914;-536.0526;-531.2184;0.5550398;-0.1840419;0;
-223.9168;0;0;0;-7.938778;10.7388;-228.4808;-225.2132;0.1646781;-0.4437264;0;
-243.4319;0;0;0;-8.93518;8.316747;-244.1183;-244.1022;0.7492187;-0.1184438;0;
42.60658;0;0;0;-4.439199;16.48006;38.8599;39.25072;0.5535638;0.6612833;0;
628.7691;0;0;0;-4.367389;17.60221;617.9048;618.4826;-0.09666578;0.5306842;0;
546.0536;0;0;0;-1.549962;11.02032;539.0732;537.589;0.2282681;0.1403469;0;
187.9346;0;0;0;0.5277004;10.20545;184.4595;184.7259;0.3579734;0.07523852;0;
240.0945;0;0;0;-4.897837;2.626372;233.9992;237.4512;0.09774432;-0.1197391;0;
1.09825;0;0;0;-5.026638;-1.060328;0.6312461;3.267715;0.2925481;0.1402506;0;
-584.7334;0;0;0;-2.409619;-0.7243479;-577.6412;-575.1948;0.2272868;0.205077;0;
-556.6597;0;0;0;-2.138778;-2.666003;-552.3857;-547.3181;-0.1627456;0.2698383;0;
-221.2686;0;0;0;0.07319812;-5.677557;-219.8101;-215.3097;0.227222;0.3345345;0;
-247.3456;0;0;0;0.4079172;-7.681217;-243.7645;-241.3302;0.291961;0.269231;0;
28.63936;0;0;0;5.967213;-2.783867;27.40672;29.96355;-0.03316906;0.3988951;0;
618.4391;0;0;0;9.443841;-2.111241;610.7109;611.766;0.09679895;-0.1862117;0;
537.8579;0;0;0;-1.616734;-1.975153;533.6982;531.6287;-0.033233;-0.1210573;0;
183.7452;0;0;0;-4.228054;-0.6336321;182.7756;182.9571;-0.03319961;0.5937051;0;
218.1681;0;0;0;5.689181;-4.115986;215.4504;219.7546;-0.09813359;0.008402467;0;
-29.73907;0;0;0;6.152955;-4.446765;-27.70646;-24.78087;-0.03306764;-0.2514753;0;
-578.9331;0;0;0;6.013051;-3.303587;-570.9056;-569.4822;0.3567696;0.1385814;0;
-539.3085;0;0;0;8.216835;-2.89837;-534.4749;-531.5537;0.3564112;0.00850746;0;
-231.671;0;0;0;0.5727686;-4.637014;-228.5289;-227.4222;0.2261183;0.07346627;0;
-258.2997;0;0;0;0.6395421;-5.302184;-251.7875;-253.7429;0.09595645;0.1383598;0;
35.8746;0;0;0;6.3987;-1.94771;35.69614;35.42938;-0.293944;0.2031881;0;
623.9804;0;0;0;10.54546;-2.414633;615.1815;615.9769;-0.2286813;0.2029839;0;
533.8984;0;0;0;9.128341;1.807596;529.4811;527.4022;0.09638517;0.1378126;0;
181.039;0;0;0;10.79313;3.346387;180.062;179.2345;0.3561577;0.00773947;0;
225.772;0;0;0;28.39843;-3.355147;222.1723;225.9059;0.2908325;-0.1871703;0;
-16.77051;0;0;0;32.85788;-3.753673;-15.18178;-11.8892;0.09563822;-0.2519496;0;
-578.5963;0;0;0;45.55186;-8.304619;-570.0751;-568.1602;0.2904442;-0.3816311;0;
-542.3453;0;0;0;54.28;-10.23878;-536.7063;-533.0441;0.09525029;-0.3812477;0;
-218.0256;0;0;0;33.7299;-8.15202;-215.0159;-212.7942;-0.0347801;0.1388742;0;
-247.6665;0;0;0;31.82;-9.148573;-241.9737;-242.4404;-0.0997125;0.2686693;0;
32.56661;0;0;0;29.24243;-2.575175;34.13077;34.47665;-0.424449;0.1384647;0;
622.4874;0;0;0;22.85004;-0.2283069;616.991;617.5239;0.03074887;0.3981949;0;
534.4683;0;0;0;28.18571;-3.443136;532.4132;530.4469;0.420522;0.2678601;0;
185.3565;0;0;0;22.12917;-3.305711;186.2395;185.8993;0.1602301;-0.1222131;0;
230.0227;0;0;0;24.38411;0.515516;229.3431;231.8143;0.2250365;0.007844381;0;
-24.26824;0;0;0;19.13567;1.586725;-20.19953;-18.41792;0.02990831;-0.1220982;0;
-578.8401;0;0;0;15.29805;-2.701655;-569.0908;-566.6238;0.02987826;-0.3818449;0;
-535.9048;0;0;0;15.4164;-3.301787;-529.2887;-524.3879;0.2247503;0.008342863;0;
-231.3941;0;0;0;-22.77814;-6.312579;-227.6582;-224.1992;-0.1003123;0.1382692;0;
-253.9626;0;0;0;-32.19972;-8.315724;-247.9816;-248.3366;-0.1002115;0.07316291;0;
47.01642;0;0;0;-33.77496;-5.09231;48.86843;48.70121;0.2247259;0.008122033;0;
627.3649;0;0;0;-42.18014;-5.288142;621.7813;623.2385;-0.2952386;0.07308123;0;
538.9662;0;0;0;-11.79559;-4.88093;536.4492;535.7809;-0.489844;0.1379751;0;
192.9108;0;0;0;-5.287001;-4.206197;194.0819;194.3514;0.1603216;-0.05706554;0;
228.2616;0;0;0;-0.1904973;-3.26421;227.1202;231.5123;0.09519319;0.1378938;0;
-21.34242;0;0;0;7.780297;-0.9836319;-17.85997;-13.72217;-0.5545759;0.462592;0;
-585.9747;0;0;0;6.232238;-6.876897;-575.7491;-571.9278;-0.618986;0.3321925;0;
-551.0281;0;0;0;10.78033;-8.008698;-544.8733;-538.9944;-0.2935273;0.1369567;0;
-225.7002;0;0;0;-3.364026;1.041802;-223.612;-219.5506;0.09657168;0.006884366;0;
-262.4548;0;0;0;-7.311784;2.581362;-257.9325;-257.6857;0.2913767;0.3966815;0;
25.35185;0;0;0;-9.782684;5.324946;24.37243;25.18116;-0.3585895;0.7211196;0;
640.5797;0;0;0;-15.53363;8.065896;632.2924;633.1627;-0.4231966;0.330591;0;
553.1671;0;0;0;-8.418076;3.034194;549.5108;548.069;0.1619347;-0.1894799;0;
183.2969;0;0;0;-8.208547;2.763213;182.9551;182.7017;0.03183736;-0.3192242;0;
225.0291;0;0;0;-13.55893;4.233939;221.127;223.6224;-0.09812932;-0.3838708;0;
-22.44769;0;0;0;-13.61266;3.626961;-21.3484;-19.29278;0.421708;-0.3185177;0;
-580.8944;0;0;0;-11.99139;3.087453;-571.0506;-568.9971;0.6161863;-0.05832833;0;
-534.8961;0;0;0;-12.85;1.543743;-527.8732;-524.0726;0.4206651;-0.1232371;0;
-222.3279;0;0;0;-2.454608;5.159148;-219.3102;-216.4504;0.2903078;-0.0581459;0;
-250.3403;0;0;0;1.298903;6.292674;-244.0772;-244.1564;-0.03482065;0.2017819;0;
50.13529;0;0;0;-9.151252;-0.9476835;52.33164;53.12714;-0.294655;0.07164448;0;
630.9804;0;0;0;-9.544198;-1.750404;625.6783;627.2227;-0.2293916;-0.1233296;0;
525.8364;0;0;0;-13.28565;-1.748646;523.1634;522.6447;0.03070825;0.006729054;0;
180.0441;0;0;0;-16.62121;-2.148786;179.81;181.6032;-0.09925729;0.136657;0;
224.2784;0;0;0;-9.63828;1.336363;222.9201;228.0223;-0.2290922;-0.1233497;0;
-36.6909;0;0;0;-9.494873;2.138816;-31.42618;-27.82835;-0.09892736;-0.3181278;0;
-588.6266;0;0;0;-10.82548;6.892333;-576.4332;-571.777;0.2909761;-0.1229061;0;
-536.561;0;0;0;-9.340734;8.961879;-527.8781;-519.1036;0.09578169;-0.1227826;0;
-220.7428;0;0;0;-16.36395;11.29715;-215.317;-208.9876;-0.4240533;0.007275447;0;
-249.1941;0;0;0;-18.75938;14.3669;-241.8997;-240.3868;-0.1637578;0.4620395;0;
39.91108;0;0;0;-8.559121;7.051564;41.95085;44.58665;-0.2285606;0.1367386;0;
628.5751;0;0;0;-6.809209;5.905769;624.3035;627.1865;-0.228331;-0.1882355;0;
533.5534;0;0;0;-10.8882;11.39231;533.1591;532.666;-0.09816685;-0.1230791;0;
177.2586;0;0;0;-10.60884;12.25164;180.1756;180.1202;-0.2280029;0.07194665;0;
226.9929;0;0;0;-11.66991;10.49778;227.908;230.6012;-0.03287178;0.4616784;0;
-26.29546;0;0;0;-12.52884;10.62119;-20.6962;-17.69328;-0.03283875;0.3312798;0;
-585.6754;0;0;0;-11.71294;13.28984;-573.6475;-570.3352;-0.2926751;0.1360449;0;
-532.051;0;0;0;-12.16969;13.47744;-523.9083;-518.3505;-0.2274137;0.2008756;0;
-224.046;0;0;0;-11.82267;15.87516;-218.66;-213.7325;-0.09725051;-0.1891303;0;
-251.2446;0;0;0;-10.47162;16.19412;-242.8655;-240.6291;-0.1621201;-0.318875;0;
59.5393;0;0;0;-16.75676;14.90517;61.35073;63.89724;-0.2918919;-0.0586852;0;
640.1251;0;0;0;-17.61058;14.68925;634.376;636.6701;-0.2915986;0.006341106;0;
537.2833;0;0;0;-12.10053;8.378335;536.7874;536.0181;-0.1613709;-0.05863261;0;
193.3535;0;0;0;-11.95465;5.690599;195.919;196.0876;0.03369324;0.07136101;0;
240.8853;0;0;0;-1.76123;5.550915;240.5746;244.3038;-0.1612426;0.3311587;0;
-15.72792;0;0;0;2.995962;3.736799;-11.91531;-8.564718;-0.2910153;0.005989195;0;
-586.9875;0;0;0;-4.308066;2.125576;-576.6819;-573.7095;-0.2257556;-0.3838209;0;
-543.4193;0;0;0;-3.433081;0.7837811;-534.9982;-529.5925;0.03434065;0.006368842;0;
-215.6627;0;0;0;-1.88939;1.653772;-209.3115;-205.6604;0.1642408;0.006362442;0;
-241.8702;0;0;0;-2.087586;1.049263;-233.339;-234.0019;-0.1607609;-0.3184807;0;
52.0377;0;0;0;-1.08111;5.468961;54.50087;54.71324;-0.290534;0.00667606;0;
639.1278;0;0;0;-1.816958;8.410714;634.7169;635.179;0.1645293;0.07163671;0;
532.4139;0;0;0;-1.21192;-0.7742763;531.6931;530.1557;0.359266;0.006597371;0;
172.4346;0;0;0;-2.4835;-1.979069;174.2758;175.1762;0.03406827;0.006590742;0;
219.6125;0;0;0;-0.9407635;2.711603;220.14;223.9755;0.1639687;-0.4481873;0;
-33.29362;0;0;0;-0.3366058;1.168271;-26.95709;-24.87455;0.4886407;-0.6426389;0;
-588.4811;0;0;0;-10.51767;9.405753;-575.4043;-573.6987;0.2282803;-0.3171565;0;
-529.5441;0;0;0;-13.18642;11.00389;-519.9787;-515.1514;0.2930183;0.1379336;0;
-213.2957;0;0;0;-10.5612;1.883401;-207.613;-202.853;0.6175606;0.2027623;0;
-246.5646;0;0;0;-11.15283;-0.7978084;-239.3258;-237.5066;0.0972013;0.007656535;0;
53.96975;0;0;0;-9.802452;-1.667663;55.14175;56.58434;-0.2927004;-0.0573185;0;
634.6237;0;0;0;-8.854597;-3.005646;627.736;628.9897;0.09739774;-0.1871956;0;
525.9153;0;0;0;-8.644629;-14.25551;522.6578;522.2236;0.1622672;-0.05707281;0;
180.9975;0;0;0;-9.506599;-18.12608;180.7417;182.4943;-0.3576346;0.07291923;0;
226.7925;0;0;0;0.8180808;-16.76821;224.1631;229.0375;-0.1623732;-0.1870234;0;
-41.36324;0;0;0;3.697647;-19.49766;-38.49268;-34.43534;0.09765933;-0.3167702;0;
-594.6685;0;0;0;-6.286404;-7.555349;-584.1797;-580.6262;-0.4871449;-0.2514845;0;
-526.6674;0;0;0;-7.285441;-3.729852;-520.2495;-514.888;-0.2917534;-0.3161992;0;
-212.2959;0;0;0;-12.23461;-7.276078;-210.7571;-206.7753;0.2932459;-0.3808488;0;
-244.0666;0;0;0;-14.56684;-4.388623;-240.9051;-239.4884;0.4878532;-0.2505315;0;
60.77558;0;0;0;-15.62393;-6.527544;60.31071;62.22566;0.292461;-0.1853124;0;
633.3642;0;0;0;-16.67996;-5.985244;627.2776;628.5659;-0.4874409;-0.05519149;0;
521.2838;0;0;0;-12.57737;-3.835777;518.2643;517.5523;-0.03217977;0.2697007;0;
180.2437;0;0;0;-10.82244;-3.965888;179.4136;180.389;0.422624;0.334397;0;
225.7896;0;0;0;-4.448553;-0.4789127;222.8989;226.7469;-0.09753943;0.2041263;0;
-37.18025;0;0;0;-0.3582458;0.1913978;-34.63327;-31.60124;0.03249326;0.07398655;0;
-591.5517;0;0;0;2.656224;-1.08147;-582.0108;-578.9194;0.03246061;-0.05602248;0;
-528.926;0;0;0;5.332872;-0.7454689;-522.5181;-517.1809;-0.2274414;-0.4457702;0;
-208.6802;0;0;0;10.41773;-2.821069;-205.0274;-201.4447;0.2275586;-0.575257;0;
-252.3235;0;0;0;13.48872;-2.751251;-245.9882;-246.0322;0.09739521;-0.2498423;0;
42.407;0;0;0;8.250254;-3.552282;43.61352;44.44408;-0.357474;-0.3795259;0;
639.5642;0;0;0;8.777827;-2.945866;634.0854;635.4149;-0.1622128;0.01065947;0;
533.2247;0;0;0;1.133197;-4.684463;530.5624;529.142;-0.09708249;0.3354855;0;
183.1146;0;0;0;-3.0875;-6.488173;181.8294;181.2224;-0.1619523;0.07527902;0;
233.5302;0;0;0;4.818856;5.708874;231.1218;234.0137;0.03311247;0.01023602;0;
-37.31843;0;0;0;2.604187;7.511677;-32.85286;-30.15128;0.1630139;-0.3795783;0;
-589.191;0;0;0;7.625412;7.571113;-577.8584;-575.5968;0.4876868;-0.2492622;0;
-518.2593;0;0;0;8.622128;10.37667;-511.2484;-506.1156;0.2922947;0.3356943;0;
-213.2666;0;0;0;-1.701663;-2.962998;-210.0109;-205.5079;0.03213168;-0.05444705;0;
-247.0977;0;0;0;-3.039124;-4.835543;-241.2216;-240.3463;0.4868708;-0.4441964;0;
69.05426;0;0;0;-10.87295;-8.916521;69.1774;69.80196;0.3564469;-0.1189134;0;
642.1343;0;0;0;-13.74241;-12.85943;634.761;635.0726;0.03125202;-0.1187939;0;
522.2365;0;0;0;-15.46992;-1.660606;519.6183;518.1805;0.1611553;0.1411949;0;
191.5027;0;0;0;-18.7369;-0.5203491;192.198;192.6981;-0.1638433;0.2709877;0;
239.5361;0;0;0;-6.594287;4.905669;237.8568;241.4799;-0.4885154;0.07581338;0;
-39.37704;0;0;0;-4.779;9.656406;-35.99463;-33.06236;-0.1631878;0.0757372;0;
-591.5599;0;0;0;-2.965537;2.613739;-582.2463;-579.3171;0.03187815;0.01069374;0;
-527.5599;0;0;0;-0.5516598;3.013011;-522.4411;-517.016;-0.1630559;-0.05428435;0;
-215.8737;0;0;0;-6.713048;7.832633;-214.2583;-209.7757;-0.03295738;0.01073754;0;
-243.4553;0;0;0;-7.576958;8.561574;-239.905;-237.8007;-0.1628589;0.07569411;0;
64.50966;0;0;0;-11.32039;7.749177;62.49668;65.53592;-0.487532;0.1405854;0;
643.2164;0;0;0;-12.98395;7.607424;634.4589;636.4955;-0.09723809;0.01050943;0;
524.7543;0;0;0;-19.06648;4.987446;520.3784;518.7274;0.0327943;0.01049887;0;
175.5273;0;0;0;-21.92673;2.504188;174.8414;174.5039;-0.1621407;-0.05447902;0;
223.8266;0;0;0;-17.55142;8.998773;221.3922;224.4908;-0.03204308;-0.184359;0;
-44.88835;0;0;0;-17.53378;10.53034;-42.63511;-40.03937;0.1628911;0.07569566;0;
-595.6913;0;0;0;-11.21952;-0.1302855;-587.5059;-584.4755;0.4225968;-0.05431509;0;
-525.1904;0;0;0;-7.926697;-1.804606;-521.1985;-516.1722;0.5521069;-0.1192279;0;
-218.0668;0;0;0;-5.574207;-2.740554;-218.4518;-215.1796;0.1617481;0.01082663;0;
-244.147;0;0;0;-1.281699;-5.350134;-242.7824;-242.5745;0.09661822;0.01081575;0;
77.6242;0;0;0;-5.96946;4.434505;74.48965;75.57195;0.09652113;0.3356416;0;
641.5752;0;0;0;-6.164533;7.042384;631.2599;632.3411;-0.03351053;0.1404023;0;
517.3052;0;0;0;2.415477;1.743778;510.436;508.4552;0.09645782;-0.1845755;0;
189.8872;0;0;0;4.28906;2.545821;186.0234;185.6688;-0.3584105;-0.1194227;0;
240.4209;0;0;0;-0.3369503;4.35168;233.9373;237.1438;-0.6179197;-0.2492374;0;
-40.86691;0;0;0;-2.212622;5.285069;-41.84671;-39.39315;-0.03259276;0.1408171;0;
-601.544;0;0;0;3.281958;6.016571;-595.0266;-592.6379;0.5521461;0.07570831;0;
-530.1627;0;0;0;4.149316;6.680355;-526.9001;-522.39;0.2917219;-0.5090739;0;
-210.9151;0;0;0;-8.379807;8.21425;-210.9668;-208.3352;-0.22831;-0.443595;0;
-248.1219;0;0;0;-12.59095;9.076652;-245.8621;-247.2312;0.1617235;-0.1832799;0;
61.40946;0;0;0;-6.617424;11.07702;58.29466;57.23932;-0.03334103;-0.4429651;0;
646.866;0;0;0;-6.275982;13.14236;636.5704;636.2032;-0.2282096;-0.7023894;0;
523.9025;0;0;0;-11.9631;10.85174;517.9276;515.9366;0.2917585;-0.3118796;0;
173.1146;0;0;0;-11.21415;11.97954;170.5815;171.0288;0.5513347;-0.05169682;0;
221.3538;0;0;0;-10.73437;10.62785;216.6993;220.3321;0.4858134;-0.3764816;0;
-52.60601;0;0;0;-10.38879;8.13892;-51.69612;-48.31686;0.2254559;-0.05126658;0;
-601.2773;0;0;0;-0.5981079;22.66567;-593.4343;-589.9335;-0.2295421;0.01375227;0;
-524.0867;0;0;0;0.8090126;25.25511;-519.3125;-515.1281;-0.2942788;-0.1811636;0;
-217.339;0;0;0;13.60157;17.19203;-214.881;-212.5748;0.1607883;0.01392048;0;
-247.6678;0;0;0;20.41943;17.44268;-243.4631;-243.5955;0.2905614;-0.1160282;0;
74.41933;0;0;0;2.983842;6.976063;71.81071;73.36507;-0.4243713;-0.3108136;0;
639.1232;0;0;0;2.646051;3.352097;629.3333;631.1984;-0.5538796;0.01433539;0;
508.0465;0;0;0;-4.189111;2.745882;504.4509;502.3786;0.03138306;0.01432098;0;
178.7638;0;0;0;-9.609909;-0.3380916;179.8569;178.6613;0.3561882;0.3391433;0;
224.0613;0;0;0;2.79098;4.618863;223.5291;226.2078;0.2258957;0.5986719;0;
-58.89669;0;0;0;2.11859;4.547239;-53.11902;-51.5675;-0.2940701;-0.2465051;0;
-596.0674;0;0;0;5.532712;9.566268;-583.8613;-581.7491;-0.6835786;-0.5710941;0;
-521.3808;0;0;0;7.134744;12.63787;-513.2474;-508.5136;-0.03321835;-0.2456836;0;
-219.9456;0;0;0;1.434147;8.539335;-215.631;-212.901;0.3566191;-0.115502;0;
-247.6481;0;0;0;0.9632158;9.669343;-242.3383;-241.9849;-0.4233474;0.07951608;0;
71.00318;0;0;0;-4.127967;7.784227;70.93536;72.72521;-0.5528567;0.01446882;0;
643.3316;0;0;0;-5.865131;6.235797;636.8296;639.2423;0.09737227;0.01445429;0;
515.6241;0;0;0;-10.34722;9.779506;513.0016;513.413;0.1622418;0.1443745;0;
170.4667;0;0;0;-13.01614;8.563986;171.0328;172.6931;-0.2926926;-0.2455747;0;
221.0199;0;0;0;-9.385736;8.957278;220.2111;224.9932;-0.1624639;-0.1803606;0;
-51.75267;0;0;0;-10.38166;8.74733;-47.25081;-43.97281;0.03260141;-0.05024467;0;
-604.6727;0;0;0;-4.40938;0.7008321;-594.4907;-591.7158;0.097536;-0.4399982;0;
-523.2308;0;0;0;-3.199501;-1.778119;-517.057;-511.7861;0.03247065;-0.3096214;0;
-208.363;0;0;0;-0.7844126;-4.522632;-204.3819;-201.3651;-0.09749666;0.08049374;0;
-248.3834;0;0;0;2.699;-7.331249;-241.0955;-241.0802;-0.03243135;0.0154455;0;
71.6429;0;0;0;-8.824288;-5.649431;72.80164;73.69141;0.03256858;-0.3094067;0;
643.2211;0;0;0;-9.351285;-7.050274;637.2572;636.5844;-0.03243149;-0.3090958;0;
510.3287;0;0;0;-10.88213;-3.962097;509.4933;506.5723;-0.1623336;0.01605146;0;
180.419;0;0;0;-13.21572;-2.886389;182.0207;181.7263;-0.2921052;0.08100268;0;
223.0912;0;0;0;0.9301034;-4.424096;221.9427;224.8969;-0.09690962;0.01595394;0;
-69.48602;0;0;0;4.813935;-2.678095;-64.57394;-62.3723;0.09808978;0.08090526;0;
-605.1469;0;0;0;3.001413;-8.435814;-593.8055;-592.4807;0.1629586;-0.1140781;0;
-516.8329;0;0;0;4.94078;-9.700013;-509.6259;-505.866;-0.03210721;-0.2438981;0;
-223.6482;0;0;0;12.57163;-3.260027;-218.5099;-215.1286;-0.2919443;0.146151;0;
-264.4654;0;0;0;17.24707;-2.787871;-256.646;-256.4541;-0.1617163;0.2759388;0;
69.50761;0;0;0;9.259134;0.02809151;71.88435;72.57584;0.2282503;0.08075955;0;
652.957;0;0;0;11.25956;1.166773;648.1474;648.0886;0.09808623;0.1456457;0;
518.8679;0;0;0;4.616817;2.036379;517.499;514.1919;0.03302033;0.2104667;0;
172.5204;0;0;0;0.5263405;4.177665;174.4637;173.1589;0.3578238;0.4701246;0;
220.1355;0;0;0;21.75928;-2.792514;219.5781;222.2726;0.2275296;0.2747502;0;
-61.88151;0;0;0;24.4831;-2.789708;-58.44038;-56.18588;0.227301;-0.1153299;0;
-609.6065;0;0;0;24.5932;-4.595444;-599.8595;-598.7317;0.1621053;0.07968801;0;
-523.6619;0;0;0;27.38153;-6.466349;-516.236;-514.5471;0.2269097;-0.05032676;0;
-215.6652;0;0;0;14.96181;7.405372;-210.5581;-209.6206;0.5515184;-0.3101456;0;
-250.181;0;0;0;11.66522;11.41678;-244.6418;-245.0795;0.09619288;-0.04996456;0;
74.34483;0;0;0;8.572042;8.59203;73.13188;74.00647;-0.2287405;0.01505299;0;
644.1711;0;0;0;4.678662;10.72685;636.3378;638.3359;-0.09857596;-0.04992948;0;
509.6537;0;0;0;-1.689052;12.85953;505.6387;504.7613;0.03145777;0.01508803;0;
175.7467;0;0;0;-7.113338;14.38709;174.7967;174.4199;0.4212302;-0.04989447;0;
221.9218;0;0;0;0.5969688;12.83215;218.7239;221.7208;0.09597025;-0.179779;0;
-71.02906;0;0;0;0.52902;12.95322;-69.4761;-67.10691;-0.2289629;0.08027101;0;
-607.6879;0;0;0;-2.753065;10.79675;-599.3899;-597.2729;-0.09879814;0.210125;0;
-516.123;0;0;0;-2.080714;9.044346;-511.3316;-506.9679;-0.1636662;-0.1149228;0;
-219.5033;0;0;0;-3.15035;11.51363;-217.1529;-213.6057;0.03140027;0.145062;0;
-246.1442;0;0;0;-1.874387;10.1624;-241.7348;-240.7523;0.2912381;0.01498157;0;
87.87287;0;0;0;-5.95834;11.96073;85.90607;87.01246;0.09604342;-0.3748375;0;
645.9415;0;0;0;-7.2925;12.14966;637.355;637.7107;-0.09895511;0.01534316;0;
502.1769;0;0;0;2.427719;5.104364;497.5346;494.9538;0.03107901;0.01532774;0;
171.7132;0;0;0;4.635106;3.022886;169.2619;168.7452;0.1609825;-0.1146223;0;
224.9513;0;0;0;6.104318;0.675446;220.7534;224.2977;-0.164016;-0.04953983;0;
-65.25399;0;0;0;9.849228;-2.406326;-63.13837;-60.59713;-0.2288185;0.08044465;0;
-606.7912;0;0;0;3.006828;0.7441681;-598.7432;-596.5793;-0.2285886;0.1453312;0;
-509.5425;0;0;0;2.736363;0.4754886;-506.4377;-502.3394;-0.2283589;0.08021779;0;
-205.8704;0;0;0;9.498768;-3.208928;-205.9546;-203.797;-0.1631621;0.4049739;0;
-243.3322;0;0;0;10.82839;-3.540619;-242.3542;-242.5726;-0.09803085;0.2096649;0;
88.93296;0;0;0;11.42073;-4.139907;82.41368;83.63229;-0.1628997;-0.05041511;0;
654.0595;0;0;0;11.54297;-4.068765;640.9251;640.8306;-0.2277033;0.07957025;0;
507.1008;0;0;0;18.43025;-4.734506;499.4144;496.0092;0.09736215;0.01452294;0;
172.9465;0;0;0;21.49319;-5.868458;167.1418;166.0514;0.3571337;0.01450835;0;
225.1839;0;0;0;10.88902;3.113029;215.6994;217.9834;0.4217422;-0.1804083;0;
-63.83472;0;0;0;8.59993;6.257977;-67.93736;-66.53026;0.2913837;-0.3101617;0;
-603.1245;0;0;0;10.66837;-1.31726;-601.6008;-599.5704;0.1611563;-0.1799153;0;
-509.7526;0;0;0;7.57619;-1.181971;-512.4783;-508.0762;0.1609943;-0.3746366;0;
-210.3281;0;0;0;10.11417;-2.721269;-215.7997;-213.2136;0.09586523;-0.5041948;0;
-251.1587;0;0;0;8.562793;-4.661039;-254.0011;-255.7279;-0.03416578;-0.3087862;0;
81.86394;0;0;0;3.396625;2.242764;74.08933;72.73907;-0.09909879;-0.4384106;0;
656.4928;0;0;0;1.384457;3.312238;641.9169;640.9429;-0.2289339;-0.3730027;0;
512.2803;0;0;0;-4.913574;-0.375152;502.7166;499.2447;-0.03380185;0.2120782;0;
177.746;0;0;0;-7.253162;-0.4417579;172.5022;171.7824;0.0961668;0.3417997;0;
224.8561;0;0;0;-12.8046;-2.785595;217.1188;220.2729;0.1610375;0.01661957;0;
-75.469;0;0;0;-16.40906;-4.725301;-79.45037;-77.73629;0.2908104;-0.1133318;0;
-610.6866;0;0;0;-5.742651;0.1690793;-609.3541;-607.7042;0.09561615;-0.04825059;0;
-508.5615;0;0;0;-2.5217;0.9727046;-511.6032;-508.3308;0.03055274;0.2116673;0;
-206.2022;0;0;0;-7.94515;-5.19058;-213.2388;-211.1566;-0.09941264;0.1464873;0;
-239.6656;0;0;0;-6.395949;-5.922177;-244.946;-245.4896;0.03062193;-0.1135293;0;
91.78373;0;0;0;-3.576483;-7.456712;81.63605;80.4059;0.3554279;-0.04844791;0;
653.2842;0;0;0;-4.242475;-9.05681;635.8379;634.0468;-0.03473332;0.01656811;0;
505.7641;0;0;0;8.220369;-3.153334;492.1459;487.608;-0.09966576;-0.1783506;0;
173.1728;0;0;0;11.69473;-1.475714;163.254;160.4072;0.09533641;-0.2431387;0;
223.8483;0;0;0;2.708002;-3.684546;213.752;215.4058;0.03027327;-0.3728291;0;
-72.04053;0;0;0;3.709659;-2.542134;-74.00576;-73.16566;0.2251449;-0.3724545;0;
-609.0732;0;0;0;-8.685301;-1.400991;-604.1649;-604.4501;0.09498397;-0.1122108;0;
-506.8247;0;0;0;-12.76241;-0.3948397;-506.4816;-505.8295;-0.1000135;0.08280395;0;
-209.6521;0;0;0;-7.52565;0.2753863;-212.8076;-213.8427;-0.1648803;-0.04721395;0;
-240.6133;0;0;0;-9.795264;0.2081267;-242.3912;-245.7992;0.160122;0.08276819;0;
105.767;0;0;0;2.271018;5.432464;98.30618;94.90167;0.5497652;0.3425544;0;
655.8842;0;0;0;6.622993;7.235545;643.5583;639.47;0.4192781;0.1473082;0;
494.1186;0;0;0;4.87405;2.405625;488.4268;481.9688;0.1589874;0.2121275;0;
173.9703;0;0;0;9.892994;2.403208;170.7829;166.2055;-0.2309764;0.536751;0;
223.2081;0;0;0;3.051527;-0.9483531;217.3378;216.0134;-0.4906136;0.4712444;0;
-81.36317;0;0;0;2.847389;-3.358664;-81.60539;-83.67811;-0.03534927;0.5357382;0;
-602.332;0;0;0;14.83362;2.070207;-597.2017;-599.3348;0.2245556;0.1453958;0;
-494.9679;0;0;0;17.43166;1.867178;-493.4035;-493.7229;0.22433;-0.3095216;0;
-208.177;0;0;0;16.74358;1.530387;-208.9879;-210.6188;0.2890719;-0.1143086;0;
-242.0132;0;0;0;16.45931;2.533593;-241.0742;-245.7644;-0.1010226;0.01574092;0;
101.9322;0;0;0;24.34701;-3.095397;96.87328;92.37519;-0.4257578;-0.1791769;0;
662.298;0;0;0;27.67144;-3.963065;649.8729;645.3793;-0.03552594;-0.3738989;0;
502.0253;0;0;0;11.63509;-2.686407;494.1729;487.2475;0.3543138;-0.3735232;0;
164.5652;0;0;0;8.609284;-2.817674;161.156;155.6744;0.02912108;-0.1782459;0;
232.6781;0;0;0;9.069148;-1.006425;229.1473;226.8571;-0.4906469;-0.1780668;0;
-56.34807;0;0;0;6.113275;-0.938431;-52.44154;-55.604;-0.1653172;-0.2428552;0;
-612.0121;0;0;0;12.87229;3.952144;-600.9256;-603.96;0.09471828;-0.1126765;0;
-514.0086;0;0;0;14.60066;5.48878;-508.493;-508.6507;-0.2302136;-0.1125633;0;
-211.2066;0;0;0;11.83933;4.813436;-210.4441;-212.3508;-0.4248843;0.08245188;0;
-252.4735;0;0;0;11.89478;6.617138;-249.7128;-255.3032;-0.4894247;0.2772711;0;
92.48191;0;0;0;19.51864;-2.030065;90.17989;85.46964;-0.3589983;0.2120251;0;
656.2306;0;0;0;21.57513;-4.774325;648.3087;642.6661;0.03116651;-0.1130247;0;
496.5886;0;0;0;15.92737;0.5220017;492.9225;484.7869;0.1610699;-0.1778784;0;
175.001;0;0;0;13.56684;-0.5502497;172.588;167.3341;-0.228896;0.01720233;0;
226.1744;0;0;0;17.37161;1.928672;221.0776;219.3273;-0.2936334;0.1471197;0;
-87.08305;0;0;0;17.6216;3.266392;-86.49001;-88.17615;-0.03346896;0.2769066;0;
-615.355;0;0;0;1.997475;-3.970924;-608.9529;-610.5125;0.03153202;0.211661;0;
-504.7919;0;0;0;-2.559859;-6.110388;-501.6447;-502.7029;-0.03346701;0.08151367;0;
-220.24;0;0;0;-0.9496967;-0.9466847;-219.4073;-222.151;0.03153396;0.1463991;0;
-251.128;0;0;0;-3.158569;-1.280648;-249.4216;-254.9737;-0.03346507;0.341154;0;
103.8835;0;0;0;1.934819;-4.092523;100.6532;94.54443;-0.09839878;-0.2438949;0;
657.5632;0;0;0;4.344749;-5.22712;648.9014;643.1736;-0.2282346;-0.3086171;0;
492.6725;0;0;0;6.215417;-7.700114;487.6426;481.046;-0.2280053;0.2114317;0;
163.7801;0;0;0;9.759146;-9.701865;162.0036;157.9124;0.09706055;-0.2435521;0;
221.8987;0;0;0;13.50038;-9.089271;218.4373;217.5361;0.09696302;-0.04840539;0;
-77.67377;0;0;0;16.09879;-8.879189;-75.50949;-77.90906;0.03189825;0.3414473;0;
-616.8247;0;0;0;22.17818;-17.77875;-606.9164;-609.8134;0.09683353;-0.1786345;0;
-506.2602;0;0;0;24.3667;-20.90909;-499.4229;-499.3808;0.0317689;-0.2434224;0;
-208.4009;0;0;0;24.14114;-11.1758;-204.3191;-205.9013;0.226639;0.08165894;0;
-245.2354;0;0;0;24.78647;-8.887147;-239.2212;-244.9247;0.2264113;0.01660953;0;
108.0211;0;0;0;17.59427;-14.23673;107.7824;102.7717;-0.1636203;-0.1133418;0;
665.0699;0;0;0;15.23207;-14.15544;657.7726;653.1418;-0.5532599;-0.113228;0;
497.6105;0;0;0;9.188541;-8.44779;494.6308;487.6933;-0.552704;0.08178785;0;
174.835;0;0;0;4.491235;-7.434558;175.9188;170.1127;-0.1623446;-0.04822902;0;
221.136;0;0;0;8.974701;-4.345995;221.9063;219.167;-0.3570835;-0.04818056;0;
-95.98941;0;0;0;7.692885;-1.796277;-89.5977;-91.95943;-0.1618227;0.4716066;0;
-620.0045;0;0;0;11.3015;-10.6361;-609.1215;-610.169;0.423046;0.2762307;0;
-500.0665;0;0;0;15.77812;-13.03667;-492.6927;-492.3648;-0.1620851;-0.2437856;0;
-219.7047;0;0;0;0.6243719;-7.999976;-214.2123;-216.3835;-0.5517263;-0.04863862;0;
-265.7107;0;0;0;-2.657809;-8.795732;-259.5992;-263.6423;-0.3562699;0.276247;0;
99.31043;0;0;0;19.04684;-9.657673;99.85613;96.12944;-0.2909446;0.2110021;0;
667.7999;0;0;0;23.24726;-9.714952;661.8483;656.3137;-0.09575024;0.08085535;0;
501.9619;0;0;0;20.41087;-12.3174;500.514;491.5493;-0.03068669;-0.1790953;0;
175.9336;0;0;0;22.06432;-12.37201;178.3602;171.4035;-0.0956232;-0.1789153;0;
223.0456;0;0;0;21.03777;-14.50303;222.971;220.2067;0.09937491;-0.04880086;0;
-89.52156;0;0;0;20.48077;-15.35924;-83.84892;-87.42258;0.1642424;-0.1137192;0;
-620.2273;0;0;0;13.56131;-9.248479;-608.376;-611.3214;-0.03082466;0.08129714;0;
-505.4115;0;0;0;9.796643;-7.49763;-498.757;-498.1387;-0.2256957;0.3410848;0;
-209.9894;0;0;0;7.174831;-6.619318;-205.9652;-207.1592;-0.2904363;0.5356441;0;
-245.448;0;0;0;4.152536;-4.603301;-238.9291;-243.9949;-0.09524241;0.6000732;0;
106.4344;0;0;0;-1.075573;-5.737385;106.8873;103.0135;0.1647227;0.07973156;0;
663.8597;0;0;0;-3.821158;-5.664637;658.2527;654.6326;-0.03034488;-0.2451853;0;
494.5899;0;0;0;-1.539167;-0.9032792;493.4862;486.559;0.03465295;-0.2449389;0;
167.632;0;0;0;-2.274555;0.8391847;168.2161;162.2954;0.2295202;-0.3096601;0;
221.374;0;0;0;3.019016;-4.587154;218.7716;216.1676;0.0343875;-0.04947963;0;
-95.56422;0;0;0;5.092088;-5.118408;-92.29195;-95.39307;0.09932029;0.1454721;0;
-622.0785;0;0;0;4.752178;-5.180248;-612.6251;-614.7236;0.03425315;0.145326;0;
-494.3923;0;0;0;6.556065;-6.715528;-488.9464;-488.3567;-0.03074861;-0.1796568;0;
-210.8503;0;0;0;4.941886;-0.2116803;-206.9091;-208.6313;0.1641843;-0.1145089;0;
-245.1211;0;0;0;5.606506;2.199918;-239.4973;-244.9034;0.099052;0.08050817;0;
118.8174;0;0;0;2.586763;-5.974088;118.4386;113.7251;-0.2258842;-0.1144748;0;
659.9884;0;0;0;0.9102005;-7.374605;654.4876;649.9037;-0.2906246;-0.04939239;0;
486.662;0;0;0;3.186462;-1.606785;486.2892;480.0858;0.09947146;-0.1792774;0;
174.2673;0;0;0;0.5703154;-1.672153;177.2681;172.8825;0.03440417;-0.11413;0;
222.8177;0;0;0;10.55008;-0.06300473;223.4417;222.1215;-0.3554344;-0.04904795;0;
-98.99452;0;0;0;14.82638;0.6068879;-91.87443;-93.81801;-0.1601753;0.01596868;0;
-624.3184;0;0;0;-7.62743;-3.345593;-609.6468;-611.7758;0.1648224;0.01595263;0;
-500.3156;0;0;0;-12.37519;-4.213009;-490.0316;-490.3469;-0.09521261;-0.1139981;0;
-209.3339;0;0;0;-3.655216;-7.624784;-202.371;-203.9978;-0.290019;0.0810185;0;
-244.9181;0;0;0;-5.259134;-10.09549;-236.5254;-241.0866;0.1000765;-0.0489976;0;
111.7114;0;0;0;-0.4310781;-7.673961;113.7238;109.6045;0.1649433;-0.178883;0;
663.0719;0;0;0;1.64546;-7.800216;659.1478;654.0956;-0.2250265;0.4709701;0;
487.1812;0;0;0;-1.838818;-13.01692;488.5085;480.088;-0.2897677;0.5354642;0;
160.8555;0;0;0;-0.8989651;-14.7454;165.1174;159.1417;-0.2245092;-0.2446819;0;
214.7917;0;0;0;2.317119;-9.506039;216.4881;215.2035;-0.09434896;-0.5043054;0;
-98.57925;0;0;0;5.060481;-8.357778;-91.63715;-93.67007;0.2955499;-0.1139947;0;
-624.6532;0;0;0;-1.040173;-11.29663;-612.3458;-614.6265;-0.02958379;0.3408913;0;
-498.4012;0;0;0;-2.579369;-11.2183;-490.4789;-490.9458;-0.2894234;0.2755814;0;
-213.231;0;0;0;8.877426;-8.795637;-207.1908;-209.4063;-0.1591979;-0.3094016;0;
-253.6838;0;0;0;10.87726;-8.183952;-244.9635;-250.8624;-0.02910328;-0.1141887;0;
121.4452;0;0;0;9.527162;-9.381422;123.9723;117.767;0.2307953;0.6005669;0;
681.7914;0;0;0;10.92411;-9.974842;678.444;671.4328;-0.02930595;0.340094;0;
500.1348;0;0;0;7.229436;-7.888349;500.7263;491.4732;-0.3541132;-0.1799864;0;
181.6046;0;0;0;6.752682;-7.478525;183.2575;177.0747;-0.09388803;0.08006379;0;
228.461;0;0;0;4.066579;-10.28429;229.425;227.0591;0.1011083;0.209918;0;
-103.6017;0;0;0;2.38853;-9.60413;-95.14246;-98.06828;0.2959088;0.01480506;0;
-623.7361;0;0;0;3.256786;-14.81903;-608.7261;-610.837;0.1007094;-0.1151445;0;
-492.55;0;0;0;1.713272;-16.1438;-481.4282;-482.2875;-0.4840979;-0.1799961;0;
-208.1978;0;0;0;7.672422;-10.2332;-200.9602;-203.8176;-0.2887094;0.2749561;0;
-241.4718;0;0;0;9.875515;-10.02197;-233.1795;-238.158;0.1663521;0.5995166;0;
123.7124;0;0;0;1.961362;-3.447691;126.1868;122.2128;-0.2236191;0.1441428;0;
666.5027;0;0;0;0.6865938;-1.166807;662.4154;657.8832;-0.7431331;-0.05090411;0;
477.4902;0;0;0;2.695636;-3.844952;477.7798;469.8164;-0.3525824;0.4688858;0;
155.6719;0;0;0;0.6168224;-3.707123;159.0222;153.0658;0.03757592;0.4684146;0;
217.9216;0;0;0;6.778144;-6.985439;218.5199;216.3176;-0.1573639;0.07813993;0;
-99.13808;0;0;0;8.378924;-8.719976;-93.29301;-96.68004;-0.2871404;-0.05187328;0;
-623.7747;0;0;0;-3.01635;-14.13671;-611.5012;-613.6355;-0.09194988;-0.2467232;0;
-485.5296;0;0;0;-5.156773;-18.00739;-477.5788;-476.9623;-0.1568248;-0.3114426;0;
-199.935;0;0;0;-5.285313;-17.38645;-194.3661;-196.8111;-0.09169991;0.01370703;0;
-244.4617;0;0;0;-6.887593;-19.44545;-236.3995;-242.2154;-0.02664043;0.07866061;0;
122.7245;0;0;0;-4.134982;-20.96652;124.844;119.2214;-0.4813851;-0.1812878;0;
660.3309;0;0;0;-3.326544;-21.1464;656.951;650.8343;-0.3509667;-0.246073;0;
474.8228;0;0;0;-3.39055;-23.46944;476.6313;469.0839;-0.155712;0.01404363;0;
165.2511;0;0;0;-3.052351;-23.04396;169.494;164.0156;-0.2854902;0.2738989;0;
209.3128;0;0;0;4.922296;-20.94445;212.1771;209.9527;-0.09030133;0.4035584;0;
-117.3584;0;0;0;8.467323;-19.71772;-107.8128;-110.8472;0.03972409;0.4031529;0;
-626.2971;0;0;0;2.162175;-15.41112;-611.7636;-614.67;0.1696189;-0.05202362;0;
-490.3608;0;0;0;2.227352;-13.85503;-480.9644;-481.8688;0.1044811;-0.1169387;0;
-209.0717;0;0;0;3.29684;-8.616557;-201.5588;-204.7112;-0.09052593;0.3379502;0;
-241.6577;0;0;0;2.355523;-6.464445;-231.2162;-236.7393;-0.1554023;0.5325127;0;
129.3987;0;0;0;5.434615;-9.338216;133.3954;129.3772;-0.02531147;0.4670103;0;
666.7485;0;0;0;6.366183;-9.127884;664.0571;658.6061;-0.1552207;0.271639;0;
479.2975;0;0;0;1.13585;-17.02245;481.4813;473.0373;-0.3499668;0.1414313;0;
163.8492;0;0;0;0.1967032;-21.35912;168.4046;163.2799;-0.2196804;-0.1835475;0;
215.5335;0;0;0;1.535676;-16.9169;217.8979;216.4641;0.105377;-0.1833631;0;
-109.9571;0;0;0;0.3960333;-17.90465;-101.4106;-103.1554;0.3651405;0.2066253;0;
-632.3964;0;0;0;4.213052;-24.65181;-618.2988;-618.2303;0.1049042;0.07648295;0;
-488.2706;0;0;0;4.40989;-25.83274;-478.3102;-476.9298;-0.09010322;0.1413734;0;
-197.6133;0;0;0;3.066288;-25.94075;-190.0992;-192.2809;0.2997914;0.2711661;0;
-249.3262;0;0;0;3.12958;-25.78071;-240.4453;-245.0611;0.1695555;0.1409589;0;
124.8614;0;0;0;-2.097501;-22.00377;127.4241;123.9998;-0.415321;0.07584994;0;
682.4556;0;0;0;-3.770333;-20.30721;678.4565;674.0361;-0.3499363;0.01080637;0;
490.7409;0;0;0;-2.962261;-13.18673;491.4934;483.2044;0.2351214;0.4005996;0;
177.0302;0;0;0;-2.423421;-9.288593;179.5936;173.4993;-0.1549189;0.5301318;0;
222.267;0;0;0;-7.243757;-9.74814;221.7044;220.6762;-0.5445673;0.2047624;0;
-120.9089;0;0;0;-7.63862;-7.996789;-115.2242;-117.0009;-0.2191834;-0.05531278;0;
-634.0919;0;0;0;-2.339659;-3.9699;-623.3529;-625.0654;-0.08902851;-0.1851919;0;
-489.9019;0;0;0;-2.337308;-1.085645;-484.1712;-483.9455;0.2358976;0.2047983;0;
-206.9267;0;0;0;9.587758;-10.19411;-203.513;-206.6608;0.5604973;0.3994945;0;
-233.7052;0;0;0;13.19545;-12.05927;-228.7957;-235.626;0.5599341;0.3341258;0;
144.4646;0;0;0;9.698587;-7.291485;143.3097;138.1105;0.2995021;0.138888;0;
669.8678;0;0;0;11.69857;-8.422868;663.0919;657.9604;-0.09060284;-0.2510556;0;
473.6056;0;0;0;-0.4369696;-4.060636;471.0218;463.5841;0.1043902;-0.185836;0;
168.8451;0;0;0;-4.187575;-3.654658;167.4509;162.4569;0.5590567;-0.1206819;0;
215.7768;0;0;0;-2.240008;-3.383054;211.1981;209.6449;0.4935276;-0.2504954;0;
-121.0208;0;0;0;-4.113767;-1.839048;-119.4106;-121.9617;0.1032277;-0.120309;0;
-637.6395;0;0;0;-3.238978;-9.808046;-629.8464;-631.2706;0.03815662;-0.1201881;0;
-492.3215;0;0;0;-2.43144;-10.60199;-489.8461;-488.8326;-0.02684906;-0.1850347;0;
-197.4748;0;0;0;-2.630068;-12.46673;-197.9379;-199.549;-0.3516588;0.01005327;0;
-230.822;0;0;0;-2.828496;-14.26275;-228.9109;-232.8941;-0.2213708;0.07501052;0;
134.8512;0;0;0;8.493852;-8.15309;131.763;128.221;0.03872104;0.2698372;0;
669.1971;0;0;0;11.43305;-8.278864;661.3018;656.3891;0.1686168;0.5944027;0;
474.5597;0;0;0;12.82809;-0.5676301;470.9827;464.7006;0.10348;0.2689688;0;
163.9887;0;0;0;16.96741;2.781965;162.2894;158.6997;0.1033761;-0.2510402;0;
217.9217;0;0;0;3.621119;-3.718053;216.0367;214.6995;0.2332069;-0.3807226;0;
-123.0635;0;0;0;2.07724;-2.910522;-116.7632;-119.4734;0.03807053;-0.0555034;0;
-639.4302;0;0;0;1.405567;-10.20862;-627.0768;-628.9722;-0.2868044;0.2044218;0;
-487.7386;0;0;0;-2.079446;-14.21721;-480.8949;-479.9772;-0.09161422;-0.05565303;0;
-205.1403;0;0;0;11.98882;-6.633976;-203.8007;-205.4452;0.3632492;0.009370231;0;
-236.9806;0;0;0;14.78981;-7.431106;-236.6418;-241.9703;0.3628842;0.07432817;0;
147.5643;0;0;0;13.90429;-11.17456;141.0312;135.7706;-0.2221865;-0.3155506;0;
678.2742;0;0;0;17.2402;-12.83791;665.251;659.1835;-0.4168653;-0.3802009;0;
475.007;0;0;0;13.40448;-12.62406;465.9948;458.5591;-0.156577;-0.1849168;0;
176.9918;0;0;0;14.53009;-12.81232;169.3005;165.5579;-0.09145235;-0.2496983;0;
235.0972;0;0;0;12.63948;-19.02874;224.6025;224.4869;-0.09136045;-0.1195128;0;
-119.8982;0;0;0;11.01919;-19.8804;-125.5723;-126.5623;0.1036334;0.2054441;0;
-645.5135;0;0;0;20.31887;-22.6066;-646.809;-647.7981;0.0385619;0.5300744;0;
-486.507;0;0;0;22.17348;-24.39242;-490.6123;-491.1006;-0.3512809;0.4645744;0;
-192.7281;0;0;0;17.39578;-15.45943;-199.0781;-202.3771;-0.02609122;0.009336156;0;
-230.7652;0;0;0;16.575;-13.30044;-237.4837;-243.0282;0.2338044;-0.1855752;0;
146.902;0;0;0;19.10296;-10.80871;133.0688;129.0291;-0.1562346;0.2044153;0;
686.2332;0;0;0;19.01739;-7.247873;665.9796;662.0065;-0.221045;0.3341446;0;
481.9585;0;0;0;14.04081;-11.59436;465.286;460.0675;-0.1558555;0.008972094;0;
163.7589;0;0;0;12.68754;-11.85064;148.2901;146.3877;-0.09073158;0.3337998;0;
214.3813;0;0;0;8.254158;-6.748152;197.8661;199.089;0.169229;0.5283664;0;
-122.1025;0;0;0;4.963334;-6.406456;-132.2919;-132.5694;0.2989936;-0.2517726;0;
-627.2259;0;0;0;9.178882;-9.548217;-633.5319;-632.7473;0.1687585;-0.5763563;0;
-475.1093;0;0;0;8.030582;-11.21307;-485.4695;-482.3742;0.03865423;-0.5108098;0;
-202.6436;0;0;0;8.424655;-11.73767;-213.5556;-213.7118;0.3634521;-0.5752639;0;
-226.4279;0;0;0;8.817356;-13.13252;-233.9556;-238.1097;0.1032175;-0.1848819;0;
168.851;0;0;0;5.325871;-17.20516;154.2719;150.4968;-0.4166249;0.205108;0;
687.1707;0;0;0;6.392247;-18.05865;663.4858;659.902;0.1035324;0.2698692;0;
478.8971;0;0;0;-2.254364;-23.8679;458.1721;452.7177;0.4932325;0.07469603;0;
175.9429;0;0;0;-5.266209;-26.1882;158.9244;155.6619;0.2328675;-0.3801504;0;
216.1833;0;0;0;7.666178;-19.32987;199.869;200.7952;0.03773149;-0.3148011;0;
-130.5472;0;0;0;10.47151;-18.50665;-140.2859;-140.0478;-0.1572084;-0.2495175;0;
-635.2248;0;0;0;10.32727;-14.40222;-639.0817;-639.8433;-0.3519525;-0.3792014;0;
-483.6624;0;0;0;13.86687;-12.24429;-490.7638;-489.4631;-0.1566968;-0.05398368;0;
-199.0067;0;0;0;11.77683;-12.49992;-208.4748;-209.4243;0.10333;0.2059399;0;
-222.6073;0;0;0;12.43458;-11.68356;-230.1293;-235.0759;0.2331608;0.4656024;0;
162.9851;0;0;0;16.84272;-12.5426;148.7866;145.4067;0.1679592;0.2702325;0;
693.8045;0;0;0;16.08886;-12.66397;673.998;670.4965;0.2327578;0.07505896;0;
482.4008;0;0;0;22.50305;-18.94752;469.2358;463.9888;0.1025892;0.2698856;0;
163.9509;0;0;0;23.88696;-21.27276;154.2974;152.1791;0.0375188;0.204647;0;
218.3212;0;0;0;13.41411;-24.53355;207.0533;207.6232;0.3623178;-0.1203953;0;
-123.9137;0;0;0;11.45825;-28.39378;-130.7351;-130.1657;0.3619538;-0.1852417;0;
-636.5315;0;0;0;2.470779;-21.66708;-638.6608;-637.5298;0.4265574;-0.3799576;0;
-471.537;0;0;0;-2.689267;-21.57833;-477.7247;-475.7202;0.6210308;-0.1846738;0;
-192.2659;0;0;0;2.203555;-24.43691;-200.6962;-201.255;0.4255048;0.01041382;0;
-227.6173;0;0;0;0.928543;-23.87649;-233.1656;-236.9722;0.1002405;-0.3794007;0;
164.6019;0;0;0;2.33413;-30.34972;153.8743;151.071;-0.02979488;-0.3140521;0;
682.551;0;0;0;3.537233;-32.93144;666.7118;663.599;-0.02976495;0.01110014;0;
469.6594;0;0;0;5.07392;-26.46811;459.833;454.8493;0.2301343;0.2709584;0;
171.1498;0;0;0;7.212276;-25.7047;163.4572;161.6644;-0.02996628;0.4655881;0;
224.0761;0;0;0;7.87559;-28.69311;214.08;215.6622;-0.4197402;0.07531626;0;
-124.0367;0;0;0;9.206847;-27.25764;-127.651;-126.3202;0.1653876;-0.1846288;0;
-638.5908;0;0;0;9.599738;-30.8472;-636.7043;-634.3129;0.1652214;-0.1194759;0;
-481.9026;0;0;0;8.785809;-30.68224;-484.2658;-481.1272;-0.1597813;-0.05438855;0;
-202.9334;0;0;0;16.74856;-24.69018;-206.4811;-207.0313;0.1002486;-0.2492359;0;
-231.9023;0;0;0;20.68287;-23.19174;-232.448;-235.8087;0.03518055;-0.3139528;0;
163.8194;0;0;0;4.988325;-15.46552;157.4023;155.3568;0.1001125;0.07616669;0;
686.2671;0;0;0;3.443072;-11.83303;675.6085;672.0659;-0.02992273;-0.1837792;0;
472.1848;0;0;0;3.372263;-11.9551;467.2841;461.8084;-0.2247947;-0.2485619;0;
165.3643;0;0;0;-1.051755;-9.59881;162.3426;160.9329;-0.02966679;0.1414919;0;
212.5494;0;0;0;20.11542;-13.80897;208.3438;210.2463;-0.09460432;-0.0535523;0;
-136.0516;0;0;0;24.98533;-15.33558;-133.3814;-132.043;-0.2244439;-0.1184658;0;
-640.0989;0;0;0;15.04724;-12.90891;-631.9343;-629.5977;0.1006183;-0.1183468;0;
-477.5996;0;0;0;16.37129;-13.90068;-472.8164;-468.7331;0.1654845;-0.1831952;0;
-201.5083;0;0;0;11.66579;-18.10651;-196.5425;-195.3368;-0.09455112;0.07685824;0;
-229.2292;0;0;0;10.78341;-20.16467;-222.5818;-225.0629;-0.2243908;0.07678101;0;
163.2414;0;0;0;4.811705;-20.27837;162.4484;160.532;-0.2891327;-0.1181982;0;
677.8811;0;0;0;-0.149623;-20.79386;671.9041;669.4898;-0.6136789;-0.1830468;0;
461.7458;0;0;0;14.25149;-24.12211;460.7097;455.6742;-0.5480949;-0.1178955;0;
163.4315;0;0;0;16.78179;-24.96853;164.5204;161.5515;-0.02780543;0.2070597;0;
210.6185;0;0;0;8.593255;-20.45571;210.2695;211.1766;0.2320919;0.07691696;0;
-146.7261;0;0;0;9.723697;-18.49277;-141.5775;-140.7963;0.296826;-0.5728337;0;
-649.201;0;0;0;4.958504;-20.14864;-638.7477;-637.655;0.2315604;-0.6372255;0;
-482.3822;0;0;0;2.876441;-19.86046;-475.3127;-473.0342;-0.1584763;-0.05187915;0;
-206.5984;0;0;0;13.59082;-13.20944;-200.4731;-201.1328;-0.2232844;0.2080424;0;
-232.3153;0;0;0;15.85434;-12.32539;-224.8218;-228.6668;-0.02815803;-0.1819707;0;
167.9046;0;0;0;13.56123;-9.700672;166.9573;163.3036;-0.2879991;-0.2467552;0;
683.6641;0;0;0;15.48999;-8.016474;676.7832;671.8213;-0.2227424;0.07832942;0;
460.0891;0;0;0;12.92981;-17.92165;459.7744;453.4432;0.1672855;-0.1816187;0;
157.5912;0;0;0;12.71574;-19.97999;159.713;156.6365;0.03718271;-0.3763382;0;
212.4677;0;0;0;17.45839;-24.44777;211.4015;212.0762;-0.222724;-0.2460254;0;
-139.5065;0;0;0;18.71364;-27.90619;-134.4497;-133.8381;0.1673038;0.07905856;0;
-648.6104;0;0;0;18.42642;-22.98852;-637.6241;-636.1386;0.4270051;0.01401176;0;
-477.9816;0;0;0;19.21219;-22.42956;-471.8789;-468.5208;0.03677198;-0.3758064;0;
-202.8893;0;0;0;18.45595;-21.80418;-199.9163;-198.7479;-0.2881017;-0.4403961;0;
-246.7258;0;0;0;17.70047;-19.50485;-243.1935;-244.5876;-0.09291016;-0.3749862;0;
163.3161;0;0;0;19.35762;-18.48063;158.4741;158.5806;0.03711788;-0.3096421;0;
697.3834;0;0;0;18.26645;-17.32335;685.7372;686.0936;0.29695;-0.1793963;0;
462.2381;0;0;0;18.38181;-8.799354;456.2882;454.7076;0.4915536;-0.04928136;0;
151.9293;0;0;0;17.89483;-5.977229;148.4842;149.3415;0.1012556;0.2106375;0;
199.8775;0;0;0;8.968242;-5.502342;194.4993;198.5416;-0.0287808;0.08049121;0;
-158.3933;0;0;0;5.007115;-2.61667;-157.4568;-154.1057;0.03621546;-0.1794591;0;
-650.7366;0;0;0;5.671669;-12.3933;-644.4288;-640.0815;-0.02878827;0.2105253;0;
-473.9213;0;0;0;2.986653;-14.8591;-471.4929;-466.5877;-0.02875934;0.5351505;0;
-202.9561;0;0;0;-0.4989724;-10.35643;-201.2797;-199.378;-0.2885998;0.3397108;0;
-230.2383;0;0;0;-3.245137;-11.41775;-225.2528;-226.4764;-0.09340779;-0.1803693;0;
175.2268;0;0;0;-1.634286;-9.664725;173.7731;171.6761;0.1665554;-0.1152208;0;
682.1084;0;0;0;-1.632644;-8.918324;674.0969;671.8771;-0.418318;0.2746991;0;
455.7239;0;0;0;-7.257082;-10.31588;452.6555;450.2506;-0.3529303;0.07952105;0;
164.6621;0;0;0;-8.187795;-9.836636;163.0336;163.2547;0.167163;-0.2453956;0;
213.2222;0;0;0;-6.639327;-8.152301;210.3459;212.5658;0.1020277;-0.5050184;0;
-146.0616;0;0;0;-6.766377;-7.273331;-140.3768;-139.5959;0.1019252;-0.3096089;0;
-647.1004;0;0;0;-3.275978;-5.323518;-634.9871;-633.4573;0.2967248;-0.04942844;0;
-477.2852;0;0;0;-1.666072;-3.509752;-468.8697;-465.7173;0.166492;-0.3092481;0;
-202.631;0;0;0;-1.798119;-7.056199;-195.4108;-196.0097;-0.09354468;-0.3739048;0;
-232.7871;0;0;0;-0.6572367;-7.919887;-224.5122;-228.4214;-0.02848335;-0.2435944;0;
172.5557;0;0;0;0.7499433;-1.682638;173.2635;171.5447;-0.2233568;-0.1783823;0;
685.0621;0;0;0;1.888266;-0.7431861;679.1476;677.9302;-0.547969;0.08166636;0;
447.4928;0;0;0;2.757024;-0.9433881;445.7696;443.1168;-0.2225817;0.1465516;0;
149.4427;0;0;0;4.629288;0.7991161;149.9077;150.1935;-0.09242339;0.08143704;0;
201.7037;0;0;0;-1.672003;-6.435721;200.9189;202.3913;-0.3521999;0.4711593;0;
-166.5639;0;0;0;-4.416013;-8.37176;-160.7888;-161.067;-0.02700929;0.5356532;0;
-657.962;0;0;0;8.314449;-2.401989;-647.1327;-645.8489;0.5577239;0.01537621;0;
-472.2689;0;0;0;10.38318;-2.131644;-465.5734;-462.2294;0.4272288;-0.04960658;0;
-210.6756;0;0;0;5.215179;-2.330451;-205.5485;-204.6442;-0.09293918;0.08037797;0;
-240.1989;0;0;0;6.013246;-2.328109;-235.2645;-237.297;-0.2877478;0.0802972;0;
177.9573;0;0;0;2.189786;-0.6511964;175.0783;173.0477;-0.352426;0.01524916;0;
683.212;0;0;0;2.253959;0.01928724;675.5257;672.6851;-0.4170392;-0.0497335;0;
448.2057;0;0;0;0.5777311;-2.593066;445.5247;441.6875;-0.2866855;0.01528381;0;
163.6482;0;0;0;0.5098016;-2.724427;162.1568;162.009;-0.09149543;0.08023581;0;
208.711;0;0;0;3.322329;-6.003731;206.2841;209.3224;0.03853118;0.1451225;0;
-166.7476;0;0;0;2.649405;-7.940204;-160.7388;-159.5152;-0.1564096;-0.04992533;0;
-658.0205;0;0;0;15.97598;-4.984976;-647.4576;-646.36;-0.5460564;0.01509218;0;
-474.7011;0;0;0;19.24246;-5.582814;-469.4586;-467.3628;-0.3506057;0.08004437;0;
-208.6077;0;0;0;17.34711;-5.912118;-203.8702;-205.3996;0.1045179;-0.2448728;0;
-243.6303;0;0;0;19.87528;-6.107127;-238.2105;-243.0492;0.2993149;-0.1146921;0;
176.5284;0;0;0;6.592442;-5.900042;174.0717;171.4868;0.5588835;0.1452926;0;
705.4601;0;0;0;3.035844;-4.554454;698.5706;696.7379;0.6232893;0.2750813;0;
464.372;0;0;0;3.301214;-10.51124;462.7369;459.1569;0.4927284;0.2098375;0;
155.3106;0;0;0;0.6185792;-11.10352;154.8015;154.6608;0.2973312;-0.2451447;0;
205.1918;0;0;0;2.62769;-7.475409;203.184;206.4793;0.1021305;-0.1149637;0;
-161.9549;0;0;0;3.093564;-6.999017;-158.6509;-157.2954;0.2319625;0.08005383;0;
-654.6694;0;0;0;4.496975;-0.3607958;-648.8699;-648.0781;0.3616641;-0.1149286;0;
-466.1685;0;0;0;6.032698;2.251779;-465.5598;-462.8322;-0.09347066;0.08008888;0;
-195.7733;0;0;0;9.912378;5.330731;-196.7269;-196.1884;-0.6131155;0.1449757;0;
-217.3781;0;0;0;10.70573;8.875348;-217.6436;-220.2916;-0.5475321;0.01489537;0;
200.4429;0;0;0;19.53623;3.306969;192.8689;190.9107;-0.02724318;-0.05008694;0;
696.4921;0;0;0;22.73178;2.7008;682.6788;680.7225;0.3625883;-0.115004;0;
454.601;0;0;0;14.20247;7.051855;445.1119;440.9712;0.1673219;-0.04992105;0;
171.9735;0;0;0;14.45662;7.379683;163.431;161.7932;-0.2876176;0.01509645;0;
216.903;0;0;0;3.055239;5.831783;205.8079;207.9824;-0.1573939;0.339918;0;
-165.5603;0;0;0;-2.039022;5.959889;-169.7727;-169.0372;-0.02730111;0.01473973;0;
-651.3372;0;0;0;5.331394;5.418037;-651.4849;-650.063;0.102661;-0.3750791;0;
-462.3399;0;0;0;3.517375;6.01544;-469.0467;-465.0025;0.2974599;0.1450365;0;
-199.2573;0;0;0;7.667027;4.267839;-208.3937;-206.9147;-0.2225778;0.07992342;0;
-226.0435;0;0;0;8.998494;3.392772;-233.5465;-235.1925;-0.09241942;0.01487576;0;
189.8497;0;0;0;8.989452;11.62802;175.6701;173.9633;0.1675428;0.4046649;0;
701.6516;0;0;0;11.86081;13.69281;681.4892;678.2224;-0.4173316;-0.1154805;0;
460.5674;0;0;0;4.213079;12.80827;445.6726;441.2222;-0.2220102;-0.3752338;0;
163.5661;0;0;0;3.539261;14.46997;150.8728;150.2374;0.1030495;0.2748167;0;
218.749;0;0;0;11.37259;11.8431;203.4447;205.621;-0.02698869;0.1446058;0;
-154.7832;0;0;0;14.37527;12.2331;-162.201;-161.776;-0.09192891;-0.2453435;0;
-648.1921;0;0;0;12.0163;10.54635;-647.6689;-647.1819;-0.1568039;0.1447071;0;
-457.1365;0;0;0;12.94125;9.798945;-461.7988;-458.9384;0.0382557;0.4693983;0;
-190.9982;0;0;0;23.91394;13.00416;-199.3414;-198.1706;0.03821726;0.338992;0;
-215.169;0;0;0;27.64095;12.99109;-223.8787;-226.2697;-0.1567232;0.07878204;0;
203.5868;0;0;0;28.14904;16.59499;186.0153;184.8761;0.03833633;0.2086376;0;
698.9456;0;0;0;30.33059;17.65005;675.7072;674.694;-0.09163687;0.07849324;0;
455.9901;0;0;0;29.96532;17.43136;437.0853;434.5114;0.03838989;-0.1164877;0;
172.2993;0;0;0;31.07429;18.55256;154.6629;155.5898;0.168286;0.01356406;0;
214.7298;0;0;0;22.73669;11.36686;196.8612;200.4734;0.2330842;-0.1163843;0;
-160.9848;0;0;0;18.62801;8.341332;-171.2142;-168.6051;0.4277521;-0.1812347;0;
-639.395;0;0;0;25.24072;14.16034;-644.6791;-641.1356;0.2324202;0.2737189;0;
-449.9099;0;0;0;23.94256;14.2131;-460.8734;-456.209;0.102252;0.5982805;0;
-191.525;0;0;0;19.76629;7.768578;-204.6639;-203.8773;-0.09275275;0.4677447;0;
-227.3769;0;0;0;18.07149;5.952354;-238.3787;-241.4659;-0.1576269;0.2723727;0;
193.765;0;0;0;15.70881;5.745425;174.6534;172.8811;0.03743351;0.1421643;0;
709.1861;0;0;0;14.42023;3.462232;684.0967;681.4517;-0.1575061;0.01208677;0;
463.7215;0;0;0;11.05684;8.281403;443.7798;438.7011;-0.02741318;-0.1178601;0;
166.7796;0;0;0;9.840279;9.411791;146.4206;143.7208;-0.09235298;-0.2476763;0;
218.0862;0;0;0;6.011998;3.039078;195.4987;196.175;-0.5470316;0.01244192;0;
-155.3204;0;0;0;1.92012;2.969041;-171.6382;-169.9007;-0.02674318;0.2722988;0;
-647.7292;0;0;0;17.05609;-0.5839159;-661.5319;-658.1095;0.03825103;0.1420905;0;
-453.8006;0;0;0;20.99107;-2.726783;-471.5874;-467.5437;-0.02675474;-0.182889;0;
-183.6676;0;0;0;6.636359;5.313787;-200.0623;-200.5829;0.1032068;-0.1827052;0;
-209.5325;0;0;0;6.36127;6.447035;-223.9117;-228.2423;-0.1567663;-0.3124563;0;
212.9658;0;0;0;1.331037;6.775472;191.6671;189.2773;-0.09164138;-0.5720117;0;
704.692;0;0;0;-2.621439;8.175305;679.854;677.7789;0.03838538;-0.3115676;0;
455.5463;0;0;0;9.236564;5.82281;434.9186;431.284;0.2332488;-0.1163525;0;
177.728;0;0;0;10.43273;6.084769;155.8092;155.3016;0.3629492;0.07866643;0;
217.0296;0;0;0;6.872275;3.935323;192.3842;195.1879;-0.02721959;0.1435547;0;
-172.0555;0;0;0;6.731648;2.993608;-190.117;-188.0656;0.0377751;-0.1814262;0;
-644.645;0;0;0;7.528191;4.263276;-657.0661;-654.5171;0.2326392;-0.3111786;0;
-443.2232;0;0;0;7.990118;3.924078;-457.8182;-453.3352;0.03750338;-0.05099658;0;
-189.9049;0;0;0;5.436493;4.522981;-204.4853;-202.0683;0.1674004;0.07898936;0;
-216.5756;0;0;0;7.507135;4.451453;-230.4542;-230.9756;0.4920689;-0.1809594;0;
211.8642;0;0;0;-3.618842;5.317759;190.1911;189.6077;0.2317051;-0.1158102;0;
707.9019;0;0;0;-6.897736;5.044484;679.1291;677.2969;-0.1583318;-0.05072651;0;
459.0029;0;0;0;9.988406;8.120507;433.8821;430.9898;-0.22314;-0.05067554;0;
171.9357;0;0;0;12.05545;10.32278;148.6518;149.573;-0.3528505;0.07931007;0;
219.7388;0;0;0;20.75087;2.810446;194.6043;198.2107;-0.352496;-0.3105737;0;
-158.417;0;0;0;26.22238;2.673656;-176.5298;-174.1764;-0.02730506;-0.7000657;0;
-643.2015;0;0;0;19.36353;2.269072;-655.0493;-651.6988;0.2325917;-0.6343949;0;
-443.093;0;0;0;21.08636;0.8602726;-458.6145;-453.6432;0.3622927;-0.3089207;0;
-178.0308;0;0;0;13.42839;10.30376;-195.3483;-194.6298;0.4918634;-0.3086103;0;
-207.3996;0;0;0;10.13334;11.49897;-224.5123;-227.73;0.2314998;-0.3732676;0;
213.9097;0;0;0;14.94593;17.11386;189.6303;187.2279;-0.1585369;0.2118136;0;
707.2592;0;0;0;13.79184;21.11564;678.8812;675.6066;-0.09341025;0.4714701;0;
452.8635;0;0;0;14.51491;9.640591;430.0738;424.9909;-0.02834904;0.211127;0;
172.5491;0;0;0;15.37098;8.224262;150.5319;148.6401;-0.1582552;0.01601282;0;
230.7839;0;0;0;12.20771;8.149015;206.3526;208.5231;0.1017731;-0.113938;0;
-159.8143;0;0;0;11.59223;6.265305;-177.1621;-175.1812;0.2316056;-0.04885613;0;
-653.7178;0;0;0;14.39362;6.861856;-665.7385;-663.2598;0.1664055;0.08112766;0;
-454.7232;0;0;0;12.77157;5.448442;-469.7927;-465.0051;-0.1585984;0.01607879;0;
-195.5838;0;0;0;18.78793;9.260872;-210.7006;-208.729;-0.2883737;0.2109647;0;
-215.3772;0;0;0;19.23756;10.12234;-229.9166;-232.0699;0.1017201;0.080818;0;
217.7466;0;0;0;13.72588;7.700788;194.7885;193.3246;0.03665052;-0.4390019;0;
700.9723;0;0;0;15.05126;7.425119;673.8519;671.3275;-0.1582883;-0.5035282;0;
441.5854;0;0;0;-6.598499;9.092232;422.3009;417.2178;-0.0281946;0.08168386;0;
167.5918;0;0;0;-14.29503;10.02086;150.8253;148.8707;-0.02816626;0.4714058;0;
218.0854;0;0;0;0.7235122;2.307872;197.5877;199.1958;0.1667641;0.1460955;0;
-169.2516;0;0;0;-0.8174561;-0.7755395;-185.5434;-184.5616;0.7513025;0.08098131;0;
-645.4671;0;0;0;6.618104;5.655479;-658.4316;-656.5138;0.4257109;0.2108346;0;
-439.2969;0;0;0;10.49622;4.979967;-457.3708;-453.8932;-0.4192922;-0.2441486;0;
-178.2365;0;0;0;0.1705467;5.108929;-195.0428;-195.0669;-0.3539036;-0.1139686;0;
-204.2942;0;0;0;-1.638286;6.443332;-217.1481;-220.608;0.3610928;0.4058847;0;
219.5731;0;0;0;4.592651;-1.868781;199.4857;197.2787;0.4256973;0.3405095;0;
703.1094;0;0;0;4.856456;-3.005614;677.9197;674.9653;0.4902369;0.3401673;0;
444.8448;0;0;0;-2.851583;-2.667679;424.4906;420.1648;0.5547116;0.2748582;0;
168.1617;0;0;0;-3.920445;-4.540399;149.3271;148.379;0.03441552;0.01471262;0;
217.218;0;0;0;-10.81538;4.908513;197.7152;199.3293;-0.2904558;0.1446325;0;
-173.3666;0;0;0;-13.95332;6.912947;-185.6034;-184.9904;0.03467279;0.2744219;0;
-647.2041;0;0;0;-7.24052;4.963618;-655.2432;-653.1317;0.1645726;0.2091788;0;
-436.7218;0;0;0;-7.233245;6.36515;-450.4999;-447.0162;0.09943993;0.07903394;0;
-184.2846;0;0;0;-1.667248;2.674815;-200.2353;-199.4412;0.2292747;0.2088892;0;
-210.5861;0;0;0;0.947372;2.203247;-224.8342;-226.0399;0.164077;0.4035814;0;
223.9697;0;0;0;4.161601;-1.081009;204.3012;203.8463;-0.1609246;-0.311465;0;
705.9397;0;0;0;9.247634;-3.826223;682.1681;680.7142;-0.4206323;-0.3761193;0;
442.6749;0;0;0;-2.148512;1.6701;424.6742;420.848;-0.4202096;0.4038667;0;
165.9315;0;0;0;-3.01701;1.735405;150.3852;148.4993;0.09995135;0.2085589;0;
211.1169;0;0;0;4.689181;-0.7445851;193.3374;194.5144;0.2297856;-0.2464221;0;
-176.5255;0;0;0;4.684469;-0.07400762;-189.7894;-188.9884;-0.03031466;-0.1162398;0;
-641.8016;0;0;0;13.92316;-3.289114;-652.3661;-651.3785;0.1646178;0.4685831;0;
-434.3857;0;0;0;17.25808;-3.017877;-450.5617;-448.1383;0.1644524;0.792949;0;
-181.8259;0;0;0;14.4277;-4.153555;-198.7353;-198.6257;-0.03061485;0.2074461;0;
-205.5687;0;0;0;16.35558;-5.823833;-220.3372;-223.7884;0.09935059;-0.2475337;0;
225.3588;0;0;0;11.98489;6.037632;203.2964;200.4733;-0.03068392;0.1425191;0;
712.0127;0;0;0;11.23591;8.710883;684.9749;682.342;0.03431426;0.4672126;0;
451.8651;0;0;0;11.62677;6.089796;430.7891;426.7846;0.2291818;-0.1829303;0;
171.9891;0;0;0;10.34229;7.959199;154.4949;152.7433;0.1639842;-0.4426159;0;
223.7276;0;0;0;14.48508;2.257774;206.3135;206.4377;0.2287868;-0.05236708;0;
-163.1153;0;0;0;15.34118;1.719642;-175.2646;-175.6403;0.2935242;-0.05231446;0;
-643.9597;0;0;0;13.31603;-0.6263665;-652.7859;-650.6624;0.0333599;0.0776728;0;
-437.9783;0;0;0;13.03521;-2.568242;-450.7312;-446.7983;-0.03164096;0.07759475;0;
-182.1666;0;0;0;16.57209;3.998544;-196.0311;-196.1001;0.09832551;0.2074515;0;
-210.4068;0;0;0;17.8946;5.602117;-223.945;-227.4497;0.2281614;0.2722104;0;
234.1438;0;0;0;13.58972;5.529504;212.8106;210.184;-0.09690456;-0.05289988;0;
723.9122;0;0;0;13.30862;7.265383;697.1032;694.2294;-0.1617745;0.27199;0;
449.9472;0;0;0;12.69203;9.535502;427.9752;424.4795;0.09825739;0.5315861;0;
174.6957;0;0;0;11.94235;11.13339;154.1826;154.0637;-0.03177603;0.2062152;0;
221.2467;0;0;0;15.07915;12.19393;199.6297;201.51;0.03322324;0.2709754;0;
-178.9621;0;0;0;15.93466;12.71754;-191.9991;-191.8074;0.4879613;0.0108337;0;
-641.4871;0;0;0;16.25344;13.97744;-648.5766;-648.2601;0.2925689;-0.1840792;0;
-426.7002;0;0;0;17.17511;14.03038;-438.8425;-437.6518;-0.2274638;0.2059098;0;
-185.7674;0;0;0;15.88506;12.3417;-199.709;-201.5805;-0.2272352;-0.1841011;0;
-203.0094;0;0;0;14.79737;12.3293;-216.6872;-221.6802;-0.03210488;-0.3788182;0;
247.2808;0;0;0;20.54328;4.614121;226.6828;222.0696;0.1628294;0.2062685;0;
719.2949;0;0;0;21.8618;0.7244753;694.907;688.7993;0.09769845;0.1410939;0;
449.5199;0;0;0;14.4051;8.560628;430.0915;422.5531;-0.09730174;0.07598482;0;
181.3278;0;0;0;13.25155;8.41806;163.7305;160.51;-0.2271387;0.2058432;0;
224.7487;0;0;0;8.683883;7.337875;206.1696;205.2012;0.03295894;0.07570164;0;
-173.0273;0;0;0;4.856764;9.005075;-185.3409;-187.9325;0.09789316;-0.2492111;0;
-647.9271;0;0;0;10.21052;1.761992;-655.3558;-657.6324;-0.3569766;-0.1190261;0;
-439.6305;0;0;0;8.190527;1.291341;-450.1751;-452.3245;-0.3566179;0.2059303;0;
-184.9415;0;0;0;9.254024;4.706173;-196.2876;-201.4959;0.1634792;-0.1191134;0;
-210.3678;0;0;0;8.977282;5.237308;-221.3277;-229.0295;0.09834756;-0.2489284;0;
233.1208;0;0;0;1.332451;11.26027;214.6132;207.9186;-0.09665328;-0.05377622;0;
721.2661;0;0;0;0.259385;13.32542;697.7171;691.2167;-0.09655616;-0.3135916;0;
451.4266;0;0;0;-9.386418;19.47434;432.0867;425.2805;-0.1614265;-0.1833418;0;
180.8587;0;0;0;-13.3291;24.00949;160.164;157.0503;0.03363774;0.1416792;0;
224.0927;0;0;0;-8.023447;18.29194;200.1704;199.6834;-0.09633075;-0.05336523;0;
-181.7411;0;0;0;-9.154461;19.88115;-197.8308;-199.5042;-0.291136;-0.118279;0;
-643.8261;0;0;0;-3.519184;17.24884;-653.7778;-654.0126;-0.2258761;0.07674194;0;
-429.5366;0;0;0;-1.840708;15.02119;-442.7266;-441.5244;-0.2906165;-0.05326987;0;
-192.9112;0;0;0;0.4383169;26.79473;-204.9011;-207.5107;0.2294143;-0.183151;0;
-222.265;0;0;0;3.385613;29.04522;-231.4942;-237.0372;0.09924906;-0.182967;0;
225.8582;0;0;0;-2.914428;24.39434;209.3919;205.2287;-0.4205894;0.2070209;0;
718.3835;0;0;0;-2.978848;25.30759;696.8738;691.9653;0.294474;0.4017149;0;
452.9823;0;0;0;-4.247677;19.85666;435.1798;428.5895;0.4890801;0.01150721;0;
179.6643;0;0;0;-5.650905;17.09041;160.8802;156.1081;0.358654;0.2063977;0;
228.4591;0;0;0;-2.764838;23.50348;206.7579;204.2395;0.4882283;0.531027;0;
-173.9433;0;0;0;-2.963131;23.61383;-190.0005;-191.8917;0.2278684;-0.05421266;0;
-646.0311;0;0;0;-0.07976561;20.17409;-657.0123;-657.7772;0.03273737;-0.1191255;0;
-430.7399;0;0;0;1.527905;20.28779;-444.8959;-445.0353;-0.03226286;0.1408636;0;
-182.6815;0;0;0;-0.2822915;15.10984;-198.0102;-200.3984;0.2276389;0.01078731;0;
-206.2985;0;0;0;0.7233462;12.81724;-218.8632;-224.4348;0.3573449;-0.2490929;0;
237.998;0;0;0;-2.627259;19.70348;220.3861;214.6951;-0.03281824;-0.4437446;0;
715.0815;0;0;0;-5.37031;20.82227;691.99;686.7419;0.1621168;-0.5082661;0;
439.0014;0;0;0;4.950214;18.65801;420.3059;415.188;0.3568559;-0.3778207;0;
167.0717;0;0;0;6.084316;19.91194;149.7693;148.5297;0.09662796;-0.182539;0;
211.6938;0;0;0;-1.423886;17.21262;192.5972;193.4828;0.2264656;-0.1823556;0;
-191.9411;0;0;0;-1.891946;16.25756;-203.5223;-204.3867;0.1612706;-0.1172051;0;
-647.0818;0;0;0;-9.324784;22.1356;-653.9662;-652.7684;0.09614126;-0.05211994;0;
-426.9795;0;0;0;-11.45887;22.44827;-438.792;-436.4084;0.2259793;-0.4418716;0;
-193.5426;0;0;0;-13.45709;23.02856;-206.4052;-208.3968;0.1607849;-0.3764603;0;
-206.8413;0;0;0;-16.05553;23.74224;-219.0038;-223.8045;-0.09924599;-0.1162127;0;
248.7626;0;0;0;-7.331863;17.15417;229.1161;224.7575;-0.2290809;0.01383881;0;
706.8448;0;0;0;-6.520213;15.26142;683.095;677.6789;-0.3587855;0.2736943;0;
431.4601;0;0;0;0.5189363;14.91129;412.6693;406.5089;-0.09855557;0.1434846;0;
172.2816;0;0;0;5.207464;13.82458;153.822;151.5409;-0.0334892;-0.05156162;0;
212.5882;0;0;0;-3.10414;10.19361;191.336;192.5554;-0.2283576;0.01345753;0;
-189.9857;0;0;0;-1.49343;7.906069;-204.0951;-204.4386;-0.1631608;0.1433787;0;
-648.4393;0;0;0;-6.247352;13.92647;-655.413;-656.5059;-0.2929315;0.1432346;0;
-425.0871;0;0;0;-8.250807;13.97946;-436.1144;-435.8942;-0.4875392;0.01315601;0;
-174.9105;0;0;0;3.345409;16.04176;-187.4259;-189.0801;-0.09724528;0.1430775;0;
-204.9696;0;0;0;6.356157;17.90116;-214.4115;-219;0.03278712;-0.05196831;0;
237.5141;0;0;0;5.948605;9.577536;221.46;217.5633;-0.2271152;-0.1168834;0;
716.1597;0;0;0;9.09046;7.424458;694.2497;689.2949;-0.1619196;0.3380054;0;
435.8306;0;0;0;10.4205;10.23016;417.7533;410.5546;0.03314508;0.07779642;0;
162.9671;0;0;0;12.55348;9.684138;144.8455;141.0273;-0.03185556;-0.4420205;0;
207.406;0;0;0;18.03322;5.186551;188.303;187.862;0.03314378;-0.376609;0;
-194.7254;0;0;0;20.49433;3.171974;-205.7507;-208.1903;0.03311048;-0.05139389;0;
-645.1782;0;0;0;20.40638;6.383845;-650.8202;-653.5696;-0.4866615;-0.3112116;0;
-421.8294;0;0;0;20.98909;5.975533;-432.2133;-433.4607;-0.6161072;-0.700703;0;
-187.5231;0;0;0;21.23545;6.773324;-199.6457;-203.578;-0.3556188;-0.4401295;0;
-210.5105;0;0;0;20.20973;7.838245;-221.0592;-227.2365;0.09950995;-0.2447852;0;
242.7858;0;0;0;23.13618;4.481345;224.5016;219.8298;0.03444262;-0.374474;0;
712.1807;0;0;0;25.18904;4.878617;688.5426;683.4382;-0.09552667;-0.1142283;0;
434.6668;0;0;0;7.748657;3.936076;417.6116;411.4504;0.034504;-0.04914621;0;
172.2992;0;0;0;1.578929;3.731172;157.9473;155.5404;-0.03049801;-0.1790315;0;
210.8566;0;0;0;16.17938;7.545329;195.5196;195.9887;-0.09543471;-0.1788516;0;
-197.6501;0;0;0;15.49354;7.872662;-206.225;-207.6929;-0.09533881;-0.3735739;0;
-646.101;0;0;0;18.35738;13.96008;-650.6693;-652.3856;-0.2251777;-0.1782965;0;
-418.7532;0;0;0;21.88891;16.69223;-428.3769;-428.4673;-0.3548861;0.01678464;0;
-178.0157;0;0;0;6.327849;10.84806;-190.4408;-192.5926;-0.2895622;-0.2431016;0;
-200.513;0;0;0;3.173659;10.23431;-213.4878;-218.0737;-0.02940187;-0.372792;0;
250.2121;0;0;0;10.06935;11.49671;230.6286;226.7345;-0.159307;-0.04758072;0;
717.4756;0;0;0;9.254945;11.01627;695.2257;689.6488;-0.4190163;0.3422711;0;
429.4616;0;0;0;10.31737;9.129806;412.7938;405.6608;-0.02879123;0.01709052;0;
157.9164;0;0;0;9.972213;8.718734;141.3902;137.8875;0.03620504;-0.047894;0;
202.2978;0;0;0;11.50243;7.169366;183.6018;183.0387;-0.288668;0.3419582;0;
-198.7664;0;0;0;11.96037;6.693282;-212.0714;-213.3211;-0.3533453;-0.1131568;0;
-648.653;0;0;0;7.996234;8.36113;-657.072;-657.8831;-0.09312093;-0.2429778;0;
-423.614;0;0;0;7.117544;7.816864;-433.6487;-434.0843;0.361744;0.3419724;0;
-189.9306;0;0;0;5.837594;14.97594;-199.7054;-202.8891;0.4263479;0.2116941;0;
-206.3564;0;0;0;5.96545;17.30529;-215.3717;-220.4263;0.2959848;0.01657939;0;
251.4959;0;0;0;1.136685;12.80017;234.6811;230.3812;-0.0291493;0.2114648;0;
703.3284;0;0;0;-0.2709766;13.18921;682.2202;675.8632;-0.4189241;-0.04861709;0;
421.7629;0;0;0;6.96394;9.625981;406.0482;398.5731;-0.09366641;0.0163991;0;
169.4657;0;0;0;8.429835;7.874753;153.7668;150.8594;0.1013297;0.1463173;0;
208.5882;0;0;0;13.04307;9.876206;191.5307;190.8752;-0.1586415;-0.1786664;0;
-200.8532;0;0;0;15.77663;9.53149;-209.4603;-211.552;-0.5482861;-0.1135196;0;
-651.3623;0;0;0;17.43571;7.378459;-654.4011;-654.7415;-0.8725719;0.01652919;0;
-423.7594;0;0;0;20.03016;6.500267;-431.5427;-431.2581;-0.4169237;0.1464473;0;
-183.4542;0;0;0;15.52206;8.771155;-192.479;-196.6925;0.1032339;0.2762348;0;
-205.0089;0;0;0;15.37274;8.427427;-212.8378;-218.9211;0.03816285;0.1460226;0;
245.4083;0;0;0;15.62474;10.09341;230.091;225.3257;-0.1567775;-0.1789609;0;
707.8041;0;0;0;15.47531;10.28422;687.3799;681.0576;-0.09165265;0.1460557;0;
426.1092;0;0;0;15.05762;7.058825;411.2651;404.1371;0.1683088;0.4707456;0;
163.6877;0;0;0;14.7077;6.113972;151.2324;148.5468;0.1031724;0.3403379;0;
203.4407;0;0;0;19.85048;3.160701;189.9984;190.5639;-0.02686599;0.1450939;0;
-207.1824;0;0;0;21.37176;1.88485;-213.115;-213.4871;0.1030957;-0.2448559;0;
-660.7462;0;0;0;22.7568;-2.068915;-661.3005;-661.8596;0.1679594;-0.1146752;0;
-430.5726;0;0;0;24.4079;-4.411239;-435.9365;-435.9953;0.1028233;0.2102767;0;
-187.6993;0;0;0;22.37462;1.152655;-194.1198;-197.177;0.10272;-0.1147713;0;
-214.6846;0;0;0;21.54785;2.223223;-220.4114;-226.0892;0.1675841;0.2101808;0;
240.3025;0;0;0;22.59793;0.1445187;225.8359;220.9758;0.03748107;0.0800349;0;
712.5735;0;0;0;21.1687;0.6802369;692.4993;686.5822;-0.3523606;-0.3098496;0;
426.4385;0;0;0;18.46811;3.760768;411.257;404.4088;-0.09213722;0.4051025;0;
167.8273;0;0;0;16.43983;4.96256;153.1608;150.8172;0.3627267;0.2747608;0;
208.9504;0;0;0;12.00268;4.488693;193.0492;193.5815;-0.1573765;-0.3751887;0;
-208.8621;0;0;0;10.2493;4.685132;-217.2511;-218.0936;-0.287153;0.07995968;0;
-649.9929;0;0;0;4.344508;6.622929;-653.251;-653.0932;-0.09196245;-0.05005537;0;
-415.3949;0;0;0;1.594453;7.754984;-422.8976;-421.6155;-0.4167067;-0.3748418;0;
-188.7162;0;0;0;6.683065;2.254714;-196.961;-199.116;-0.416288;-0.1145958;0;
-206.4551;0;0;0;7.144865;0.9797724;-214.2543;-218.9684;-0.02606571;-0.1144806;0;
257.1444;0;0;0;11.15715;4.461778;241.5444;238.2719;0.2338299;0.08053645;0;
709.3461;0;0;0;14.16005;4.79221;689.7638;685.4326;0.1036602;0.2103902;0;
416.2803;0;0;0;13.74368;4.117687;401.2779;394.8896;-0.02637863;0.01527677;0;
160.3655;0;0;0;15.7396;3.778635;146.2527;143.2441;-0.2212541;0.3400981;0;
207.9303;0;0;0;18.67055;8.798436;193.207;192.5753;-0.6108359;0.5346584;0;
-202.5099;0;0;0;20.72789;10.93293;-211.7211;-213.4142;-0.2204181;-0.1155522;0;
-652.5176;0;0;0;19.16682;7.037054;-659.3458;-659.4755;-0.0902619;0.01449856;0;
-416.3553;0;0;0;19.08119;8.10171;-428.9862;-427.4291;-0.4150079;0.6641575;0;
-178.8062;0;0;0;22.54464;5.079337;-192.2365;-193.492;-0.2846562;0.078784;0;
-202.9268;0;0;0;23.39264;3.399782;-214.3446;-218.9722;0.04046651;-0.3110992;0;
256.4838;0;0;0;21.76155;13.04166;238.3308;233.8953;-0.0245415;-0.3107866;0;
714.5582;0;0;0;22.54397;15.03793;694.0497;688.3068;-0.02451684;-0.245507;0;
420.9874;0;0;0;18.16706;11.60681;407.2461;400.5719;0.3003445;-0.1153256;0;
164.1933;0;0;0;16.00535;11.93006;151.2778;149.7328;-0.2846633;-0.3750791;0;
203.446;0;0;0;24.29466;13.3917;188.1073;190.187;-0.3493447;-0.4396696;0;
-214.8608;0;0;0;25.6104;14.58381;-225.1866;-224.3584;0.4955818;-0.04942375;0;
-647.7397;0;0;0;23.84335;10.01444;-655.2441;-653.3547;0.1052798;0.01559325;0;
-409.8956;0;0;0;25.49336;9.602481;-421.5778;-418.8157;-0.08972803;-0.1143571;0;
-192.1554;0;0;0;19.64059;9.793781;-203.4511;-204.5649;0.3001662;0.2755619;0;
-205.9553;0;0;0;18.01327;8.444404;-214.8034;-218.7271;0.4297993;0.1453503;0;
264.3278;0;0;0;21.81356;19.6217;248.867;246.4464;0.2994327;0.01526955;0;
702.9041;0;0;0;19.98298;23.75493;684.0231;681.1677;-0.09067221;0.2751236;0;
413.5929;0;0;0;26.45964;16.89892;400.5404;396.6884;0.1692883;0.07994512;0;
171.6113;0;0;0;28.04064;18.28858;160.8208;160.5958;0.2340855;-0.1150372;0;
200.4243;0;0;0;15.62123;18.40417;190.3317;193.2929;0.03894827;0.2099151;0;
-220.5031;0;0;0;11.38598;17.58188;-223.2767;-222.3175;0.5586479;0.2746715;0;
-660.2479;0;0;0;12.91478;24.32937;-659.2706;-658.6248;0.5580865;-0.1154086;0;
-420.7671;0;0;0;9.351829;24.90765;-426.2249;-423.7682;-0.2870497;-0.5050966;0;
-182.1515;0;0;0;7.131629;24.34688;-189.7903;-190.5844;-0.3517286;-0.1147851;0;
-215.0768;0;0;0;6.120085;24.25544;-221.2087;-225.2503;0.1683636;0.210167;0;
246.22;0;0;0;-7.28265;19.54226;232.6605;229.6225;-0.09167498;-0.309783;0;
719.7345;0;0;0;-12.56662;18.1161;701.5659;698.0936;-0.1565502;-0.569341;0;
422.3479;0;0;0;-3.243242;11.80163;409.445;405.6638;0.2983785;-0.2439323;0;
163.8033;0;0;0;-3.775847;8.708674;151.9753;152.071;-0.02675803;-0.1137525;0;
214.738;0;0;0;-2.432882;11.11119;200.798;203.9545;-0.09169848;-0.04867083;0;
-207.2033;0;0;0;-1.023918;11.23399;-215.4447;-212.5411;0.2332304;-0.1785566;0;
-656.7065;0;0;0;-4.773933;9.347178;-660.192;-656.0421;-0.02687335;-0.5681812;0;
-418.9783;0;0;0;-5.103929;9.538735;-425.1465;-419.8138;0.1680557;-0.2427736;0;
-191.2966;0;0;0;-4.093447;16.56224;-196.8338;-194.6924;0.3627888;0.2772091;0;
-207.9709;0;0;0;-3.487097;19.09095;-212.8779;-213.5497;-0.09234709;-0.2428082;0;
264.1884;0;0;0;-10.04768;23.49252;251.3528;250.6192;-0.2871563;-0.3075316;0;
711.5729;0;0;0;-12.24741;27.48776;694.3149;691.2708;-0.2219004;0.4723855;0;
415.7562;0;0;0;-3.393842;21.49879;402.8259;398.0982;-0.0917428;0.3419762;0;
176.8958;0;0;0;-0.1752512;20.33847;163.8536;163.316;-0.02668327;-0.1131388;0;
211.5756;0;0;0;-6.940229;24.33689;197.0472;199.696;-0.2215585;-0.4378619;0;
-223.4185;0;0;0;-6.0626;22.16911;-230.0612;-228.8518;0.1035009;-0.3074872;0;
-659.787;0;0;0;-1.233737;22.81666;-661.2382;-659.7177;0.2333315;0.2775278;0;
-417.8079;0;0;0;-1.56729;21.11916;-424.38;-422.3613;0.1031624;-0.04758774;0;
-192.751;0;0;0;14.0407;12.59135;-200.5659;-202.3598;0.1030587;-0.5023113;0;
-211.985;0;0;0;19.98746;10.30128;-217.6682;-221.5842;-0.09194684;-0.1120025;0;
259.4911;0;0;0;7.442423;-2.770378;246.1925;243.9671;-0.2867565;0.2129467;0;
714.8138;0;0;0;8.037182;-8.528005;696.2188;691.7468;-0.3514357;0.1477654;0;
412.8095;0;0;0;4.546481;-1.553332;399.9178;393.5137;-0.1561805;0.342519;0;
160.1465;0;0;0;2.33111;-2.958413;147.1428;145.6802;-0.2859583;0.3421748;0;
205.5252;0;0;0;3.400495;2.001174;189.786;191.5107;-0.3506383;-0.1779078;0;
-221.4668;0;0;0;-0.2866174;3.539771;-229.3192;-229.0954;0.1044854;-0.177729;0;
-661.3979;0;0;0;11.03318;7.555068;-664.245;-663.7091;0.1693478;-0.1125831;0;
-415.1069;0;0;0;12.36224;11.09745;-422.9485;-421.1013;0.1042103;-0.307372;0;
-194.2381;0;0;0;4.981448;4.053214;-203.2588;-203.9122;0.03913822;-0.5019652;0;
-209.785;0;0;0;5.111141;4.183107;-217.9845;-221.3859;0.1040662;-0.5014608;0;
263.8753;0;0;0;-7.955789;3.241264;248.8125;247.1637;0.4937657;0.01878182;0;
701.8274;0;0;0;-13.03801;2.568178;684.2809;680.9471;0.4932696;-0.3060738;0;
409.8311;0;0;0;-9.408563;2.230683;398.6741;392.2827;0.03800255;-0.5006682;0;
179.285;0;0;0;-12.01108;0.6208513;168.4516;165.8771;-0.221905;0.1495083;0;
215.9613;0;0;0;-9.453413;9.260781;203.6395;204.0661;-0.02678001;0.01942334;0;
-224.9716;0;0;0;-8.573257;11.32795;-230.0347;-229.8584;0.1681489;-0.1754982;0;
-668.2102;0;0;0;-13.25369;9.441043;-669.4576;-667.6572;-0.0918894;0.08454752;0;
-420.4755;0;0;0;-14.51317;11.64199;-426.7816;-423.8586;-0.2217318;-0.2403742;0;
-189.2939;0;0;0;-5.255189;6.137817;-196.2184;-195.8596;0.03836041;-0.1751653;0;
-202.2846;0;0;0;-1.90003;5.997684;-208.3276;-210.2804;0.1682566;-0.0450546;0;
270.9309;0;0;0;-10.27087;6.795453;257.5227;256.9461;0.0381528;0.01995802;0;
716.6844;0;0;0;-9.792031;5.649914;699.9164;698.3409;-0.2217549;0.1498727;0;
411.9297;0;0;0;-10.85392;16.29428;400.5508;396.9778;-0.2864994;-0.1101473;0;
163.4529;0;0;0;-12.51795;20.09581;153.2099;154.5756;-0.4161462;0.2148001;0;
208.8283;0;0;0;-2.72611;15.78883;198.2208;202.9584;-0.4806954;0.1496169;0;
-218.7917;0;0;0;-0.5799169;18.05039;-222.1422;-220.033;-0.09040837;-0.5651742;0;
-660.912;0;0;0;-3.057581;15.35293;-659.6364;-656.8422;0.2994865;-0.3697043;0;
-412.9347;0;0;0;-2.049154;13.72992;-415.8459;-411.6177;0.2991856;-0.1094634;0;
-189.0696;0;0;0;-1.444859;25.03599;-193.1022;-192.564;0.1039829;0.2804506;0;
-207.058;0;0;0;0.2315321;27.35524;-210.7742;-212.4229;-0.1559909;0.5400382;0;
276.5945;0;0;0;-6.466506;20.49562;265.2609;264.4884;-0.02589948;0.08472417;0;
713.4094;0;0;0;-8.403367;19.53726;698.9637;696.5678;0.4938653;-0.04529567;0;
403.9103;0;0;0;0.2462408;17.17335;395.3511;391.8333;0.688271;-0.1751848;0;
174.8694;0;0;0;1.518791;14.67772;166.1314;166.8024;0.3627428;-0.2399762;0;
209.0514;0;0;0;0.6466089;13.39042;198.3857;203.054;0.2324436;-0.1098003;0;
-234.3109;0;0;0;0.7123321;10.76463;-239.5936;-234.805;-0.02765931;-0.2396247;0;
-655.1139;0;0;0;3.994146;10.68683;-658.1423;-652.4216;-0.1575662;-0.4342859;0;
-403.9565;0;0;0;5.195581;9.872301;-411.4172;-405.2649;0.1024615;-0.3688822;0;
-194.5307;0;0;0;-0.1682737;3.767056;-201.2968;-198.7113;-0.09254349;-0.1736096;0;
-197.2088;0;0;0;-0.5702462;1.619939;-201.6567;-202.697;-0.1574178;-0.3033698;0;
287.5583;0;0;0;-7.735993;5.168285;275.1813;274.7043;-0.09229233;-0.2380976;0;
707.7455;0;0;0;-12.28355;5.832922;690.5084;689.7195;-0.2221343;0.08697835;0;
400.5634;0;0;0;-2.625662;5.291197;388.9658;386.616;0.167893;-0.04304375;0;
166.9032;0;0;0;-2.824095;6.826488;157.5661;157.405;0.2326916;0.02196684;0;
203.1547;0;0;0;-3.691913;7.221526;193.702;195.9149;0.03755578;0.3467815;0;
-230.8314;0;0;0;-1.612099;7.951082;-234.1526;-233.0039;0.2324201;0.346433;0;
-666.7552;0;0;0;-14.20278;15.17701;-666.6998;-664.3654;0.4270886;0.540987;0;
-412.7751;0;0;0;-17.73849;18.30995;-415.9681;-411.5746;0.4916268;0.4754761;0;
-190.9716;0;0;0;-9.280567;14.74146;-193.5992;-192.1461;0.4261654;0.08519423;0;
-222.2639;0;0;0;-9.673384;14.79363;-223.8269;-225.8735;0.3607699;0.2800106;0;
261.9037;0;0;0;-7.52021;18.12791;252.846;250.8015;0.1655053;0.5395986;0;
716.5369;0;0;0;-5.570271;18.31065;703.6152;699.5114;0.03540436;0.2142198;0;
407.1595;0;0;0;-11.32545;14.74215;399.1859;393.1496;0.3602055;-0.1757995;0;
166.4337;0;0;0;-11.58151;12.71797;157.7185;155.9361;0.4248109;-0.3055576;0;
199.0625;0;0;0;-9.761215;12.10235;188.1072;189.6374;-0.09535468;-0.1103485;0;
-238.1679;0;0;0;-9.617685;10.14768;-242.8653;-241.8364;-0.03029153;0.08466438;0;
-657.5926;0;0;0;-5.990699;5.448802;-658.9745;-656.135;-0.2901305;0.01961195;0;
-409.7436;0;0;0;-3.372711;2.429218;-415.6218;-412.1605;-0.4197736;-0.04537509;0;
-192.4409;0;0;0;-7.455159;3.096606;-199.3127;-200.3526;0.1003869;-0.1752642;0;
-195.4335;0;0;0;-7.447669;2.2897;-201.8611;-205.5861;0.0353187;-0.3050227;0;
279.8366;0;0;0;1.13363;-2.401284;266.8562;265.134;-0.2245862;-0.434651;0;
699.9691;0;0;0;3.543389;-3.671547;684.0657;682.0329;-0.1593932;-0.5641489;0;
395.356;0;0;0;3.137687;-1.993285;385.1533;381.6232;-0.09426565;-0.3037127;0;
169.9469;0;0;0;3.805095;-2.326197;160.8788;160.6007;-0.1591383;-0.04353813;0;
205.758;0;0;0;6.21217;2.163875;194.8875;197.3583;-0.2239457;-0.3683311;0;
-233.8528;0;0;0;6.942862;3.970118;-239.715;-238.0588;-0.288688;-0.4329283;0;
-659.0915;0;0;0;-1.303137;4.234061;-661.8243;-659.4826;0.03643875;-0.1076566;0;
-404.7443;0;0;0;-5.119245;6.507226;-411.2849;-408.2584;0.5561408;0.1523209;0;
-185.8224;0;0;0;1.449982;3.218524;-193.2935;-193.1436;0.2307453;0.1521679;0;
-200.7531;0;0;0;3.056116;3.68417;-208.1542;-211.1904;-0.2242579;0.08704764;0;
279.7072;0;0;0;-14.42938;6.22582;265.3171;262.9711;-0.2240326;0.2168949;0;
713.3956;0;0;0;-19.43872;6.889393;696.3337;694.3649;0.03606191;0.08674224;0;
399.3362;0;0;0;-3.544356;9.762615;388.9756;386.4466;0.295895;0.4764591;0;
161.8666;0;0;0;-0.9288267;10.02074;152.2036;153.6751;-0.02923898;0.411013;0;
200.4345;0;0;0;-4.678937;15.50315;189.7817;193.688;-0.09417695;-0.1091387;0;
-238.6088;0;0;0;-3.53516;17.63102;-240.5053;-238.1646;0.2957217;0.3457424;0;
-658.5328;0;0;0;0.4868797;12.72367;-656.6168;-652.6544;0.4253593;0.150493;0;
-405.3731;0;0;0;0.9558811;13.0458;-408.5814;-403.561;0.2949972;-0.174495;0;
-198.507;0;0;0;4.973409;9.013721;-201.4623;-200.3824;0.2297334;0.3454191;0;
-200.2441;0;0;0;6.709723;8.067024;-202.9465;-204.8037;0.09956791;0.15017;0;
289.2737;0;0;0;-0.9328288;8.862592;277.7034;276.1604;-0.03046682;0.02008439;0;
705.711;0;0;0;-0.7971936;8.719721;690.2794;687.3636;0.2294332;0.3449009;0;
393.3461;0;0;0;-11.84845;12.59597;384.4267;379.9521;-0.03066674;0.01971766;0;
168.9384;0;0;0;-16.72667;13.52095;160.7151;160.1181;-0.3554726;-0.4350736;0;
206;0;0;0;-3.648068;20.80838;196.3482;199.1251;0.3595253;-0.369669;0;
-241.2948;0;0;0;-3.175888;24.40443;-242.8784;-241.2288;0.5540661;-0.4992323;0;
-670.5239;0;0;0;3.793528;21.83468;-668.0456;-665.6479;0.4235747;-0.3038286;0;
-410.668;0;0;0;9.349422;23.42021;-413.4395;-410.482;0.3581817;0.02131337;0;
-193.3644;0;0;0;-1.309893;19.17687;-197.0076;-198.2385;0.0329851;-0.1086427;0;
-206.7882;0;0;0;-1.107506;16.74634;-209.0535;-212.9693;0.03295196;0.1513358;0;
283.4857;0;0;0;2.308882;21.48518;274.6635;272.3758;-0.03204849;0.08621641;0;
715.7335;0;0;0;0.83367;20.39186;702.5473;699.8871;-0.161951;-0.3036743;0;
394.3005;0;0;0;11.68382;18.2949;387.1871;382.1557;0.1630485;-0.1084671;0;
157.8355;0;0;0;15.15471;18.14256;151.9785;149.0762;0.1628846;-0.04339079;0;
199.6558;0;0;0;2.814621;10.9574;191.3685;191.0927;-0.03218106;0.02162015;0;
-243.3223;0;0;0;1.538995;9.941643;-244.4174;-244.9427;0.1627533;0.08656578;0;
-663.4915;0;0;0;-0.2702367;6.984526;-660.0253;-658.7385;-0.1622469;-0.0434559;0;
-398.7076;0;0;0;-4.155707;4.767071;-400.9294;-398.707;-0.551888;0.4113592;0;
-190.9736;0;0;0;5.896152;14.80948;-193.8805;-195.4708;-0.09656204;0.1510765;0;
-201.5888;0;0;0;7.095676;15.86632;-202.931;-207.081;0.2283717;-0.04397737;0;
291.3661;0;0;0;0.1896708;22.21364;281.7794;279.1953;-0.09669448;0.4758056;0;
711.7993;0;0;0;0.1894802;26.00922;697.8494;694.4559;0.03333737;0.3453928;0;
400.0529;0;0;0;-7.179077;16.47176;390.7397;385.6005;0.03330387;-0.174693;0;
178.3872;0;0;0;-11.05663;15.04856;169.0834;167.6974;-0.2915663;-0.4343868;0;
201.1339;0;0;0;-1.131557;12.62218;192.1518;194.6402;-0.1613387;-0.2390483;0;
-254.3394;0;0;0;0.2087501;9.126383;-255.1291;-252.8305;0.4235295;-0.1738408;0;
-665.627;0;0;0;-4.614231;8.179452;-661.7932;-659.0596;0.618006;-0.1086988;0;
-405.1512;0;0;0;-3.203075;5.224106;-405.6941;-402.526;0.2925483;-0.04362223;0;
-194.3499;0;0;0;-9.49552;2.874454;-196.6413;-196.1001;-0.162517;-0.2384804;0;
-195.279;0;0;0;-12.29999;0.8622001;-196.1939;-198.0895;-0.5521578;-0.1732735;0;
296.4826;0;0;0;1.979608;-2.286864;288.1974;286.3661;-0.4866356;0.02180268;0;
715.5364;0;0;0;4.925355;-4.159966;703.324;701.0573;-0.6160814;-0.4329906;0;
394.0412;0;0;0;-0.9740914;-4.088803;388.7751;385.8235;-0.6804296;-1.017262;0;
166.0097;0;0;0;-0.7720419;-5.357371;161.9982;160.9236;-0.2899419;-0.1066967;0;
201.3875;0;0;0;0.4341827;-2.806636;196.5055;197.0562;-0.1597159;0.737986;0;
-247.3394;0;0;0;1.237054;-1.93316;-245.0951;-245.2321;0.2302487;0.1525384;0;
-664.8184;0;0;0;-5.595716;-4.811361;-659.0156;-658.0905;0.749756;-0.3023863;0;
-394.4109;0;0;0;-8.001967;-4.136698;-394.1113;-391.6254;0.3591986;-0.1071804;0;
-184.4325;0;0;0;-4.175534;-7.548671;-185.32;-185.5228;-0.160901;0.3476987;0;
-208.3601;0;0;0;-5.511485;-8.81364;-207.3726;-209.8865;-0.290674;0.282382;0;
290.9734;0;0;0;0.9917634;-1.972768;285.2757;284.3261;-0.3553493;0.08719618;0;
725.1501;0;0;0;4.741811;-0.2292299;716.0224;714.1992;0.2297138;0.2820106;0;
402.4583;0;0;0;-7.25302;-1.233744;399.0244;396.0161;0.2944503;0.2167599;0;
178.104;0;0;0;-8.51853;0.2411206;175.0484;176.1035;-0.1606169;0.0866074;0;
205.0989;0;0;0;-2.816544;0.575793;201.609;204.4122;0.09941384;0.02155302;0;
-251.6902;0;0;0;-3.750742;1.312027;-247.0556;-246.3792;0.294216;-0.04343598;0;
-657.9829;0;0;0;6.568154;2.516401;-649.2301;-647.7422;-0.2907857;0.02157501;0;
-396.6403;0;0;0;10.44632;2.647717;-393.1436;-390.9701;-0.7452649;0.2164554;0;
-197.4042;0;0;0;-0.7499599;4.654544;-195.5352;-196.4249;-0.354712;0.02133583;0;
-193.7076;0;0;0;-2.826287;4.917799;-191.8405;-194.4159;-0.1594536;-0.3035223;0;
306.9854;0;0;0;1.262389;5.381738;301.8542;299.0315;-0.3541954;0.08658673;0;
712.9728;0;0;0;-0.4128423;6.782972;705.6603;700.1543;0.03596454;0.2164344;0;
392.0423;0;0;0;-0.07763485;-1.194691;389.7971;383.4221;0.6206345;-0.2385545;0;
173.3206;0;0;0;0.9941701;-3.06889;170.453;167.6451;0.5550435;-0.1083801;0;
205.6302;0;0;0;-12.40342;0.350201;201.1412;200.8974;-0.160155;0.2815329;0;
-249.3479;0;0;0;-15.67251;-1.525673;-246.3361;-247.5167;-0.03005934;0.2162827;0;
-672.5095;0;0;0;-9.896958;8.456073;-665.003;-665.8701;0.749579;0.2160653;0;
-399.5331;0;0;0;-11.15981;11.86371;-397.2191;-397.4606;0.2290871;-0.3038905;0;
-181.8659;0;0;0;-1.100914;1.335709;-180.741;-183.7934;0.09892218;-0.9532586;0;
-193.8645;0;0;0;2.517515;0.3966055;-191.6788;-196.5397;0.4236595;-0.3026273;0;
303.3304;0;0;0;-0.9012666;1.534917;297.7054;294.3486;-0.09650493;0.4772848;0;
713.5693;0;0;0;0.7072294;0.4616476;703.5146;699.599;-0.4212447;0.2819033;0;
388.203;0;0;0;-0.2988352;0.3942008;382.3438;377.5575;-0.160952;-0.2381187;0;
177.731;0;0;0;-0.4322568;-0.4099905;171.5654;169.9698;-0.03085563;-0.3028468;0;
200.8532;0;0;0;-3.043791;-1.481305;195.1935;196.4107;-0.03082463;0.08726154;0;
-256.6187;0;0;0;-5.116838;-3.087285;-254.3393;-253.8105;0.1641084;-0.3026302;0;
-651.7247;0;0;0;-2.700798;4.082747;-646.6989;-646.483;0.4238128;-0.4322608;0;
-389.7636;0;0;0;-2.698085;7.829566;-389.6154;-388.2129;0.228485;-0.04202241;0;
-196.0942;0;0;0;-9.193084;-4.770726;-195.9461;-197.7933;0.03335335;-0.3668169;0;
-189.4629;0;0;0;-11.59474;-5.301796;-189.0026;-193.659;0.03331984;-0.4314156;0;
313.1;0;0;0;-6.358181;-1.478564;305.1265;302.4113;0.0982537;-0.3010475;0;
709.3985;0;0;0;-6.150722;-2.481822;698.622;695.2224;-0.09674705;-0.1708103;0;
386.2228;0;0;0;-4.805371;11.85478;381.3291;376.746;0.2281869;0.1541981;0;
172.3795;0;0;0;-1.853781;15.9287;167.9281;166.2231;0.1629902;0.2839778;0;
199.6925;0;0;0;-8.884517;13.90321;194.9956;194.9165;-0.09704289;0.2187251;0;
-255.0297;0;0;0;-8.206004;16.56855;-252.5379;-252.5545;0.2278913;-0.04136405;0;
-664.6924;0;0;0;-2.705402;10.45658;-658.8923;-656.9723;0.2926297;-0.04132249;0;
-389.1627;0;0;0;-0.8266734;9.173399;-386.9291;-384.3864;0.03246628;0.2835557;0;
-190.4963;0;0;0;5.202377;6.618952;-187.5779;-188.5359;-0.09750102;0.4132055;0;
-211.8566;0;0;0;6.53632;3.129189;-208.8786;-212.5842;0.09749897;0.2828556;0;
302.5354;0;0;0;16.64381;6.877089;296.9522;294.1872;0.292303;0.1526368;0;
724.8315;0;0;0;19.70854;6.200349;716.0055;712.5562;-0.09779473;0.3473854;0;
387.6473;0;0;0;14.6649;1.505436;385.077;380.8191;-0.2276312;0.282069;0;
170.8041;0;0;0;15.92296;0.4321965;167.9865;167.6059;0.03246694;0.2817856;0;
203.1161;0;0;0;0.9037614;-0.2380671;199.052;201.358;-0.3573697;0.1515678;0;
-259.3556;0;0;0;-3.317681;-1.376538;-255.3572;-254.4903;-0.3570106;-0.1084539;0;
-661.2054;0;0;0;-5.591524;0.4333846;-654.025;-652.222;0.4229562;0.02158974;0;
-388.6152;0;0;0;-10.87719;0.03105155;-386.5645;-383.8888;0.6174332;-0.0433993;0;
-189.3872;0;0;0;2.194556;-0.3038943;-187.5259;-188.8509;0.03210674;-0.1732904;0;
-183.6372;0;0;0;3.532498;-1.375316;-181.1531;-185.5377;-0.3577296;-0.3030509;0;
320.0443;0;0;0;6.341988;1.305383;314.7173;311.4615;-0.1624681;-0.04287706;0;
710.5262;0;0;0;10.4888;3.447403;700.5819;697.3295;-0.09733751;0.4119374;0;
383.4763;0;0;0;5.45442;-11.8278;378.9768;375.4777;-0.2271744;0.0866868;0;
175.0081;0;0;0;8.596771;-15.96874;172.4496;172.015;0.09789059;-0.04333499;0;
194.5099;0;0;0;-1.860716;-5.838514;191.0794;192.1445;0.1627596;0.08664325;0;
-265.1421;0;0;0;-5.877335;-5.89963;-261.5727;-262.1953;0.2925307;0.1515235;0;
-665.4244;0;0;0;13.61975;-4.085163;-657.9855;-657.7954;0.4221715;0.1513713;0;
-391.5806;0;0;0;16.7539;-2.674417;-389.8963;-388.2696;0.09691055;-0.1736175;0;
-180.3556;0;0;0;16.40227;-1.801073;-180.0473;-181.6081;-0.3579582;-0.04350841;0;
-178.3003;0;0;0;20.87377;0.009275492;-177.2427;-181.8005;-0.09772917;0.08647001;0;
319.7536;0;0;0;10.0018;-3.674673;313.3139;308.4484;0.2921731;0.02141576;0;
716.2328;0;0;0;7.915648;-3.804947;706.1765;699.6292;0.4218142;0.0863616;0;
380.4941;0;0;0;16.6816;-4.40397;376.0075;369.1544;0.2914557;-0.1735945;0;
159.5351;0;0;0;16.53112;-5.739203;155.3029;152.7046;-0.3585106;-0.1084528;0;
183.3003;0;0;0;19.72969;-1.513634;177.9479;178.0384;-0.09828101;-0.2382785;0;
-269.9062;0;0;0;21.92067;-0.9092665;-267.8194;-268.3537;0.2266545;-0.3030064;0;
-659.439;0;0;0;12.11938;-3.386599;-652.9191;-652.5159;-0.1633773;-0.1077999;0;
-383.7272;0;0;0;9.829049;-3.517162;-381.0869;-380.0593;0.03168884;-0.4974957;0;
-184.5665;0;0;0;13.97236;-3.848543;-182.8659;-184.3381;0.031657;-0.3020937;0;
-175.8228;0;0;0;12.5518;-3.911659;-174.936;-177.7186;-0.03334215;0.08801387;0;
326.6013;0;0;0;18.29996;-5.917216;319.5538;317.5861;0.03165869;-0.3018786;0;
710.8299;0;0;0;21.83155;-7.183947;701.6655;697.4509;-0.1632751;-0.1716406;0;
379.2195;0;0;0;8.94889;-3.961547;374.8743;369.602;0.09675828;0.2183359;0;
169.4437;0;0;0;7.399657;-3.823601;163.916;163.3966;0.03169372;-0.2366549;0;
184.2659;0;0;0;15.16175;-4.623554;178.8687;180.5987;-0.09827281;-0.4962865;0;
-280.2484;0;0;0;15.41396;-4.283994;-277.6441;-277.2903;0.03176062;-0.3008858;0;
-663.0867;0;0;0;22.16363;-7.293921;-658.0488;-656.1335;-0.1631733;-0.1706488;0;
-377.0638;0;0;0;23.88365;-8.090265;-377.9655;-373.9283;-0.2279767;0.0893921;0;
-187.0928;0;0;0;29.21731;-6.943548;-187.9311;-187.1463;-0.1627803;0.1542696;0;
-192.5894;0;0;0;34.14542;-6.869588;-191.9901;-195.329;-0.2275841;-0.1057548;0;
329.3418;0;0;0;15.62333;-5.59001;321.1949;318.4841;-0.09742071;-0.3005506;0;
730.809;0;0;0;10.85221;-4.043786;718.7347;715.277;-0.2922249;-0.1703139;0;
383.3114;0;0;0;21.22378;-6.384125;376.3717;371.793;-0.4868332;-0.04020804;0;
169.2837;0;0;0;19.32645;-6.176762;162.226;160.7129;-0.5513114;-0.105135;0;
191.04;0;0;0;21.45048;-0.8790255;184.1144;184.1021;-0.09598605;-0.1050293;0;
-274.1682;0;0;0;22.76908;0.1935847;-273.3407;-273.5405;0.2939144;-0.1698911;0;
-656.8877;0;0;0;16.58328;5.886817;-652.8752;-651.2007;-0.0312176;0.2200836;0;
-372.5577;0;0;0;18.37528;9.430876;-373.1719;-371.0618;-0.2260883;0.1548951;0;
-176.2818;0;0;0;10.85472;2.321453;-177.5826;-178.9728;-0.0959264;-0.3649992;0;
-168.8584;0;0;0;9.169855;2.31912;-169.7205;-173.5456;-0.2257647;-0.1697305;0;
338.5563;0;0;0;20.14535;1.981875;331.823;328.2516;0.09929886;-0.2345273;0;
721.3361;0;0;0;19.25446;-0.3645188;712.4231;707.1686;0.5539705;-0.494161;0;
384.905;0;0;0;38.79364;8.611317;380.6862;375.1246;0.3585118;0.09104165;0;
179.6837;0;0;0;45.65353;10.14327;174.7195;173.099;0.2282169;0.3508195;0;
195.0579;0;0;0;28.92952;3.836806;189.0367;188.9171;0.2929549;0.2205323;0;
-276.2138;0;0;0;28.90045;3.83295;-273.9207;-275.1021;0.2276932;0.1553434;0;
-656.8074;0;0;0;15.87697;-0.9935502;-651.2057;-650.5743;0.1624971;0.02525262;0;
-371.5404;0;0;0;8.894789;-3.26985;-372.1288;-370.4986;0.09736648;-0.03974009;0;
-180.6379;0;0;0;14.91407;0.3503923;-181.538;-184.3447;0.162236;-0.2995695;0;
-169.7743;0;0;0;12.01967;-0.05185738;-171.4855;-177.2879;0.4219424;-0.4941705;0;
343.9507;0;0;0;10.53373;0.1491435;332.4336;328.5111;0.4864857;-0.298772;0;
724.0389;0;0;0;9.451416;0.2159766;709.7847;704.5543;0.1611602;-0.1685371;0;
377.9849;0;0;0;12.99189;0.5506743;370.3668;363.5175;-0.09887112;-0.1683677;0;
168.7101;0;0;0;15.12229;0.4161551;161.0996;158.3801;0.09613025;-0.2331659;0;
192.2162;0;0;0;12.36043;1.755396;183.239;183.3958;0.161001;-0.1029969;0;
-273.5554;0;0;0;13.41974;2.758254;-274.715;-275.9951;-0.0340628;-0.0379261;0;
-656.6503;0;0;0;16.21929;-4.210499;-653.8108;-654.34;-0.09899591;-0.427692;0;
-368.8849;0;0;0;17.74421;-6.215756;-371.5454;-369.7627;0.03103824;-0.2323603;0;
-175.2363;0;0;0;16.38624;-3.530193;-178.3939;-179.6116;-0.2288623;0.4175466;0;
-172.3116;0;0;0;15.36539;-4.598373;-175.1537;-178.8689;-0.4885017;0.2222251;0;
341.2909;0;0;0;22.31618;-2.450421;329.5187;327.9312;-0.4880109;-0.297737;0;
726.2543;0;0;0;23.43186;-1.644163;712.1201;708.91;-0.4875205;-0.2324705;0;
379.8858;0;0;0;18.25075;-5.527399;372.1376;367.9312;-0.2921286;-0.1672695;0;
172.9204;0;0;0;18.03231;-6.258657;165.2425;165.7255;-0.2268678;-0.03716679;0;
189.6757;0;0;0;10.57848;-3.974949;183.0674;184.7993;-0.5514765;-0.1670641;0;
-281.2158;0;0;0;7.754812;-3.301126;-280.5711;-280.0278;-0.03118364;-0.491733;0;
-651.2471;0;0;0;8.149161;-5.240314;-649.3536;-646.9369;0.6185211;0.09346722;0;
-363.1747;0;0;0;5.327934;-5.0341;-366.9678;-364.8658;0.2930629;0.223308;0;
-190.5839;0;0;0;13.09211;-3.421451;-194.0608;-196.7085;-0.03206827;0.09314892;0;
-178.8357;0;0;0;14.68655;-2.614218;-181.8718;-186.5159;0.162866;0.417892;0;
355.9503;0;0;0;9.380506;-2.276798;344.0466;341.9685;0.09773499;0.3525048;0;
730.0294;0;0;0;9.170009;-2.54232;715.2642;713.0007;-0.09726524;0.4820853;0;
381.2209;0;0;0;9.562937;3.689403;372.9047;368.7694;0.03276717;0.6765029;0;
182.1877;0;0;0;9.68705;5.762167;174.3171;173.4968;0.2276363;0.4159538;0;
194.7482;0;0;0;9.074103;-1.142743;186.6357;188.5024;0.1624402;0.4155358;0;
-285.7061;0;0;0;10.67258;-2.481132;-285.752;-285.199;0.2272443;0.4151183;0;
-670.4755;0;0;0;3.762976;-0.7372043;-667.2104;-665.5961;0.1620486;0.02489712;0;
-371.1394;0;0;0;1.548392;-1.205344;-373.4998;-371.1375;-0.2279182;-0.3649319;0;
-169.7425;0;0;0;17.55539;-5.490919;-172.288;-174.7381;-0.2276892;-0.2346306;0;
-169.1347;0;0;0;21.89201;-7.092992;-170.8031;-176.1867;0.1623436;0.1554092;0;
346.4012;0;0;0;18.92325;-4.808445;337.1758;333.1719;0.2271478;0.2851878;0;
726.8618;0;0;0;21.31513;-4.669647;714.9595;709.5228;0.09698491;0.1549665;0;
371.2473;0;0;0;22.70024;-1.918777;364.3544;358.8607;0.1618548;0.08984348;0;
168.9133;0;0;0;23.54808;1.0304;160.653;160.4122;0.03175749;0.1547205;0;
193.731;0;0;0;23.12228;-2.252799;183.9173;186.0506;-0.2281438;0.1545651;0;
-282.7243;0;0;0;22.29574;-0.8438939;-284.5321;-284.4624;-0.4877839;0.2193771;0;
-660.1878;0;0;0;22.27334;5.319262;-658.3082;-657.7388;-0.4223264;0.02425464;0;
-368.8581;0;0;0;21.84881;7.323405;-372.2277;-371.409;-0.2270001;-0.3655738;0;
-183.9552;0;0;0;15.59757;14.68392;-187.5713;-190.1892;-0.1618046;-0.04036974;0;
-170.0273;0;0;0;12.76886;18.01819;-172.0155;-176.0052;-0.2266094;0.2195402;0;
346.5715;0;0;0;16.84187;17.19642;338.3384;336.2268;-0.09644701;0.08938493;0;
710.2278;0;0;0;17.02601;18.58566;700.1913;696.6451;0.1635193;0.2192298;0;
370.4346;0;0;0;14.39694;15.35192;365.5307;360.1139;0.2283223;0.2839769;0;
178.0339;0;0;0;14.78364;14.46572;171.3858;169.1604;0.2930602;-0.04114521;0;
185.6636;0;0;0;15.97521;8.82474;177.1481;176.799;0.4227004;-0.2360059;0;
-289.9715;0;0;0;17.03088;4.194173;-290.9197;-292.5803;0.5522104;-0.1058341;0;
-661.4308;0;0;0;17.14749;11.69193;-659.3171;-660.1014;0.2268188;0.02420696;0;
-370.4746;0;0;0;16.2596;11.47923;-373.423;-373.9567;-0.1632131;-0.2356867;0;
-182.5091;0;0;0;26.95956;3.429864;-185.2047;-189.4859;-0.0980818;-0.3653846;0;
-176.1413;0;0;0;30.54979;2.019898;-178.2095;-184.9852;-0.2279179;-0.04018075;0;
344.7739;0;0;0;20.20397;-2.670815;334.1496;328.6301;-0.4875583;0.02482697;0;
721.8003;0;0;0;19.91622;-5.950295;708.0632;702.0495;-0.2921664;0.2197041;0;
365.6287;0;0;0;14.60395;1.959548;358.3397;351.5199;0.09793126;0.4143853;0;
164.7371;0;0;0;10.236;3.364099;156.9557;154.2657;0.2277675;-0.1057698;0;
185.8109;0;0;0;20.07135;-0.9930502;176.7879;176.5369;-0.03233069;-0.2355982;0;
-297.1331;0;0;0;19.91746;-0.1882571;-297.339;-299.7762;0.1626038;0.2194099;0;
-667.1484;0;0;0;17.88869;-0.2550509;-664.1682;-664.9163;0.3573425;0.2841568;0;
-364.3799;0;0;0;19.41096;0.2810688;-365.5256;-365.1485;-0.2277227;0.02400191;0;
-187.9773;0;0;0;7.000219;3.964726;-187.7475;-191.3687;-0.09755917;-0.04098955;0;
-176.1693;0;0;0;2.706277;5.769281;-175.7523;-180.3694;-0.2273958;-0.04094836;0;
360.8629;0;0;0;11.00895;6.835211;353.4084;350.4201;-0.2921347;0.1539948;0;
728.8776;0;0;0;9.591372;8.837708;718.7445;713.0106;0.2278976;0.2188074;0;
374.1357;0;0;0;13.06436;8.828829;368.1357;361.4705;-0.1621355;-0.2361838;0;
176.6089;0;0;0;15.86427;9.422804;169.428;167.767;-0.1619725;-0.3009139;0;
178.6178;0;0;0;3.189655;13.16426;172.5061;172.9707;0.03309224;0.08919256;0;
-299.5089;0;0;0;1.913652;13.88784;-296.619;-297.4667;-0.3567451;0.1540703;0;
-656.7158;0;0;0;1.84438;14.81165;-650.8303;-650.5527;-0.1614846;-0.2358886;0;
-357.2686;0;0;0;-1.640097;15.19866;-356.1991;-356.4215;0.2284817;-0.3655863;0;
-170.7532;0;0;0;13.4321;11.2985;-168.8102;-172.9679;0.3581868;0.2194872;0;
-164.6471;0;0;0;16.29899;9.679561;-161.9564;-167.7966;0.2278922;0.6090707;0;
353.9453;0;0;0;11.66091;6.588742;348.3874;344.2397;0.09772857;0.283622;0;
727.7141;0;0;0;13.85902;3.366941;719.788;714.2701;0.1625977;0.1534023;0;
368.7254;0;0;0;4.400627;6.042875;366.6169;359.7927;-0.1624024;-0.3015232;0;
161.6463;0;0;0;2.923312;5.96982;159.0401;156.908;-0.5520433;-0.4311549;0;
183.7852;0;0;0;0.7769213;-2.810698;180.7443;180.9882;-0.4865212;0.1539844;0;
-289.6616;0;0;0;-3.042253;-5.621157;-285.0157;-286.2714;-0.03126095;0.08886231;0;
-665.1191;0;0;0;10.15632;-1.194758;-657.542;-656.9848;0.2286398;-0.106129;0;
-371.7855;0;0;0;12.28957;-1.863386;-367.2768;-366.2205;0.03350807;0.0239123;0;
-190.0031;0;0;0;7.92394;-1.459616;-183.9997;-187.2548;-0.2913623;-0.1710137;0;
-171.8212;0;0;0;8.719285;-1.92703;-166.1362;-172.0117;-0.1611349;-0.1058746;0;
357.398;0;0;0;4.490965;-0.2505208;353.7694;348.4621;0.09889641;0.1541012;0;
708.987;0;0;0;2.47672;0.6205091;701.1767;694.9377;0.09879704;0.1539464;0;
352.8283;0;0;0;4.149171;-5.877337;349.9608;343.9155;0.03373042;0.08882432;0;
169.0035;0;0;0;4.010304;-6.742209;165.889;164.41;-0.03127081;-0.301069;0;
176.6422;0;0;0;-3.160045;-7.941006;172.9687;173.9899;0.09869529;-0.3657338;0;
-305.1682;0;0;0;-5.03288;-8.066992;-301.2169;-301.0088;0.3584655;-0.1704643;0;
-658.6212;0;0;0;-1.946364;-9.264579;-652.425;-651.8423;0.2281706;-0.1053257;0;
-361.8583;0;0;0;-1.542267;-10.39398;-362.8522;-362.5824;0.09800667;0.2845842;0;
-185.5831;0;0;0;-3.416727;0.6684037;-187.8254;-192.1786;0.03294085;0.08939624;0;
-167.9054;0;0;0;-6.025262;3.279944;-169.021;-176.5557;-0.1619943;-0.4304323;0;
357.9991;0;0;0;11.73066;3.946478;349.8881;343.2355;-0.3567335;-0.2350978;0;
716.2715;0;0;0;17.4123;6.085967;705.6075;697.8372;-0.09650571;-0.1049269;0;
355.7327;0;0;0;0.3145212;0.1854752;350.5142;342.2519;0.228428;-0.4296582;0;
156.4753;0;0;0;0.3142052;-1.891182;152.3239;148.0054;-0.09663827;-0.1693571;0;
173.1845;0;0;0;-7.38927;-3.02787;170.3492;168.2215;-0.03157382;0.09068247;0;
-298.3151;0;0;0;-12.13727;-5.83811;-293.0891;-295.8394;0.2932946;0.02562399;0;
-661.2702;0;0;0;1.070444;-8.712388;-653.4258;-654.3618;0.3579673;-0.0393691;0;
-359.3197;0;0;0;2.543237;-10.57916;-356.4807;-356.9784;0.4225749;-0.2342316;0;
-182.5473;0;0;0;4.817857;-16.32894;-179.3988;-183.894;0.4871176;-0.03909418;0;
-182.8012;0;0;0;9.367368;-18.58983;-179.0311;-185.0835;0.3566935;0.2857818;0;
355.9868;0;0;0;3.932948;-16.15988;350.2578;345.9606;-0.0984363;-0.1043094;0;
727.1923;0;0;0;5.268167;-16.67951;718.0333;712.6785;-0.6180761;-0.1691719;0;
360.2082;0;0;0;10.75523;-9.830613;357.4927;351.581;-0.227651;0.09086744;0;
168.5049;0;0;0;11.01284;-6.940591;166.042;163.6345;-0.1624549;0.2207108;0;
177.7684;0;0;0;21.18318;-6.732668;175.6828;174.5895;-0.2922264;0.220489;0;
-308.1661;0;0;0;24.57717;-3.44374;-302.0662;-304.0329;0.3577406;-0.1045692;0;
-658.8051;0;0;0;16.5155;-5.717699;-650.6498;-650.5531;0.2274465;-0.1694315;0;
-353.6086;0;0;0;16.09677;-3.970398;-350.9589;-350.0501;-0.5523901;-0.03932656;0;
-182.4642;0;0;0;9.516508;-3.631494;-179.817;-182.9072;-0.4868677;0.02568029;0;
-166.5387;0;0;0;5.018967;-3.761811;-164.0192;-170.0423;-0.4214112;0.2205565;0;
367.2354;0;0;0;11.51066;4.547609;361.9438;356.4265;-0.4859551;-0.1045018;0;
717.2527;0;0;0;11.56644;6.485545;710.6547;702.894;-0.2905648;0.02553788;0;
355.9633;0;0;0;2.110348;8.622359;355.7436;346.3666;-0.03040345;0.1554469;0;
168.1374;0;0;0;-0.437368;11.42698;167.3557;162.6108;0.2294965;-0.2345133;0;
178.838;0;0;0;4.453192;4.851292;177.7447;175.6283;0.2292659;0.09055902;0;
-303.4119;0;0;0;4.314995;4.377537;-296.8204;-300.6214;0.09910081;0.4153047;0;
-660.9272;0;0;0;5.91825;4.172189;-651.7811;-654.0165;0.4888053;0.2849528;0;
-355.9785;0;0;0;7.050403;2.35958;-350.7772;-352.0109;0.2934121;0.2196991;0;
-179.8967;0;0;0;5.503077;8.117497;-174.0134;-178.869;-0.4864908;0.6742497;0;
-161.9124;0;0;0;5.698618;8.77917;-156.5347;-162.6973;-0.4210346;0.4786702;0;
371.6697;0;0;0;4.754888;8.167502;368.9835;364.4512;-0.2257096;-0.4963209;0;
717.8096;0;0;0;4.080524;9.298005;712.5648;706.2256;-0.03058074;-0.4308549;0;
355.8948;0;0;0;4.277495;6.743433;356.9647;349.6948;0.09938467;0.08931682;0;
172.067;0;0;0;4.004777;7.205538;174.635;170.6208;-0.3554866;0.4140638;0;
177.7661;0;0;0;2.862653;4.518981;179.2696;176.8211;-0.1602274;0.5435824;0;
-305.9195;0;0;0;3.328292;2.705901;-299.1076;-301.5537;0.489607;0.3481342;0;
-656.1234;0;0;0;2.05215;11.67877;-646.8821;-647.8265;0.5540825;0.2178497;0;
-356.9891;0;0;0;2.854371;13.54244;-352.5048;-352.886;0.1637216;-0.1072059;0;
-187.5279;0;0;0;4.258022;9.242044;-182.9232;-186.24;0.1635571;0.2177385;0;
-166.9747;0;0;0;5.057051;9.366724;-162.0622;-167.1248;0.3582948;0.7372585;0;
366.425;0;0;0;11.75075;7.816705;363.9613;359.0287;0.03309808;0.0218769;0;
711.1334;0;0;0;13.34653;6.268365;707.1729;700.8085;0.03306483;-0.4978838;0;
356.8465;0;0;0;19.49507;7.400776;357.4502;351.4046;0.0330316;-0.04261215;0;
175.0167;0;0;0;23.15917;6.455579;173.9956;172.3288;-0.1619036;0.08736537;0;
175.1532;0;0;0;14.09357;3.769775;172.8213;173.3425;0.09812844;0.08727758;0;
-310.029;0;0;0;13.4762;2.828226;-306.3616;-307.0277;0.1629972;0.02222253;0;
-661.4157;0;0;0;9.310447;-0.3226913;-655.1283;-655.6064;-0.09703597;-0.1727018;0;
-356.8414;0;0;0;5.348977;-1.729009;-355.058;-356.2228;-0.1619058;-0.1075609;0;
-191.6282;0;0;0;12.97941;-1.057442;-190.2839;-194.8208;-0.2267105;0.2823512;0;
-178.1923;0;0;0;12.83265;-1.927158;-177.6615;-183.1933;-0.09654798;0.4120022;0;
368.9618;0;0;0;11.47961;0.6871132;360.5591;356.2198;-0.03148363;0.2166862;0;
721.976;0;0;0;13.41046;0.9543545;710.7706;705.3112;-0.09641933;-0.04340095;0;
356.184;0;0;0;5.426378;1.28831;350.5496;344.7209;-0.03135511;-0.1083247;0;
172.1684;0;0;0;4.55027;1.688913;165.6651;163.7153;-0.1612583;0.0866862;0;
179.7415;0;0;0;9.167397;-0.3222717;172.6826;172.4213;0.2287078;-0.1732703;0;
-310.1304;0;0;0;8.823394;-0.1209991;-308.9365;-310.8841;0.42338;-0.3030308;0;
-662.1417;0;0;0;18.05793;-3.068005;-657.2008;-657.3349;-0.09678414;0.2819797;0;
-356.5047;0;0;0;20.65175;-3.332854;-355.5667;-354.4513;0.09821513;0.3466637;0;
-190.9795;0;0;0;20.631;-5.74089;-189.7926;-193.301;0.3579858;-0.303358;0;
-167.5493;0;0;0;23.22322;-7.74461;-167.0508;-172.5546;0.0327894;-0.2380859;0;
377.2203;0;0;0;13.82178;3.71701;369.5974;365.0362;-0.2271129;-0.3677813;0;
715.546;0;0;0;11.53072;7.062421;706.3691;699.3762;-0.6816561;-0.3024444;0;
351.3223;0;0;0;13.72993;3.907127;348.0891;340.6034;-0.4211018;0.08766352;0;
179.8678;0;0;0;12.64441;6.917433;176.1381;173.1576;0.09906006;-0.1073266;0;
179.9369;0;0;0;8.344799;0.6142089;176.211;174.6703;0.03399318;-0.1721861;0;
-316.9317;0;0;0;4.852814;-1.194947;-311.6585;-314.9467;0.228861;-0.1070457;0;
-661.7523;0;0;0;16.50321;9.121381;-653.4858;-655.0841;0.2935984;-0.4317749;0;
-356.7403;0;0;0;19.23232;9.715062;-354.2918;-353.9519;-0.09650063;-0.3663737;0;
-187.9041;0;0;0;11.17602;11.24591;-185.3955;-188.1169;-0.4212404;-0.04116886;0;
-165.1016;0;0;0;12.30289;12.50728;-162.783;-167.4382;0.09892163;-0.1060948;0;
373.1688;0;0;0;4.855788;4.523869;366.4896;363.0884;0.4236589;-0.3008903;0;
717.4331;0;0;0;1.233586;1.907111;708.8241;703.7397;0.03342919;-0.2356206;0;
347.6477;0;0;0;13.892;1.57028;345.794;339.7152;0.09836295;0.1544202;0;
164.9526;0;0;0;15.21819;-0.4407855;161.9763;160.9635;-0.03167058;0.5440691;0;
177.343;0;0;0;16.40834;-4.99506;173.3077;175.8567;-0.0966061;-0.04118365;0;
-314.9004;0;0;0;20.87984;-7.401426;-311.0605;-308.8264;0.1633603;-0.560881;0;
-667.0318;0;0;0;8.199203;-6.121314;-660.8845;-658.2778;-0.1616405;-0.04057869;0;
-355.9551;0;0;0;6.985516;-6.718009;-354.4366;-353.2693;-0.03154341;0.2193315;0;
-190.368;0;0;0;14.14482;-4.634789;-188.2263;-190.2462;0.2283576;-0.0407583;0;
-173.9348;0;0;0;12.72408;-3.290473;-171.9203;-174.3129;0.09819351;0.08921735;0;
366.0311;0;0;0;26.7111;-3.019235;360.5474;358.3446;0.2280295;-0.040807;0;
704.368;0;0;0;30.3006;-1.34175;697.7654;692.0666;0.4227024;-0.1707007;0;
341.7173;0;0;0;25.24632;-0.4026403;340.8683;334.0508;0.487245;0.02437287;0;
173.6457;0;0;0;27.56547;1.004406;171.9231;169.3603;0.03198406;0.08931573;0;
179.2808;0;0;0;15.41399;3.749575;176.9977;176.0616;-0.4877868;-0.105676;0;
-320.5857;0;0;0;12.65281;5.755295;-314.6831;-316.7426;-0.16246;-0.5603412;0;
-667.4016;0;0;0;12.43902;5.816495;-658.5689;-659.8143;0.16254;-0.6897129;0;
-362.0091;0;0;0;9.211345;6.94936;-358.8075;-359.8018;-0.09749271;-0.2992158;0;
-206.7857;0;0;0;17.7759;7.813034;-202.5878;-207.0793;0.09750728;-0.2339478;0;
-181.7779;0;0;0;18.42763;7.604235;-176.2724;-183.0707;0.5521807;0.3509933;0;
368.1909;0;0;0;22.49495;12.41936;365.2576;359.2158;0.2267891;0.1557386;0;
706.838;0;0;0;25.5538;13.67944;700.9717;693.3117;-0.09827544;-0.6240259;0;
341.1862;0;0;0;21.1075;9.914772;339.761;331.9214;-0.4879808;-0.2985623;0;
167.618;0;0;0;22.42546;9.90481;164.5701;161.8607;-0.7473598;-0.3632296;0;
176.8198;0;0;0;15.4367;6.344884;173.0254;173.0048;-0.2918374;-0.3628646;0;
-319.5459;0;0;0;11.4027;4.931867;-315.7779;-317.8599;-0.4214789;0.02730404;0;
-672.4223;0;0;0;21.97382;7.137348;-667.3462;-669.3011;-0.356088;-0.03769074;0;
-360.5905;0;0;0;22.4876;7.531952;-362.3911;-364.469;-0.03089353;-0.2325549;0;
-196.1857;0;0;0;16.37041;7.055625;-197.6096;-203.9333;-0.09582983;-0.1673539;0;
-173.9996;0;0;0;15.95182;7.249485;-174.61;-182.3017;0.2291032;0.09268367;0;
373.775;0;0;0;8.567428;12.2658;364.2321;359.1719;-0.1609311;0.1575579;0;
705.8573;0;0;0;4.406609;13.72698;693.6379;687.5208;-0.6805081;-0.1674372;0;
344.142;0;0;0;12.77493;14.58396;338.3692;331.1962;-0.2250529;-0.2972036;0;
178.5043;0;0;0;13.49805;15.3731;173.6118;171.0063;0.1000099;-0.3618723;0;
168.0176;0;0;0;5.447509;13.08024;163.5049;163.2758;-0.03002528;-0.231574;0;
-329.4637;0;0;0;4.101889;11.59359;-326.2883;-327.829;0.2948416;0.02852803;0;
-656.0309;0;0;0;3.964045;11.84987;-650.7347;-651.087;0.5544147;0.2883688;0;
-347.5889;0;0;0;2.21875;11.43607;-348.7323;-348.6469;0.0341189;0.09317697;0;
-192.6299;0;0;0;7.374084;0.908501;-193.6472;-197.9347;-0.09585007;-0.2967207;0;
-163.5758;0;0;0;8.639472;-3.312215;-163.4052;-170.3746;0.03418093;-0.3613899;0;
380.0029;0;0;0;3.673322;0.7769504;372.927;367.5888;-0.0957881;-0.1661248;0;
707.7062;0;0;0;3.402188;-0.9653865;698.8882;692.9307;0.1641775;0.02894419;0;
336.4938;0;0;0;3.800911;1.781884;332.8696;326.1685;0.0990452;-0.1010196;0;
165.9288;0;0;0;3.930814;3.320579;161.5586;157.9876;-0.1609237;-0.1009181;0;
180.9419;0;0;0;5.06594;-2.644117;176.5136;175.0077;-0.09579464;0.22402;0;
-315.5529;0;0;0;6.601091;-3.311167;-311.481;-313.2978;0.03423629;0.2887623;0;
-666.9966;0;0;0;2.776065;0.2421332;-659.1806;-659.7462;0.2291039;0.1585375;0;
-348.8609;0;0;0;1.031963;0.107924;-346.6125;-346.5528;0.2288737;-0.4263279;0;
-182.5938;0;0;0;14.62858;4.327618;-180.5351;-184.0361;0.2286437;-0.2959649;0;
-161.9831;0;0;0;18.16386;6.801639;-159.0519;-164.6109;0.3583487;0.2240713;0;
381.719;0;0;0;11.78259;-2.98446;376.9011;373.2842;0.4879233;-0.36086;0;
705.36;0;0;0;12.84151;-5.526813;697.9858;693.9353;0.09762897;-0.6853341;0;
340.3344;0;0;0;9.212256;2.04769;338.3399;333.3564;-0.1623385;-0.09993938;0;
180.2602;0;0;0;8.131273;2.447408;178.5176;177.2872;0.03272666;0.2899651;0;
174.7068;0;0;0;7.31882;0.435583;174.7775;175.5474;0.1626285;0.1597391;0;
-326.7168;0;0;0;4.900568;1.372906;-317.7131;-318.0685;0.03253036;0.09461121;0;
-656.7849;0;0;0;12.46411;-2.580466;-646.541;-644.772;-0.2273717;0.2894182;0;
-349.8414;0;0;0;13.92545;-3.247581;-345.4173;-343.0255;-0.2921106;0.02925798;0;
-208.6232;0;0;0;8.552823;-0.2302075;-202.267;-204.5627;-0.1618824;-0.2956081;0;
-173.8685;0;0;0;8.209436;-0.2969591;-166.2693;-171.1864;-0.1617197;-0.03544173;0;
390.0229;0;0;0;7.866395;3.990125;388.5565;384.8313;0.03334481;0.2244633;0;
710.7196;0;0;0;7.055183;5.325774;705.3192;699.8485;0.2282133;0.3541724;0;
336.943;0;0;0;6.110089;4.583611;336.7953;330.2058;0.03308199;0.1589145;0;
171.8123;0;0;0;5.032223;5.516766;170.6028;167.5181;-0.09688593;-0.1011146;0;
174.9504;0;0;0;4.491303;-0.2491873;172.0555;170.6606;0.03314611;0.02892173;0;
-325.2865;0;0;0;3.012922;-3.196064;-320.4324;-322.1382;0.2280148;-0.101042;0;
-663.1646;0;0;0;6.358797;2.031694;-654.7547;-655.3344;0.1628184;-0.4257772;0;
-342.6591;0;0;0;7.758927;1.426806;-339.6299;-340.4589;-0.2921166;-0.16548;0;
-185.1438;0;0;0;0.5174622;-3.196328;-183.9917;-187.6309;-0.2268558;0.2244903;0;
-163.9058;0;0;0;0.04842775;-3.595014;-162.3176;-168.0147;0.0982089;0.09433008;0;
384.4209;0;0;0;0.5842425;-9.619743;379.7606;373.8194;-0.09679181;-0.2306014;0;
706.1227;0;0;0;0.1815139;-11.35163;698.5936;691.0966;-0.03172721;-0.3603044;0;
329.727;0;0;0;7.281278;-8.459961;325.9536;318.6516;-0.16163;-0.3599423;0;
166.7275;0;0;0;9.819557;-8.65241;161.4586;159.0364;-0.2914023;0.03022336;0;
166.9972;0;0;0;12.6891;-0.6060075;162.2958;161.7502;0.03372722;0.1601277;0;
-332.1073;0;0;0;16.5621;3.212507;-327.746;-330.1027;-0.03127401;-0.09990259;0;
-655.1111;0;0;0;12.32492;2.405483;-649.6297;-650.2349;-0.3560793;0.09509983;0;
-344.2337;0;0;0;12.11244;5.819196;-346.6914;-346.1091;-0.2257868;0.03003692;0;
-193.0886;0;0;0;21.07525;4.004809;-196.5434;-199.0851;0.03430942;-0.29483;0;
-157.4125;0;0;0;23.66604;4.3357;-161.0511;-164.9646;-0.09565974;0.03030298;0;
387.9716;0;0;0;19.02056;10.22572;377.2777;373.9929;-0.160531;0.09523989;0;
700.2372;0;0;0;19.40359;10.0145;688.492;682.7742;0.0994997;0.03017684;0;
326.9084;0;0;0;17.50906;15.96579;319.9226;313.0236;0.1643671;0.09511387;0;
170.4708;0;0;0;15.88388;18.56196;162.0553;158.7865;0.09923457;0.0950183;0;
171.424;0;0;0;20.75706;6.084852;162.6421;161.8128;0.2940369;-0.03501187;0;
-335.2437;0;0;0;20.60248;4.605113;-335.8958;-337.224;0.2287741;-0.09994403;0;
-659.2438;0;0;0;21.45244;-1.561822;-656.5844;-655.8499;0.09860954;0.2899604;0;
-334.994;0;0;0;22.77005;-6.516868;-336.8975;-334.7894;-0.03142423;0.09476708;0;
-183.296;0;0;0;16.31779;5.613348;-185.0102;-186.6523;-0.1613273;-0.2301649;0;
-158.6866;0;0;0;15.63083;6.277536;-160.1492;-163.7886;0.1636715;-0.2299336;0;
387.3235;0;0;0;12.33357;6.405195;379.1782;376.3545;0.03357233;-0.1647352;0;
701.1514;0;0;0;8.703855;8.609074;691.7025;687.1324;-0.09639609;0.160267;0;
325.2604;0;0;0;22.02435;0.9646126;321.2558;316.0032;0.03363546;0.0301713;0;
168.5747;0;0;0;25.08368;-1.313776;164.4491;162.1379;-0.2912351;-0.164761;0;
174.7771;0;0;0;15.614;2.907346;171.1554;169.9085;-0.3559098;0.03030653;0;
-334.4551;0;0;0;15.86673;1.698854;-329.8898;-333.0095;-0.09568277;0.1602108;0;
-668.0137;0;0;0;12.03239;-1.116136;-662.3286;-664.3832;-0.09558663;-0.09981958;0;
-348.128;0;0;0;9.273638;-2.253724;-348.8828;-350.1857;0.0344441;-0.2946213;0;
-200.0399;0;0;0;17.63706;-8.279679;-199.6695;-205.0941;-0.03055785;0.03051144;0;
-163.3573;0;0;0;18.2899;-10.81671;-161.7379;-168.9686;-0.1604618;0.09544814;0;
394.4641;0;0;0;15.25742;-13.08326;387.7111;382.6115;-0.09533326;-0.2294845;0;
699.1644;0;0;0;15.57688;-16.41914;690.7939;684.2003;-0.2251721;0.03061546;0;
325.5243;0;0;0;11.9439;-8.632745;323.9713;316.01;-0.3548806;0.09555206;0;
174.5854;0;0;0;10.72645;-6.748671;171.5348;167.517;0.2301821;0.03048869;0;
163.7278;0;0;0;11.7874;-13.77485;159.6183;157.9159;0.9445915;0.0954254;0;
-345.9306;0;0;0;11.50714;-13.0913;-341.7901;-345.0525;0.6188057;-0.2944745;0;
-662.0489;0;0;0;9.419472;-14.01579;-656.0385;-657.9858;-0.1614242;-0.4890807;0;
-345.5424;0;0;0;8.003487;-13.73378;-345.2227;-345.419;-0.03132728;-0.2936872;0;
-199.7683;0;0;0;14.35846;-8.026547;-198.387;-202.4561;0.5534103;-0.03352275;0;
-162.7736;0;0;0;16.55483;-5.942134;-161.706;-168.707;0.09808281;0.2263803;0;
394.4225;0;0;0;7.629591;-1.649377;386.0562;379.7494;-0.2918198;0.0312508;0;
709.1177;0;0;0;5.076329;1.165563;698.5735;690.3365;-0.1615919;-0.09871528;0;
329.5332;0;0;0;14.04718;2.369962;324.2469;315.456;-0.09646218;-0.1635834;0;
172.2809;0;0;0;15.03745;3.975172;165.3758;160.904;-0.03139791;-0.09845173;0;
172.1078;0;0;0;8.056114;5.042904;164.7099;162.429;-0.3562031;0.1615166;0;
-342.1817;0;0;0;6.84257;6.109564;-340.7641;-343.7924;-0.2259105;0.1613543;0;
-667.924;0;0;0;5.027033;1.414742;-662.8846;-664.8478;0.2290879;-0.03370988;0;
-341.7289;0;0;0;3.615463;0.07366166;-341.6922;-343.7159;-0.03101164;-0.1636107;0;
-192.2106;0;0;0;4.348764;-1.534003;-192.6111;-198.5683;-0.4207845;0.03145573;0;
-162.5322;0;0;0;4.746536;-4.680537;-163.5571;-171.1949;-0.4853291;0.2912935;0;
392.9769;0;0;0;4.674418;2.08932;383.7073;378.201;-0.4198741;0.2260335;0;
705.1749;0;0;0;6.277311;2.555979;693.7906;685.7912;-0.4844195;0.2907737;0;
330.6543;0;0;0;5.131928;-2.938946;325.3409;315.3505;-0.2240634;0.4204162;0;
177.0865;0;0;0;4.055045;-3.136941;171.7785;166.7956;0.1009985;0.09515706;0;
163.6653;0;0;0;17.51491;-6.215004;156.9258;154.634;0.1658643;-0.0998406;0;
-350.4283;0;0;0;20.37672;-6.275742;-349.415;-353.1412;0.3605997;0.09516177;0;
-664.5432;0;0;0;15.80189;-8.546734;-660.22;-662.3807;0.2303027;-0.0998359;0;
-344.7858;0;0;0;15.98709;-9.341942;-345.7768;-347.3732;-0.3546348;-0.09973557;0;
-206.3838;0;0;0;8.670004;-0.8259662;-206.4992;-212.4668;-0.09440912;0.4201034;0;
-170.1945;0;0;0;5.513461;1.184352;-170.7471;-178.6452;0.4254245;0.3547139;0;
402.8136;0;0;0;0.2156588;6.139777;394.2656;387.1875;0.230095;0.09448814;0;
723.0602;0;0;0;-3.601975;9.348666;714.5208;704.2014;0.0999291;0.2243279;0;
340.4006;0;0;0;-4.134219;6.928009;337.9917;326.4958;0.03486135;0.2890698;0;
178.2024;0;0;0;-5.269141;7.523772;174.0468;167.9973;-0.2900104;0.09387733;0;
169.84;0;0;0;-1.981317;4.703051;164.3767;160.3322;0.03511772;0.2237177;0;
-343.6352;0;0;0;1.436926;2.621855;-340.5348;-347.0114;0.1650171;0.09355821;0;
-667.8143;0;0;0;4.248521;1.815547;-662.0308;-667.2516;-0.3548874;-0.4912419;0;
-339.5579;0;0;0;10.40619;0.07216634;-340.6518;-344.2432;0.03527322;-0.425781;0;
-185.5439;0;0;0;12.74026;-6.492112;-187.1365;-194.16;0.4250418;-0.1654837;0;
-155.9973;0;0;0;15.5405;-10.23651;-158.2129;-166.7911;-0.1600913;-0.4251868;0;
402.0665;0;0;0;40.03991;-7.480047;390.9201;383.2876;-0.2898652;-0.4247596;0;
709.3829;0;0;0;49.51149;-9.013016;696.3736;685.9376;0.1651975;-0.4893001;0;
325.8625;0;0;0;41.55751;-8.200165;318.4885;307.5008;0.2299988;-0.3588738;0;
179.1087;0;0;0;43.92763;-7.254286;171.1174;164.8883;-0.09506897;0.1612255;0;
163.499;0;0;0;41.07045;-14.34694;157.2023;152.9161;-0.1599408;0.2260309;0;
-361.4016;0;0;0;37.74665;-16.34202;-358.6339;-363.4781;0.230024;-0.2289677;0;
-664.9482;0;0;0;39.18259;-10.76613;-660.3093;-663.5869;0.03489082;-0.6185416;0;
-339.8806;0;0;0;36.99977;-10.68833;-339.4942;-342.5186;-0.3549483;-0.1631487;0;
-202.6079;0;0;0;21.42255;-9.605866;-201.035;-207.9919;-0.1596896;0.09688459;0;
-154.5534;0;0;0;13.49777;-8.055607;-154.981;-163.9924;0.1003402;-0.2930168;0;
409.8183;0;0;0;19.98095;-12.13347;399.3336;391.6432;-0.02969529;-0.1627877;0;
707.7566;0;0;0;17.41527;-11.2505;695.9706;686.7261;-0.1596001;-0.1626242;0;
327.2988;0;0;0;14.04887;-13.71744;321.8964;311.5368;-0.1594398;0.03244128;0;
179.4191;0;0;0;14.83904;-14.50745;173.2101;166.484;-0.4191489;0.1623434;0;
165.1209;0;0;0;5.312308;-6.522153;158.8557;154.2603;-0.2238257;0.09721292;0;
-358.9692;0;0;0;2.426582;-5.242924;-356.8573;-362.2601;0.2961379;0.4219519;0;
-670.2018;0;0;0;13.60993;0.7237031;-665.3435;-670.4285;0.1659057;0.09669126;0;
-339.2569;0;0;0;13.79732;4.473898;-339.0262;-345.4804;-0.1590978;-0.29321;0;
-193.6141;0;0;0;12.64536;0.6514976;-192.1342;-203.8918;-0.2239052;-0.09801332;0;
-152.9399;0;0;0;8.546817;2.861158;-152.336;-165.3936;-0.02877824;-0.1628822;0;
408.1194;0;0;0;18.71866;-2.098332;398.8526;388.6192;-0.09371666;-0.09775117;0;
707.2462;0;0;0;20.8433;-2.96688;696.5519;684.1425;-0.1585898;-0.03268561;0;
321.604;0;0;0;-10.12302;1.322887;316.8551;303.0837;0.4262756;0.09728193;0;
182.1009;0;0;0;-15.40414;0.2498308;175.7325;166.5976;0.4908146;0.09718418;0;
179.9189;0;0;0;-38.69823;10.89962;174.4939;166.8675;0.1654847;-0.09781551;0;
-356.2425;0;0;0;-54.73428;14.37166;-352.1668;-360.5352;0.4251878;0.03221746;0;
-676.1611;0;0;0;-14.35677;8.395861;-670.1529;-675.3895;0.3597932;0.03218509;0;
-345.0852;0;0;0;-8.447848;9.794066;-344.3929;-348.6872;-0.03037233;-0.03281459;0;
-201.9352;0;0;0;-23.57726;5.631405;-200.9313;-210.1563;-0.09530915;0.3570224;0;
-143.8239;0;0;0;-20.53946;5.223849;-144.3203;-155.4725;0.09968864;0.03182698;0;
420.8493;0;0;0;-17.16992;5.017652;411.7953;402.4659;-0.03034621;-0.358009;0;
700.9729;0;0;0;-14.33963;4.007865;690.866;680.1717;0.09961896;0.09712209;0;
323.2081;0;0;0;-12.31549;10.23313;320.4827;309.9865;0.1644862;0.2919265;0;
183.8282;0;0;0;-9.691142;10.82569;180.9806;175.5549;-0.2254831;0.2916332;0;
161.0299;0;0;0;-10.48471;15.16858;157.9977;154.8263;0.03461282;0.4212748;0;
-367.2415;0;0;0;-9.336077;16.493;-360.7129;-365.8176;0.4243821;0.2259495;0;
-673.2184;0;0;0;-8.991903;16.87833;-665.7595;-670.7966;0.03415161;-0.03414689;0;
-335.274;0;0;0;-9.853524;19.0047;-335.3812;-340.9755;-0.03085004;0.09582211;0;
-190.3848;0;0;0;-0.1307318;5.120502;-189.7422;-200.0785;0.164083;0.09572583;0;
-151.7753;0;0;0;2.481368;1.297452;-151.5082;-163.0835;-0.03098392;-0.2292071;0;
415.1548;0;0;0;0.7375624;2.9706;406.6136;397.2363;-0.03095278;0.1608273;0;
712.5255;0;0;0;4.554238;-1.118222;702.7434;692.4386;-0.09588902;0.2906004;0;
320.6936;0;0;0;-9.047019;8.595182;316.5436;306.9362;-0.4206294;-0.03452834;0;
174.6321;0;0;0;-12.11939;10.79698;168.7372;164.012;-0.3552394;0.09544105;0;
160.5262;0;0;0;-0.5192845;2.011614;154.2623;151.9782;-0.03004574;0.2252798;0;
-369.8686;0;0;0;-1.523141;1.741661;-368.3801;-371.2866;0.1648865;0.2250535;0;
-669.4712;0;0;0;10.06631;2.610567;-666.1101;-667.8892;0.1647208;-0.1000094;0;
-335.0288;0;0;0;13.53883;2.875875;-335.9814;-339.0081;-0.09531408;-0.0999089;0;
-204.6325;0;0;0;6.491647;3.006952;-204.5222;-212.356;0.03471638;-0.03484116;0;
-151.2036;0;0;0;7.89262;3.338845;-150.6562;-159.9813;-0.03028585;-0.2946755;0;
418.2246;0;0;0;-5.914039;4.273251;412.5872;404.2084;-0.4200595;-0.0994774;0;
689.9176;0;0;0;-10.93194;2.996282;684.0359;674.0414;-0.2897027;0.09552459;0;
306.7292;0;0;0;-6.566697;11.16507;305.3511;296.0538;-0.02954224;0.09542861;0;
176.8611;0;0;0;-9.239416;12.49338;173.7353;168.5078;-0.02951256;0.09533272;0;
150.634;0;0;0;-5.680159;6.787526;148.3234;143.3511;-0.1594176;0.1602043;0;
-377.8144;0;0;0;-4.736446;6.914672;-372.2515;-378.2184;-0.2891921;0.09507595;0;
-672.0991;0;0;0;-7.008863;-5.751806;-664.5428;-668.0674;-0.09399948;0.2249151;0;
-340.1528;0;0;0;-6.600655;-10.83661;-338.2263;-340.7479;0.03602965;0.2896565;0;
-200.0063;0;0;0;-3.177771;-5.601172;-198.0193;-204.9736;0.1009608;-0.2953407;0;
-149.643;0;0;0;-1.834431;-7.002186;-147.3457;-157.6663;-0.02907534;-0.6198806;0;
413.3494;0;0;0;-0.09127576;-8.334686;406.7115;397.6506;-0.4188502;-0.1644864;0;
700.4771;0;0;0;2.721855;-9.331056;690.9722;681.2333;-0.548364;0.09554827;0;
313.0926;0;0;0;-7.394937;-1.752853;308.9696;298.2409;-0.6127803;0.2253869;0;
166.6639;0;0;0;-10.87111;1.598055;161.3582;154.7008;-0.4822299;0.1601931;0;
159.1252;0;0;0;1.598398;-5.503619;153.3875;148.9232;-0.09194133;-0.2297719;0;
-365.0838;0;0;0;2.132655;-5.899987;-362.8198;-367.9043;-0.09184895;-0.2945084;0;
-675.873;0;0;0;0.9924127;-1.138392;-671.3624;-674.5053;-0.09175666;0.09559163;0;
-339.6751;0;0;0;2.129515;-0.1994874;-339.4169;-342.744;0.03827022;-0.03443912;0;
-202.5276;0;0;0;-5.240015;-2.342741;-200.9577;-209.1541;0.2981011;-0.2293065;0;
-148.6011;0;0;0;-5.971684;-1.871506;-148.1573;-158.4068;0.2328343;0.1607279;0;
420.3249;0;0;0;-12.79819;-4.146924;411.8977;403.5325;-0.0922364;0.09559909;0;
691.0787;0;0;0;-17.13861;-5.013535;681.723;672.4916;-0.2220784;-0.1643663;0;
312.2619;0;0;0;-7.676915;-2.7312;309.2249;299.5655;-0.35179;0.2905702;0;
181.1389;0;0;0;-8.875627;-4.26894;177.0429;172.3908;-0.2864691;0.6800823;0;
150.847;0;0;0;-7.59391;3.706074;147.7547;145.356;-0.1562466;0.2895949;0;
-380.8499;0;0;0;-8.72438;6.046752;-373.6318;-377.9645;0.1037798;0.09440189;0;
-668.2601;0;0;0;-8.38082;-3.939536;-658.6129;-661.3171;0.4285122;0.2242417;0;
-331.57;0;0;0;-6.228946;-4.739373;-326.9925;-328.8194;0.2981469;0.02911436;0;
-208.1112;0;0;0;-28.79532;-9.021397;-202.7262;-208.7367;0.2978474;0.2239871;0;
-151.7428;0;0;0;-33.45544;-11.0888;-148.1749;-156.1783;0.2325808;0.2887294;0;
425.0573;0;0;0;-28.86747;-9.804985;419.9385;413.0051;-0.2873917;-0.1663321;0;
695.7439;0;0;0;-29.84284;-11.60367;689.5059;680.4554;-0.3520702;0.4835085;0;
308.1143;0;0;0;-21.23904;-1.477834;307.005;297.339;0.03808756;0.742892;0;
173.4972;0;0;0;-18.73946;1.872798;171.6394;166.7307;0.1030166;0.1574395;0;
150.3344;0;0;0;-1.707693;-2.683923;149.9152;146.0735;0.3627825;-0.1025881;0;
-376.0521;0;0;0;6.533045;-0.9396702;-366.8507;-372.875;0.2974506;-0.3623544;0;
-665.2162;0;0;0;4.584098;-3.550938;-654.275;-658.1693;0.3621191;-0.3619903;0;
-328.7166;0;0;0;9.535984;-4.619097;-325.1576;-327.9861;0.5566573;-0.3616266;0;
-200.5755;0;0;0;2.493805;0.4761249;-197.1451;-203.9062;-0.1585428;-0.4911979;0;
-145.2142;0;0;0;0.8837087;1.078493;-141.3499;-150.3531;-0.3532856;-0.1658676;0;
429.5179;0;0;0;1.887199;-1.133028;425.8196;418.0123;0.1018408;-0.03576628;0;
700.325;0;0;0;-0.5255951;-1.198872;695.7558;686.2698;-0.2880656;-0.1006977;0;
312.8781;0;0;0;-1.932563;-4.211777;315.8723;303.897;-0.5476455;0.09430554;0;
177.5691;0;0;0;-3.269791;-6.217033;180.7477;171.9703;0.03761086;0.4190475;0;
146.7811;0;0;0;-6.615408;-3.799401;149.1443;143.6242;0.3624098;0.5485611;0;
-377.7278;0;0;0;-8.015281;-5.135242;-369.3699;-374.6971;0.2970783;0.3531079;0;
-658.5195;0;0;0;-3.520225;-5.197065;-650.6072;-653.7427;0.1668451;0.4826878;0;
-328.0236;0;0;0;-2.712404;-5.392792;-324.9294;-328.3116;0.2316448;0.4172354;0;
-212.5019;0;0;0;-1.50423;-11.81761;-207.4743;-216.2878;0.1014774;-0.557694;0;
-153.0056;0;0;0;-0.9668552;-13.21226;-149.0451;-159.9112;-0.2884287;-0.817003;0;
440.6623;0;0;0;1.512363;-16.2802;435.4984;426.8921;-0.2881388;-0.03657393;0;
711.8954;0;0;0;2.114056;-18.87605;703.9257;694.8282;0.2318894;-0.1015045;0;
313.4425;0;0;0;0.436992;-13.96745;310.2284;301.3275;0.3615911;-0.4262392;0;
180.8191;0;0;0;1.307209;-14.48928;178.4203;172.7142;-0.158511;-0.0360069;0;
154.6505;0;0;0;-8.539742;-10.38889;152.8788;148.2404;-0.2882864;0.288866;0;
-379.1117;0;0;0;-11.1441;-8.101027;-373.3229;-378.6438;-0.09309468;-0.1012283;0;
-670.8964;0;0;0;-8.318892;-15.7958;-662.3024;-666.2435;-0.4178379;-0.2960286;0;
-330.3931;0;0;0;-9.85175;-16.44976;-326.6178;-330.3051;-0.4823853;-0.03586181;0;
-198.5022;0;0;0;-2.607207;-17.10306;-193.4189;-202.2874;-0.6118353;0.09410892;0;
-144.8921;0;0;0;-0.7969021;-18.49239;-140.8134;-152.5466;-0.6761879;0.2889164;0;
433.7751;0;0;0;0.811489;-14.72289;428.3546;418.6322;-0.6105411;0.2236587;0;
702.3291;0;0;0;3.423618;-14.10525;696.7266;685.5771;-0.4150256;-0.03643537;0;
309.1956;0;0;0;-1.135149;-14.15806;309.2834;298.2076;0.1700975;-0.1663335;0;
180.2621;0;0;0;-1.602523;-12.4024;178.6631;172.1587;0.3648286;-0.3610683;0;
146.2855;0;0;0;0.2741209;-15.605;144.813;139.8144;0.0396253;-0.3607055;0;
-384.4698;0;0;0;0.2074725;-16.25915;-377.9448;-384.3127;0.1695202;0.02946095;0;
-655.697;0;0;0;-3.075266;-9.678604;-646.7422;-652.4166;0.3642519;0.09439871;0;
-326.0785;0;0;0;-4.679766;-9.066032;-322.2551;-326.4246;0.1689838;-0.2305329;0;
-209.4968;0;0;0;-0.8566706;-7.047557;-206.4269;-213.3407;-0.1560227;-0.5551379;0;
-138.197;0;0;0;0.4833609;-5.7678;-135.9423;-145.3479;-0.2858006;-0.4896128;0;
438.2772;0;0;0;-6.21493;-12.32621;433.3457;424.8241;-0.4154481;0.03061791;0;
691.147;0;0;0;-8.218417;-13.85431;684.9086;675.7709;-0.479998;0.03058714;0;
310.5809;0;0;0;0.8995194;-15.71591;308.9091;300.9049;-0.349581;-0.09937827;0;
188.0178;0;0;0;2.438857;-17.24073;186.2227;181.7248;0.0405743;0.2255583;0;
142.4767;0;0;0;-0.9124961;-19.63467;142.8073;139.0011;0.3653702;0.1603643;0;
-390.1488;0;0;0;-0.7778574;-21.89236;-381.885;-385.6249;0.6248725;0.3551052;0;
-662.4323;0;0;0;-2.986902;-15.909;-653.4896;-654.7894;0.4943099;0.3547484;0;
