Fp1;Fp2;O1;O2;POLY3;POLY4;A1;A2;Video;Audio;event;
738.9337;0;0;681.4946;13.13197;-4.844733;732.7098;729.6656;0.01325334;0.2453167;0;12:35:30 Глаза открыты;
388.492;0;0;389.4562;13.31985;-7.184268;387.3968;383.8559;-0.5064987;-0.07976653;0;
163.0273;0;0;180.9195;18.5304;-7.377997;162.4954;163.2059;-0.1811531;0.180183;0;
183.8529;0;0;199.6657;20.18672;-9.915813;183.0717;186.4676;0.07889832;0.05006727;0;
-294.404;0;0;-241.2509;14.40566;-5.552081;-288.063;-285.67;-0.2460177;0.1799516;0;
-698.4675;0;0;-646.8044;12.85094;-4.675725;-690.0714;-686.9936;0.1440336;0.3746729;0;
-409.5355;0;0;-412.7719;11.02937;-10.9673;-407.0824;-403.1331;0.2738235;0.114427;0;
-204.4769;0;0;-224.5765;8.741112;-11.15723;-202.8383;-202.3913;0.01367903;-0.01562266;0;
-196.3379;0;0;-220.7901;5.718219;-15.16487;-195.5755;-197.3153;0.1436;-0.0805743;0;
335.9044;0;0;269.373;4.037534;-17.89594;327.5456;326.6197;-0.181381;-0.08049335;0;
735.6158;0;0;670.588;1.82365;-8.969344;725.3914;722.7797;-0.3761008;-0.1453798;0;
383.4283;0;0;376.9364;1.487025;-8.089676;380.398;377.664;-0.05088618;-0.08026639;0;
161.9667;0;0;172.91;1.685626;-8.885221;159.2518;160.456;0.2740017;0.04974896;0;
174.1103;0;0;183.1061;2.019701;-7.40279;170.1487;173.1009;0.2737263;-0.08023572;0;
-298.7646;0;0;-254.8578;8.916547;-13.49068;-295.8506;-294.4006;-0.2462874;0.1147469;0;
-699.5753;0;0;-658.3988;10.71625;-14.41476;-693.166;-691.9048;-0.3759747;-0.01530306;0;
-416.8266;0;0;-431.8508;15.66197;-13.5295;-415.1089;-414.0989;-0.05076016;-0.3401244;0;
-203.015;0;0;-235.0156;17.78969;-13.85082;-201.1116;-204.2256;0.1441929;0.1149888;0;
-206.3093;0;0;-237.5905;16.76646;-13.90388;-203.9081;-209.2053;0.4039173;-0.01506146;0;
311.263;0;0;244.7809;18.15613;-14.42578;304.7912;301.9356;0.3385442;-0.2749157;0;
741.4213;0;0;677.5673;9.36398;-9.789581;730.5208;726.9809;0.07833461;0.1801319;0;
402.3464;0;0;394.4034;8.416567;-9.176898;397.0165;392.4182;0.01328856;0.1149836;0;
174.1192;0;0;184.0502;1.509234;-6.622447;169.7317;169.3858;0.1432099;-0.01506662;0;
203.6168;0;0;210.102;-2.243327;-5.008203;199.7959;202.0741;0.2730007;0.04991587;0;
-280.4071;0;0;-239.3208;9.145782;-10.49565;-274.6664;-273.3276;0.1427917;-0.4049057;0;
-712.533;0;0;-668.3021;9.672455;-10.75303;-702.9875;-700.9628;-0.1172212;-0.3395315;0;
-422.0252;0;0;-430;18.23655;-16.56962;-418.6112;-415.7141;-0.05213604;-0.07932097;0;
-201.9616;0;0;-224.1087;22.30406;-19.902;-197.9888;-199.2799;-0.117051;-0.2741433;0;
-207.6307;0;0;-231.4422;18.46326;-14.45651;-201.4755;-206.2011;-0.4417701;-0.07896581;0;
323.3736;0;0;257.1074;20.45444;-15.9156;322.0264;319.9917;-0.4413262;0.1809829;0;
751.2709;0;0;689.3817;10.5209;-10.943;746.6143;744.3942;-0.3759154;-0.01410097;0;
407.5635;0;0;405.0815;5.955002;-7.917892;409.1583;404.5042;-0.1156683;-0.1440215;0;
179.5184;0;0;195.5296;13.51846;-19.1627;181.8612;181.1473;0.1443173;-0.07890943;0;
194.0181;0;0;211.2001;13.10273;-19.94724;195.2342;197.2071;0.07920492;-0.07883015;0;
-294.244;0;0;-241.0349;4.583099;-16.24326;-284.9083;-285.1237;0.20906;0.3110531;0;
-706.9907;0;0;-655.2094;3.305696;-15.42314;-692.7294;-692.9446;0.2738173;0.1808059;0;
-411.9283;0;0;-414.5466;-1.185604;-14.00101;-403.4908;-403.5809;-0.1162619;-0.4690492;0;
-201.1202;0;0;-220.0402;-4.868108;-14.05392;-194.3778;-197.8411;0.01378962;-0.07877386;0;
-202.6047;0;0;-222.88;11.88227;-2.854014;-195.4319;-200.7657;-0.05119158;0.1162073;0;
323.8344;0;0;264.6615;16.96055;0.3640341;322.4418;318.4876;-0.3759769;-0.4036482;0;
738.3629;0;0;681.6233;4.01641;-0.306161;733.536;728.7112;-0.2456644;-0.2083406;0;
391.9822;0;0;395.8317;2.940648;3.043171;394.0317;388.5247;0.4042559;-0.2081312;0;
164.7024;0;0;188.2256;11.24309;-10.49007;167.9367;166.1833;0.6637191;-0.5977261;0;
187.1506;0;0;206.4648;12.10245;-13.82856;189.1947;189.1297;0.07834606;-0.6620929;0;
-282.1767;0;0;-230.2733;12.15764;-7.920408;-273.5129;-275.6393;-0.05166734;-0.3365909;0;
-694.5607;0;0;-645.5206;14.0878;-9.251987;-682.22;-683.3447;0.07831925;-0.01141598;0;
-415.3153;0;0;-419.3603;5.16504;-5.08987;-408.1094;-407.5464;-0.05169412;-0.1413392;0;
-197.4448;0;0;-217.2278;3.351188;-2.941424;-192.1202;-194.8686;0.0782925;-0.3360992;0;
-193.4983;0;0;-215.3853;6.831421;-6.622407;-187.6793;-193.236;0.2081485;-0.4007288;0;
319.5633;0;0;262.0287;4.948547;-6.280838;317.8802;313.7659;-0.246832;-0.3353588;0;
733.2216;0;0;679.0557;15.66084;-0.3131686;727.3549;722.4326;-0.3115513;-0.2050872;0;
393.4053;0;0;395.7029;19.19508;1.294737;393.1042;387.1248;-0.05136893;-0.2048811;0;
167.1236;0;0;184.2864;9.530252;2.365041;166.6978;165.3471;-0.181252;-0.009773219;0;
188.0076;0;0;198.0942;9.118534;4.037237;186.5202;188.1694;-0.05113519;0.05520396;0;
-285.0686;0;0;-240.0097;7.971272;0.5501902;-278.2462;-278.2228;0.07885087;-0.3346556;0;
-695.7006;0;0;-649.6875;5.686087;0.2147227;-684.7621;-684.364;-0.1161304;-0.07444995;0;
-415.4546;0;0;-423.5855;9.56514;0.1475241;-409.712;-409.0019;-0.05104635;0.4453636;0;
-210.5774;0;0;-233.0055;9.287108;-0.4554706;-206.0899;-208.6914;0.07893962;0.3149814;0;
-208.3669;0;0;-232.2716;7.737535;-0.9238935;-204.1962;-208.2318;-0.1160417;0.1197629;0;
319.2024;0;0;252.4682;8.399346;-2.262624;315.0606;311.9036;-0.1808925;0.1846099;0;
736.7341;0;0;671.4413;1.424681;2.964196;729.2856;725.0073;-0.3106454;0.3793264;0;
395.3526;0;0;390.4076;-1.389789;4.300877;394.4083;389.822;-0.3103333;0.4439126;0;
168.4442;0;0;181.8074;5.846252;-0.4591111;168.4379;167.167;-0.05015206;0.1186299;0;
194.2619;0;0;202.4268;5.370887;-0.7935644;191.4445;192.7986;0.07983302;-0.3362607;0;
-279.4453;0;0;-236.9933;7.576293;-1.663545;-275.5757;-274.9726;-0.05018188;-0.4658575;0;
-706.2623;0;0;-660.917;9.577436;-2.733601;-697.1493;-696.9216;-0.1150988;-0.2055201;0;
-415.6984;0;0;-422.9347;0.6601809;-1.592144;-411.2796;-410.5524;-0.1149831;-0.07537889;0;
-187.2078;0;0;-211.9281;0.05630512;-2.193391;-183.7305;-186.2524;-0.04990027;-0.5300745;0;
-205.5104;0;0;-233.0169;0.1899704;0.153216;-201.412;-206.7424;0.2749866;-0.3996072;0;
303.5028;0;0;235.107;0.3235013;1.961601;298.7891;296.0252;0.1447756;0.0555657;0;
740.603;0;0;673.5253;1.193832;-2.193312;731.5837;728.8226;-0.3751086;0.2504119;0;
404.2775;0;0;396.1127;0.121882;-0.918432;401.7015;396.9442;-0.4396991;0.5100296;0;
167.4901;0;0;178.6987;15.99562;-0.9844921;166.5409;165.9738;-0.1144205;0.1197131;0;
189.8105;0;0;201.9449;21.2718;-0.5816053;188.6749;191.669;-0.04933822;-0.2052439;0;
-282.1431;0;0;-232.977;15.7571;9.13126;-275.6564;-274.6643;0.2755481;0.05483171;0;
-695.2143;0;0;-648.409;19.15752;12.33714;-685.7357;-684.3698;0.4052059;-0.1401254;0;
-411.9702;0;0;-418.3727;10.90022;17.61628;-407.6861;-404.8847;0.01499467;-0.3348866;0;
-202.5364;0;0;-219.802;8.94591;22.55519;-197.5693;-199.0187;0.2098816;-0.2046155;0;
-202.6452;0;0;-218.769;16.17157;16.70526;-196.059;-201.13;0.2746381;-0.3343446;0;
315.2982;0;0;258.5235;16.22169;17.02339;313.0697;310.1277;-0.1804093;-0.2040739;0;
734.0208;0;0;678.1152;19.68899;21.561;727.2343;724.1078;-0.2451953;0.2509025;0;
405.1981;0;0;406.7574;21.47787;22.0752;404.2905;399.7929;-0.05004693;0.2506504;0;
176.2808;0;0;196.5791;21.12149;20.98129;176.5611;175.941;0.0149707;0.05549655;0;
187.6604;0;0;204.8773;22.70689;20.55831;186.9408;188.2579;0.1448903;-0.1394612;0;
-284.9157;0;0;-232.8586;20.60797;20.40369;-278.3257;-278.884;0.4695815;-0.07435378;0;
-702.9817;0;0;-648.4156;19.98502;19.57939;-692.9625;-692.3333;0.4041423;0.1855903;0;
-416.419;0;0;-415.5059;22.71063;18.88989;-411.8447;-410.404;-0.1809699;-0.1394329;0;
-187.7403;0;0;-203.5697;22.15195;17.86616;-182.7958;-185.2296;-0.05085336;-0.7889662;0;
-201.857;0;0;-217.483;22.46448;15.97281;-195.8554;-200.2859;0.4039691;-0.4633367;0;
300.9682;0;0;246.8147;22.30819;13.81331;297.7184;295.1664;0.07872652;-0.008099781;0;
739.2578;0;0;684.9089;17.26193;15.67495;732.2631;728.402;-0.181222;0.05687571;0;
406.8068;0;0;408.7966;15.50327;15.32428;406.4408;400.6469;0.0788295;-0.07311613;0;
161.1463;0;0;181.1251;14.28225;8.2758;161.3429;159.2405;0.01378295;-0.2679447;0;
185.7844;0;0;202.1824;12.92775;6.258118;184.9813;185.6297;-0.1161656;-0.1377408;0;
-276.0453;0;0;-224.0566;11.03973;4.577257;-268.7266;-269.3907;0.3387225;-0.00766769;0;
-696.1191;0;0;-645.0572;9.152622;2.295238;-684.1851;-683.9741;0.7281862;-0.007659985;0;
-419.9331;0;0;-425.1443;15.03792;4.369402;-413.196;-411.9857;0.5325525;-0.07261963;0;
-204.994;0;0;-227.7536;16.6304;3.226302;-200.2627;-202.4268;0.4020827;0.05738804;0;
-204.2258;0;0;-227.2124;10.92027;5.433497;-198.7496;-203.098;0.271744;-0.007636984;0;
309.0965;0;0;249.5264;10.10599;5.562004;307.1334;304.4761;-0.05336573;-0.137564;0;
731.3235;0;0;671.1886;12.50673;4.216756;724.8647;721.2729;0.07662258;-0.2023931;0;
405.0648;0;0;399.8377;12.36044;5.217263;404.2346;399.5221;0.2714476;-0.00728772;0;
173.2117;0;0;187.4175;11.14257;-5.17009;173.8191;172.547;0.0113055;0.3825237;0;
188.0301;0;0;202.2842;10.72923;-8.848834;188.7618;189.8024;-0.1186405;0.3821393;0;
-281.8603;0;0;-228.9524;8.106485;-0.735252;-273.6955;-273.2806;-0.1834887;0.1868533;0;
-706.301;0;0;-651.3849;6.289679;-0.3326156;-695.7707;-694.4192;-0.118337;0.2516329;0;
-420.0474;0;0;-424.0943;7.957322;-0.8011619;-415.5246;-413.6122;-0.05325072;0.05647803;0;
-186.43;0;0;-212.5868;7.07867;1.343097;-182.8488;-183.8744;-0.2480992;-0.2034481;0;
-205.6705;0;0;-229.4896;6.603043;-1.471536;-200.5311;-203.4297;0.01201942;-0.07330899;0;
298.9077;0;0;236.5069;6.863852;-0.06341556;296.4207;294.5245;-0.1179273;-0.008267989;0;
745.0079;0;0;678.422;2.302604;1.477256;738.3381;735.3193;-0.3127109;0.121675;0;
406.3667;0;0;398.9429;2.032846;0.9399078;406.0753;402.9347;0.3372768;0.2514874;0;
156.1465;0;0;171.1564;0.5569353;12.99553;156.7299;158.0902;0.2719705;0.3811694;0;
187.4113;0;0;200.5945;-0.4480023;15.32687;186.9322;190.6649;-0.05313946;0.5756884;0;
-271.6089;0;0;-224.2061;6.049182;13.77086;-264.2789;-262.0493;0.4016853;0.2502733;0;
-699.4958;0;0;-652.7653;6.511619;15.36462;-688.55;-685.5729;0.271347;-0.3346843;0;
-418.5588;0;0;-426.0355;12.73437;4.029305;-412.9963;-408.2106;-0.3136317;-0.07447862;0;
-193.3762;0;0;-220.7729;15.60196;1.212095;-188.7563;-187.0989;-0.5082186;0.1204983;0;
-205.3008;0;0;-237.0428;8.821128;-3.009047;-200.3732;-202.2157;0.1419655;-0.3343942;0;
301.2135;0;0;232.0222;9.013335;-6.756946;297.8278;296.7993;0.4666595;-0.5289602;0;
731.382;0;0;667.2577;3.310851;-4.338771;724.439;723.0991;-0.1185154;-0.4634614;0;
409.6834;0;0;405.7184;1.030349;-6.611831;409.0567;406.9686;0.07650568;0.05674303;0;
176.5762;0;0;191.9804;2.703277;4.044855;177.0746;178.9241;0.3362982;0.1866207;0;
183.5202;0;0;197.9719;1.294041;8.126627;183.8931;188.177;0.01112355;-0.0734362;0;
-281.7429;0;0;-230.6991;6.182861;-0.2541609;-273.8117;-271.0313;-0.05385496;0.1215396;0;
-699.5622;0;0;-646.2583;7.114653;0.281958;-687.9532;-684.7384;0.2710359;-0.2683866;0;
-428.0579;0;0;-426.0943;8.379326;4.300529;-421.8954;-417.6218;0.3357309;-0.5279862;0;
-198.8053;0;0;-214.085;10.04585;6.305696;-194.2107;-192.8774;0.3353935;-0.07268433;0;
-203.9778;0;0;-221.6785;7.423783;1.945469;-199.013;-200.2423;0.0102198;-0.00764396;0;
298.3498;0;0;242.7484;7.550045;1.474756;295.9382;295.4598;-0.1846925;0.2522331;0;
741.5146;0;0;687.4059;6.33701;8.707187;736.2319;734.6295;0.07536245;0.316947;0;
411.3726;0;0;417.1007;5.392638;10.57396;412.6544;410.2416;0.01031939;-0.008208195;0;
158.7735;0;0;184.9231;4.382842;11.16618;160.2415;162.3912;0.1402437;-0.1381346;0;
187.4744;0;0;205.1645;2.502428;12.29355;186.6296;190.7137;0.2050701;-0.2029632;0;
-272.233;0;0;-221.6397;4.844438;16.30017;-265.5182;-262.9375;-0.18494;-0.007857211;0;
-707.9278;0;0;-653.7622;4.036263;18.56109;-697.7216;-692.957;-0.2497215;-0.07281666;0;
-426.9823;0;0;-429.3427;1.687683;13.45186;-423.0332;-417.2115;-0.2494706;-0.007776149;0;
-189.4225;0;0;-210.6461;0.9490525;12.76851;-185.2275;-183.7219;-0.3791546;0.1221664;0;
-198.415;0;0;-216.9311;-4.276814;12.88965;-192.8499;-193.8446;-0.0539369;-0.2027931;0;
298.7845;0;0;245.9293;-6.549692;11.26923;296.2856;296.7912;0.01108464;-0.332524;0;
730.3922;0;0;677.9024;-6.074596;14.80788;724.3975;724.3404;-0.1188612;-0.4621246;0;
410.1314;0;0;410.9176;-7.206593;15.66378;408.7654;407.5215;0.1411276;-0.07185619;0;
172.8384;0;0;190.9901;-6.864559;10.82539;170.974;173.9167;-0.05391622;0.2530527;0;
187.0325;0;0;202.2299;-6.321798;10.41262;185.2325;190.4211;-0.5086334;-0.2019729;0;
-277.2347;0;0;-226.9452;-7.25345;11.80867;-270.4747;-267.4153;-0.3132203;-0.2667373;0;
-701.9924;0;0;-648.5051;-6.64295;12.39965;-692.4282;-688.1224;-0.05303624;-0.0715673;0;
-427.7996;0;0;-428.3388;-0.9428477;13.32496;-425.9285;-420.2528;-0.247885;-0.006528048;0;
-197.4228;0;0;-216.2023;2.875517;14.18235;-196.4282;-194.9436;-0.1177012;0.1234132;0;
-201.5348;0;0;-223.7937;-4.093597;16.91427;-198.2298;-199.8701;0.2072538;0.1232892;0;
295.0432;0;0;230.2031;-5.964519;17.29918;289.9741;289.6472;-0.1827585;0.1231653;0;
723.4063;0;0;658.4439;10.38482;21.03284;713.6571;712.2062;-0.2475422;-0.2017952;0;
398.6548;0;0;392.5406;13.72329;21.34662;395.2872;392.151;0.3374126;-0.2665597;0;
162.9975;0;0;176.7545;7.614908;19.91853;160.4453;161.4353;0.4020409;0.1235122;0;
201.8766;0;0;211.9341;8.812705;19.76455;197.4529;201.7527;0.5315716;0.3182901;0;
-258.1576;0;0;-213.69;-0.5732721;10.30034;-255.2055;-252.9715;0.1412334;0.1230682;0;
-706.6102;0;0;-661.5001;-3.787877;7.275756;-699.1633;-697.8061;-0.3786472;-0.07195745;0;
-433.5995;0;0;-444.0069;-3.114486;3.383558;-431.0327;-428.6774;0.2064393;-0.00691781;0;
-197.095;0;0;-224.9831;-6.393886;-0.2367985;-195.9675;-195.801;0.4661012;0.1879912;0;
-213.6386;0;0;-242.6856;-0.8951047;5.255918;-212.5747;-214.907;0.07582885;0.0578676;0;
281.7647;0;0;216.1403;-0.5584366;5.987449;274.8315;274.3131;-0.2490841;-0.2020599;0;
730.8182;0;0;667.571;-3.237193;4.306859;720.0189;719.2512;-0.5087031;-0.006954868;0;
418.3656;0;0;410.8415;-2.832774;4.235549;411.4502;409.3089;-0.1833553;0.05801948;0;
177.1287;0;0;190.914;-4.973382;12.53693;170.0329;172.0792;0.01173098;-0.3968102;0;
200.6264;0;0;214.1479;-5.235828;15.8065;194.1624;198.7053;0.07668653;-0.2015095;0;
-263.592;0;0;-215.289;-6.369643;8.556582;-261.5538;-259.1393;0.4664135;-0.07137232;0;
-704.293;0;0;-653.1025;-7.233899;7.476257;-698.946;-695.8468;0.1411082;-0.3961373;0;
-438.2812;0;0;-441.6147;-6.355974;10.0141;-438.3118;-433.8415;-0.1838703;-0.5256739;0;
-207.0818;0;0;-231.1516;-7.82248;9.200239;-208.0494;-207.644;-0.1187182;-0.2003091;0;
-215.182;0;0;-239.4775;-1.652678;5.105158;-216.0862;-218.6173;-0.2485336;0.0597616;0;
284.783;0;0;224.0303;0.6935068;3.09054;275.6963;275.854;-0.1833166;0.05970155;0;
728.5237;0;0;668.769;-8.550591;1.814759;715.6355;715.918;0.1417044;0.1246089;0;
412.0128;0;0;409.7893;-8.876792;0.2724502;405.2596;403.7926;0.141562;0.2544184;0;
173.531;0;0;192.1743;-12.75361;0.0712277;168.2213;170.5664;0.2063871;-0.3305433;0;
196.6575;0;0;214.5323;-15.955;0.07115613;190.4161;195.32;0.3361144;-0.3951786;0;
-266.8073;0;0;-213.6556;-4.150952;-1.067625;-266.1084;-263.5832;0.4657113;-0.004977433;0;
-704.9438;0;0;-649.9715;-2.270772;-0.7986208;-700.2477;-697.0378;0.1404067;-0.3947765;0;
-432.9344;0;0;-433.3644;-2.469561;2.685172;-432.9905;-428.0973;-0.1196038;-0.2644451;0;
-192.3701;0;0;-211.7277;1.015545;4.156099;-193.6131;-192.5978;-0.05451626;0.4504614;0;
-204.8579;0;0;-223.8213;-9.434324;5.826496;-206.3495;-209.5206;-0.1843962;0.4500087;0;
288.6625;0;0;229.6758;-12.37161;6.423366;277.8645;275.8835;-0.3141456;0.3845892;0;
738.5836;0;0;679.2814;-0.9059474;11.44051;723.986;721.6946;-0.1838952;0.5791048;0;
413.692;0;0;414.5441;0.03296795;13.77342;406.0429;402.3795;0.07615891;0.5135556;0;
158.9666;0;0;178.3086;-2.713732;6.860457;152.6371;152.1633;0.1410497;0.1232355;0;
192.5399;0;0;207.5521;-2.175141;6.652615;186.2168;188.9918;0.01097332;0.1231117;0;
-258.8643;0;0;-205.8237;-5.454509;2.49311;-256.0606;-253.6007;0.01096229;0.3828574;0;
-700.632;0;0;-644.2714;-5.247958;-0.05462411;-694.4578;-691.813;0.2708206;0.1226033;0;
-432.4999;0;0;-433.917;-10.73504;6.64348;-434.5778;-430.8737;0.0756465;-0.2023566;0;
-191.5612;0;0;-217.9018;-13.60464;7.373617;-197.1977;-197.183;-0.1842989;-0.07221862;0;
-198.6151;0;0;-229.4895;-3.677986;8.638884;-205.3079;-207.7294;0.01078833;0.05778864;0;
290.5262;0;0;223.6385;-2.669913;10.90762;274.8446;274.9243;-0.1191572;0.05773058;0;
729.0762;0;0;664.3796;-2.733603;9.021141;710.6617;709.5544;-0.5088415;-0.007294787;0;
413.7518;0;0;405.7167;-0.9221951;9.882854;401.9775;398.8098;-0.5732976;-0.0722548;0;
175.2057;0;0;185.6695;-4.807011;13.22195;162.8186;164.2143;-0.1179501;0.3825892;0;
202.3909;0;0;207.0346;-4.266317;14.68229;187.2676;192.9098;0.07707042;0.7720088;0;
-255.5199;0;0;-217.5227;-9.485967;12.99296;-264.3187;-259.7441;0.2069277;0.3164617;0;
-701.0391;0;0;-659.7692;-12.42417;11.8412;-705.5187;-700.8862;0.3366544;0.2511764;0;
-443.1514;0;0;-456.5206;-2.162934;18.52747;-453.4986;-447.9338;-0.2483899;0.5107934;0;
-198.329;0;0;-230.8001;-0.2857265;19.91549;-211.9766;-209.6033;0.07669637;0.1854434;0;
-207.5;0;0;-239.7511;-6.112588;12.66145;-219.8845;-219.9499;0.4664234;-0.1395796;0;
278.2145;0;0;207.5151;-6.441239;11.71097;259.783;261.1544;-0.1837187;0.12043;0;
731.5819;0;0;660.6412;-3.822799;6.072876;710.2953;710.1662;-0.2485015;0.3801784;0;
405.198;0;0;394.0486;-3.014674;2.315729;390.8668;388.364;0.1415523;0.1848943;0;
146.9829;0;0;157.0216;-5.289797;7.872864;134.2904;136.0379;-0.05349198;0.05477386;0;
191.4378;0;0;195.5319;-5.016062;6.994175;176.759;182.1905;0.07649645;0.1846535;0;
-259.2781;0;0;-222.3296;-5.815305;6.384301;-269.4444;-265.4552;0.336289;-0.07540141;0;
-709.9159;0;0;-672.6923;-6.74649;6.91375;-718.5103;-713.9004;0.01111434;-0.4651297;0;
-437.9015;0;0;-457.9989;1.364613;2.887949;-451.9845;-446.6296;-0.05386417;0.05507641;0;
-193.8339;0;0;-231.7147;4.712144;2.483149;-207.3405;-206.0515;0.07612464;0.3798578;0;
-205.1334;0;0;-240.9771;-4.535991;1.00703;-215.8153;-217.3387;-0.1838212;0.1845741;0;
283.4523;0;0;212.2249;-6.340095;-0.4005018;266.2218;266.1368;-0.3785385;0.3792906;0;
727.0693;0;0;656.6006;4.249824;5.092379;705.6708;704.8362;-0.1832562;0.3139422;0;
413.2461;0;0;397.1959;6.321658;6.025023;396.3669;394.2838;0.1417647;0.2486594;0;
167.6416;0;0;170.0358;1.760955;5.34914;151.4665;152.0716;0.0766549;0.05350751;0;
192.8979;0;0;194.3526;2.361422;6.884251;176.1143;179.0302;-0.05335681;-0.4013177;0;
-258.8814;0;0;-221.8835;-0.7214339;2.523565;-268.4018;-266.0511;0.1415988;-0.2709797;0;
-693.4652;0;0;-654.0682;-2.596719;1.8512;-697.9161;-695.3803;0.2064239;-0.1407728;0;
-435.2728;0;0;-446.3276;0.08520729;5.06452;-441.7807;-438.8727;0.2711838;-0.01069663;0;
-202.1399;0;0;-227.7388;-2.124705;4.992448;-208.8287;-209.4218;0.3358787;0.2491835;0;
-206.2472;0;0;-229.6339;6.049104;7.666627;-214.1785;-217.957;0.01070447;0.1189984;0;
284.6509;0;0;223.4942;9.927792;8.730651;268.6066;266.9559;-0.314143;-0.07602318;0;
739.1988;0;0;671.1071;-8.971127;6.24351;719.0477;717.586;-0.1838927;-0.2708488;0;
420.8657;0;0;406.8777;-11.64143;5.969427;405.5449;402.8353;0.07616149;-0.335544;0;
157.8248;0;0;168.1512;-9.753722;6.767101;143.5189;145.1224;0.5308564;-0.2052722;0;
201.5816;0;0;208.2744;-14.03083;6.693319;185.9783;189.7041;0.4003883;-0.2050659;0;
-238.4623;0;0;-198.418;3.264621;5.079125;-246.3664;-246.4549;0.2700513;-0.07492518;0;
-698.6163;0;0;-652.7402;6.743965;4.873073;-701.7648;-702.1031;0.3997146;-0.1398172;0;
-440.6686;0;0;-447.3747;-0.161687;2.523774;-448.4991;-448.0874;0.399313;-0.2696114;0;
-191.0386;0;0;-216.7909;1.579788;0.8467865;-199.5484;-203.4474;0.3989117;-0.3992752;0;
-207.7756;0;0;-233.5645;-6.593473;6.74019;-217.7136;-222.8582;-0.1861952;-0.0740373;0;
277.5018;0;0;212.0713;-8.261787;8.073075;257.3289;254.6884;-0.9006488;0.1209391;0;
739.9279;0;0;672.4392;-10.39694;4.916888;715.5275;712.1399;-0.4449725;-0.4638885;0;
426.779;0;0;416.4544;-13.26591;5.313845;408.7748;404.7035;0.1401807;-0.4634224;0;
169.4792;0;0;180.3419;-5.550392;3.499967;151.3683;152.2985;0.2050072;-0.07315266;0;
198.9815;0;0;209.5834;-4.204669;2.35774;177.7029;182.5052;0.2048012;-0.3979159;0;
-246.2447;0;0;-204.5441;-4.602585;6.240259;-260.568;-258.5815;0.4644648;-0.2675813;0;
-686.6508;0;0;-648.8652;-2.789299;6.702869;-696.9617;-695.7893;0.07419404;-0.07241046;0;
-433.3378;0;0;-448.8759;-0.4419721;4.083922;-449.8852;-446.5276;-0.5105866;-0.007370362;0;
-195.022;0;0;-229.2225;2.773653;3.276023;-213.8016;-212.6963;-0.05530215;0.1875391;0;
-199.6361;0;0;-233.0527;-3.25833;4.411441;-218.2719;-220.3536;0.1396554;0.05741596;0;
284.6337;0;0;215.7685;-4.661576;4.540975;257.9581;256.0035;-0.1203543;0.1872929;0;
738.5569;0;0;664.0763;6.261448;0.249626;706.9106;704.5831;-0.1852007;0.3170394;0;
425.8466;0;0;405.9759;7.795398;-1.224249;399.8543;397.0294;-0.1850146;0.1867862;0;
162.6758;0;0;162.3152;6.984258;-0.3522411;139.0209;140.2593;0.140008;0.05666383;0;
201.6801;0;0;193.5739;8.182689;-1.691546;176.3624;181.2227;0.4647041;-0.0733278;0;
-235.8652;0;0;-206.5446;3.217974;0.9223662;-254.9731;-251.6793;0.3343025;-0.2681561;0;
-692.9608;0;0;-653.7372;2.678877;1.926183;-705.9901;-703.0744;0.07409718;-0.332854;0;
-439.5166;0;0;-453.1808;-0.873788;-2.161589;-455.1564;-451.9314;0.1389901;-0.1376176;0;
-190.1376;0;0;-223.4657;-2.213057;-1.824502;-206.3239;-206.8502;0.4636871;0.1223901;0;
-197.5052;0;0;-234.548;-0.9380353;-3.966123;-217.2985;-220.0107;0.2683192;0.3821365;0;
286.0128;0;0;203.3427;-1.7404;-5.033742;250.5598;249.5995;-0.05678714;0.0569158;0;
743.4328;0;0;653.9743;6.164603;-0.2730185;701.0815;698.9977;0.0732046;-0.3979128;0;
434.2159;0;0;401.0065;8.636655;-1.076539;399.0285;395.7599;0.1380984;-0.2026109;0;
175.2845;0;0;166.4713;6.886665;5.488748;141.132;143.1765;0.3328617;-0.07247268;0;
206.4676;0;0;197.4758;7.148165;7.492599;170.4129;176.0785;0.5274292;-0.3322692;0;
-233.0815;0;0;-210.5801;8.212709;-1.356433;-262.7282;-259.3796;0.1370952;-0.1370333;0;
-677.9361;0;0;-654.3953;6.931659;-2.091882;-704.2422;-701.3342;-0.1878793;0.1879411;0;
-429.442;0;0;-460.2725;5.651896;-10.12749;-462.7805;-458.5637;0.2021136;-0.3969539;0;
-185.1955;0;0;-242.5443;5.177703;-14.13629;-222.7485;-221.222;0.2019105;-0.2666203;0;
-182.5732;0;0;-244.9867;-7.420779;-11.3088;-221.3378;-222.6239;-0.1231291;0.188419;0;
297.1193;0;0;201.2228;-11.23074;-13.84279;250.5851;250.5496;-0.3179074;-0.3315091;0;
746.1573;0;0;651.2943;-12.7597;-7.197691;696.4215;696.511;-0.1876533;-0.5910453;0;
441.6228;0;0;405.7005;-16.16313;-5.314937;397.8715;396.3992;0.07240463;-0.2006474;0;
183.3087;0;0;171.9726;-7.707768;-9.26159;139.2265;141.5663;-0.3824395;0.1893583;0;
217.6072;0;0;201.6598;-7.029462;-7.711676;170.6957;176.1565;-0.1871532;0.5140047;0;
-220.0791;0;0;-204.1514;-2.200604;-9.981225;-259.822;-256.3656;0.592643;0.3835536;0;
-680.6263;0;0;-661.2164;1.151486;-9.502316;-715.3943;-711.3792;0.2672108;-0.1365706;0;
-427.6942;0;0;-461.9019;-1.998479;-7.68435;-466.925;-462.0394;-0.05789446;-0.2014007;0;
-166.6455;0;0;-221.0586;0.6164733;-7.341714;-206.4615;-205.3914;-0.2527383;0.2535731;0;
-185.0937;0;0;-240.764;-9.833972;-3.516432;-224.4324;-226.7367;-0.187517;0.3182856;0;
282.4199;0;0;186.7007;-13.37406;-3.378933;234.0627;232.323;-0.05739392;-0.006870917;0;
752.0249;0;0;652.5289;-0.6336243;3.054702;698.3441;696.7935;-0.2522383;-0.1367987;0;
444.1112;0;0;403.3106;1.175673;5.463018;396.6062;393.6829;0.07285189;-0.6564;0;
177.4862;0;0;157.9035;-2.777623;-2.044438;131.2159;130.9816;0.2676807;-0.3309037;0;
218.5372;0;0;194.6638;-2.172596;-2.109366;169.4397;172.5166;0.007542377;0.5789716;0;
-217.8382;0;0;-205.5182;-0.7629168;-8.671453;-260.5145;-258.003;0.3323715;0.7083245;0;
-673.8275;0;0;-656.8348;-0.7621502;-11.4759;-711.7133;-708.6421;0.2670702;0.2528414;0;
-427.8987;0;0;-464.3962;2.252726;-6.038874;-471.2437;-467.3634;-0.1230022;-0.4620534;0;
-184.5908;0;0;-241.6663;3.187491;-5.362977;-228.7043;-229.1383;-0.3177806;-0.4615892;0;
-194.1505;0;0;-250.9811;-0.8341997;-4.620776;-235.6584;-239.7152;-0.5123634;0.3184828;0;
293.1748;0;0;201.044;-1.369225;-3.14263;244.712;242.2835;-0.5768158;0.2531954;0;
758.3337;0;0;664.3589;-2.908091;1.348262;706.4839;703.8705;-0.3813342;-0.2667978;0;
443.7295;0;0;406.9455;-3.642103;3.021481;398.491;394.256;-0.05611439;-0.136595;0;
180.2284;0;0;167.3443;-1.293919;8.845838;136.4721;135.7396;-0.3159274;0.0584443;0;
221.8388;0;0;205.282;0.6497646;11.85106;177.2519;179.6435;-0.5105119;0.1233529;0;
-216.5389;0;0;-197.9717;-0.623686;4.605239;-252.6477;-251.6952;-0.1201949;0.2531636;0;
-677.6519;0;0;-651.4822;1.520395;3.19397;-707.54;-706.0263;-0.05510682;0.1879419;0;
-424.8477;0;0;-455.988;6.274289;0.645531;-460.5779;-457.9413;-0.1200188;-0.007148955;0;
-169.7988;0;0;-225.6454;8.678882;-3.307111;-208.7415;-210.043;-0.05493085;0.05782558;0;
-185.995;0;0;-240.9109;18.58412;-2.767924;-223.9615;-228.7599;0.01009168;0.2526695;0;
289.7029;0;0;197.1736;22.71766;-6.114168;243.0914;239.6096;0.1400162;0.317383;0;
758.3011;0;0;663.1161;26.51323;-9.657997;706.3017;703.7604;0.0749082;0.122162;0;
447.445;0;0;412.1382;30.83987;-12.19364;403.1815;399.6433;0.009865587;-0.007895417;0;
170.7593;0;0;158.8512;20.09258;-19.41543;129.4763;128.5653;-0.1850463;-0.07285482;0;
209.3182;0;0;191.7375;16.92359;-22.1421;167.8268;170.1027;-0.2498278;-0.2027163;0;
-215.3662;0;0;-196.2603;21.93043;-27.94724;-247.6955;-245.9842;0.01029264;-0.2025126;0;
-670.421;0;0;-642.0264;19.22907;-32.27293;-697.408;-694.5115;-0.1196524;0.05756025;0;
-425.0579;0;0;-451.3518;17.93695;-21.72442;-457.7023;-452.9972;0.01040252;0.3823391;0;
-176.0682;0;0;-223.4501;16.64613;-19.69311;-211.1161;-208.852;0.4001961;-0.07281645;0;
-185.8238;0;0;-232.4085;5.913113;-24.96485;-219.8995;-219.8865;0.204892;-0.7224167;0;
285.8759;0;0;203.1062;1.486542;-24.13609;246.4621;247.4747;-0.4449873;-0.2019521;0;
747.0443;0;0;660.4222;2.489426;-23.1071;705.8585;705.808;-0.3146055;0.05812022;0;
444.1954;0;0;409.8842;-0.5271854;-22.74896;410.0475;408.0606;0.4653187;-0.3317423;0;
174.7593;0;0;163.3461;1.483076;-19.71187;142.145;142.7213;0.07504711;-0.2664416;0;
214.876;0;0;200.2258;1.079445;-17.81667;180.9201;183.5573;-0.3797997;-0.2012065;0;
-214.4368;0;0;-195.1517;-1.132443;-21.34874;-240.5499;-239.6021;0.205288;-0.006102307;0;
-679.4874;0;0;-649.0399;-0.8628852;-21.12634;-699.39;-697.8184;-0.119755;-0.2659656;0;
-434.9272;0;0;-456.7341;-5.081577;-19.49752;-458.7453;-455.7385;-0.2495693;-0.5255677;0;
-178.3065;0;0;-222.2053;-6.215547;-19.81284;-202.8503;-203.0324;0.2054528;0.05966652;0;
-192.0578;0;0;-233.1014;-3.864777;-13.56376;-214.7654;-218.6954;-0.05462298;0.1895413;0;
275.3378;0;0;197.7288;-3.995591;-11.60763;245.9065;242.7925;-0.1195354;0.2543181;0;
745.9495;0;0;664.4205;-0.9764906;-15.21292;712.6122;709.8761;0.2703887;0.4489646;0;
446.2877;0;0;423.2487;1.301666;-15.3316;419.9804;415.4979;0.270117;-0.006257906;0;
171.2273;0;0;172.0745;-3.18762;-14.84732;147.695;145.9032;-0.1199584;-0.2011536;0;
207.6618;0;0;204.6351;-2.715903;-14.96636;182.8414;185.2368;-0.3147399;-0.2659189;0;
-220.2693;0;0;-186.1866;-0.1675782;-17.0278;-236.9439;-235.4879;0.01041304;-0.330619;0;
-683.7524;0;0;-641.0208;-0.5695515;-17.21164;-694.9755;-693.7709;0.2053046;-0.1353848;0;
-439.3754;0;0;-450.5971;8.5407;-19.47164;-455.7096;-454.0064;0.2700657;-0.005314059;0;
-184.4993;0;0;-216.8241;11.54623;-20.45682;-202.004;-203.7383;0.399729;0.124626;0;
-203.8041;0;0;-233.9101;6.309713;-15.74758;-220.6665;-224.7104;0.07449062;-0.07040129;0;
270.0376;0;0;203.1054;7.175005;-15.32986;245.8208;243.3427;-0.1204863;-0.3301999;0;
751.5241;0;0;680.3488;-0.736434;-12.03241;724.1458;720.3583;0.2694389;0.3847727;0;
453.1061;0;0;439.286;-5.960607;-10.47972;431.6898;426.4069;0.2691681;0.7741901;0;
175.2902;0;0;184.1602;8.446347;-14.01916;155.2073;153.8652;0.009028299;0.4485755;0;
204.162;0;0;209.5248;10.84973;-14.94283;182.9748;184.8199;0.1389539;0.2532227;0;
-222.4538;0;0;-182.0515;-5.906657;-14.12403;-236.4358;-235.8419;0.268749;-0.006901119;0;
-679.8128;0;0;-633.2667;-8.914832;-14.31078;-688.5959;-688.2524;-0.05635777;0.1880079;0;
-445.9344;0;0;-450.9717;-8.638431;-21.86535;-459.0815;-457.5515;-0.1212685;0.3177536;0;
-195.5495;0;0;-220.3842;-12.37982;-24.38861;-209.9327;-211.4652;-0.2510813;-0.2023044;0;
-197.5394;0;0;-221.7245;-4.129333;-23.15854;-210.8462;-215.688;-0.445731;-0.3320358;0;
276.1086;0;0;214.4042;-3.053457;-24.54178;254.6318;252.1687;-0.2503812;-0.2667348;0;
741.597;0;0;673.7702;-10.28406;-20.63224;715.769;714.1829;0.1396745;-0.1365321;0;
444.6883;0;0;429.6531;-11.61387;-19.33883;425.1331;421.5496;0.4643708;0.2534091;0;
168.8174;0;0;177.5978;-10.19471;-19.92224;150.5937;150.2621;0.009132842;-0.006714891;0;
202.1934;0;0;207.0295;-9.715947;-18.76352;182.8635;185.5933;-0.4456477;0.1232266;0;
-220.235;0;0;-186.0435;-13.99309;-18.00797;-231.2996;-230.0094;0.0745388;0.5129068;0;
-690.7147;0;0;-648.8738;-13.30945;-17.18608;-695.2714;-693.0453;0.2693659;0.3174894;0;
-452.1402;0;0;-462.8151;-15.30483;-15.96312;-461.8772;-457.9668;-0.05574144;0.1872357;0;
-187.1313;0;0;-222.0958;-15.55787;-15.00932;-200.107;-199.6987;-0.1206528;0.1220802;0;
-205.1842;0;0;-236.2404;-6.968423;-15.79803;-216.3351;-220.2377;0.2043052;-0.07294449;0;
259.4136;0;0;193.5935;-6.158113;-15.31328;241.902;238.8155;0.0741652;-0.3977079;0;
739.2241;0;0;669.0349;5.704419;-16.10169;717.045;714.7737;0.00912333;-0.07247158;0;
445.0038;0;0;432.856;10.18569;-16.68835;429.2188;425.3256;0.3989182;0.44734;0;
173.443;0;0;185.7951;-0.004974579;-14.39417;159.6728;158.5321;-0.1212214;0.05708645;0;
209.6879;0;0;219.5913;-1.010324;-15.31746;195.4318;197.9155;-0.3160016;-0.07290561;0;
-220.6816;0;0;-176.8677;-7.17125;-10.88132;-226.6775;-224.6961;0.3339894;0.05710234;0;
-686.4756;0;0;-635.147;-10.71402;-8.994866;-687.1556;-684.8014;0.3986211;0.3818817;0;
-449.0923;0;0;-449.7892;-14.99016;-18.69811;-454.0195;-451.4803;0.008416521;0.7063347;0;
-196.5178;0;0;-220.8271;-17.72176;-20.01898;-203.1892;-203.7134;-0.2514613;0.3158209;0;
-206.3153;0;0;-230.6626;-21.72244;-21.87439;-211.6057;-214.3783;-0.2512086;0.1206015;0;
262.6564;0;0;201.6645;-25.04952;-24.5316;251.1869;248.4171;0.07388049;0.250415;0;
729.97;0;0;667.0403;-11.76246;-19.28241;714.514;710.8724;0.2687083;-0.00970597;0;
440.819;0;0;437.3602;-8.535462;-20.40174;431.3755;427.0504;0.07353625;-0.009696217;0;
167.8255;0;0;189.7325;-9.330194;-13.68307;161.4525;160.4426;0.008495025;0.1852156;0;
200.3904;0;0;221.2134;-6.374057;-10.52125;192.8994;195.7636;0.2683558;0.2499968;0;
-213.1656;0;0;-158.1308;-6.166582;-22.50037;-214.4648;-212.2281;0.3330536;0.1847783;0;
-685.339;0;0;-626.0491;-3.61479;-23.1476;-682.5139;-680.1545;-0.05708515;0.1196253;0;
-455.7029;0;0;-450.1332;-10.44366;-24.86577;-458.128;-454.6467;-0.2519298;-0.01042964;0;
-189.3787;0;0;-206.5531;-12.4429;-26.24743;-191.8013;-192.3839;-0.121742;-0.2053212;0;
-218.5487;0;0;-235.4559;-8.410933;-20.39366;-217.5956;-221.8632;-0.2515543;-0.3350496;0;
240.4403;0;0;188.1304;-10.94808;-18.76558;234.8333;231.7568;-0.5111709;-0.2047782;0;
748.6307;0;0;689.939;-2.765402;-15.59865;737.9069;734.2712;-0.44569;0.1852316;0;
461.9597;0;0;457.5497;-1.288755;-13.30555;455.8693;451.0504;-0.0554381;0.1200781;0;
169.08;0;0;190.474;-10.46351;-8.067637;165.307;164.1787;0.204487;-0.07494456;0;
214.6996;0;0;233.7607;-10.5877;-5.24637;210.8055;212.4269;0.07434682;-0.07486925;0;
-209.7404;0;0;-155.5286;-21.69549;-5.910928;-205.8845;-205.1393;0.2042068;-0.3996307;0;
-697.8467;0;0;-634.7563;-26.42912;-5.03421;-688.4349;-687.0658;0.1390343;-0.1393598;0;
-465.387;0;0;-454.9586;-19.23624;-7.909296;-461.1696;-458.9897;-0.1859421;0.05568226;0;
-207.9236;0;0;-218.1203;-21.09194;-8.973076;-205.2096;-207.03;0.3989508;-0.3341778;0;
-223.5817;0;0;-232.019;-13.0328;-11.91131;-219.0589;-224.1257;0.3985499;-0.009005264;0;
249.093;0;0;201.7462;-9.46973;-13.77474;245.9276;242.9898;-0.1865566;0.1209385;0;
730.5381;0;0;679.6157;-16.62751;-15.63642;722.6282;720.6929;-0.0564345;-0.07408508;0;
446.384;0;0;452.2967;-15.33801;-17.76416;444.729;441.7336;0.07355689;0.3157934;0;
172.1981;0;0;198.7195;-17.93554;-15.53588;173.1059;172.7997;-0.05645171;0.1855414;0;
192.7646;0;0;217.3229;-19.18934;-16.92691;193.6716;195.6145;-0.1213623;-0.4643184;0;
-232.2156;0;0;-172.5122;-11.80267;-12.62311;-223.376;-223.2466;-0.1212404;-0.07404783;0;
-698.4352;0;0;-633.6694;-10.45066;-11.06982;-684.1074;-683.3534;-0.2510532;0.2508633;0;
-465.975;0;0;-456.0592;-9.50313;-19.56529;-455.597;-453.8443;-0.1858336;-0.2041602;0;
-196.7044;0;0;-211.0364;-6.814264;-21.15322;-187.6487;-188.9587;-0.05571223;-0.3988571;0;
-217.9959;0;0;-227.9407;-12.0987;-21.53386;-207.2626;-210.9452;-0.2505583;-0.2035543;0;
234.6832;0;0;190.5156;-12.48869;-22.51697;238.0969;234.8553;-0.1203718;0.2514217;0;
730.0732;0;0;677.8291;-6.715363;-22.82926;727.424;724.3732;0.0096838;-0.008700336;0;
444.5453;0;0;450.8243;-5.905308;-22.53839;447.8333;445.1603;0.009674069;-0.5284303;0;
151.1209;0;0;185.6918;-3.822293;-21.57798;158.1537;158.4819;-0.05530299;-0.07312797;0;
187.5757;0;0;219.5507;-3.417287;-20.68552;194.7263;196.9907;-0.3151168;0.05688021;0;
-224.7182;0;0;-157.7304;-0.5334654;-13.49768;-208.8916;-207.629;0.01003655;-0.4629157;0;
-697.7545;0;0;-623.3378;1.544152;-9.465267;-676.1967;-674.7479;0.0749938;-0.6573526;0;
-466.8566;0;0;-446.3001;-8.638805;-11.59921;-450.6303;-448.5583;-0.1849509;-0.07198599;0;
-204.0818;0;0;-206.9718;-11.042;-10.2479;-189.3711;-189.8624;-0.1197977;0.4478251;0;
-215.9332;0;0;-216.1341;-8.552657;-4.209258;-199.3007;-202.1653;-0.249612;0.2524731;0;
243.428;0;0;210.1189;-10.21803;-2.664421;254.1092;251.6848;-0.05445921;0.2522194;0;
717.2576;0;0;677.1105;-7.327372;-1.38919;724.6797;721.1957;0.2054649;0.1869986;0;
439.6136;0;0;451.4807;-6.784146;0.2197964;452.7754;447.6082;0.07532375;-0.332928;0;
164.4974;0;0;203.1516;-9.121854;-7.416357;179.3951;177.9813;-0.1846213;-0.07272412;0;
183.7599;0;0;223.8745;-9.381107;-9.552237;198.1429;200.6035;-0.3793378;-0.1376184;0;
-233.3402;0;0;-158.4084;-6.959808;-7.667116;-210.9132;-209.7044;-0.1840546;-0.2674148;0;
-697.1225;0;0;-615.0197;-5.814715;-9.20002;-668.3463;-667.5135;0.01103233;0.05769063;0;
-469.0988;0;0;-441.2387;-9.291496;-7.583185;-444.7243;-442.2057;-0.2488481;-0.007334695;0;
-203.4482;0;0;-198.8545;-9.415882;-7.441722;-180.535;-180.83;-0.3135654;-0.2671967;0;
-222.859;0;0;-214.8341;-8.669487;-7.501105;-198.2821;-203.0121;0.07655369;0.05790851;0;
230.5747;0;0;202.4846;-8.861847;-6.421963;247.5057;243.2177;-0.05345791;0.2527524;0;
722.4706;0;0;689.2239;-6.709488;-6.817408;735.574;731.6652;-0.2483062;0.1225637;0;
438.0747;0;0;463.1447;-6.301581;-5.135984;458.2864;453.8817;0.1417473;0.05747321;0;
145.9687;0;0;198.4996;-4.35189;-5.73367;168.7213;168.6313;0.2065722;-0.07251924;0;
187.2387;0;0;239.7168;-2.940998;-5.05808;209.2813;212.6272;0.1413973;-0.2673484;0;
-225.8044;0;0;-138.584;-6.220572;1.77914;-196.2878;-195.1316;0.2062226;-0.07217774;0;
-714.6442;0;0;-621.0147;-6.750185;4.121633;-679.4725;-678.9422;0.2709827;-0.007137875;0;
-485.7283;0;0;-444.0418;-3.661944;7.198706;-454.4026;-452.4985;0.2057431;-0.007130703;0;
-220.6233;0;0;-198.219;-2.385467;9.736702;-190.3285;-191.6122;-0.3142024;0.05784382;0;
-240.454;0;0;-216.9478;-8.412266;9.659936;-208.5031;-213.4086;-0.1189846;0.122753;0;
228.7394;0;0;210.9302;-10.94843;11.79368;253.4743;249.6981;0.2059716;0.3175317;0;
717.2014;0;0;691.5391;-1.49296;6.624269;737.6636;734.0786;-0.1840394;0.2522453;0;
438.2456;0;0;468.6434;-0.6881526;5.478903;464.9341;460.5406;-0.1838544;0.1220572;0;
161.819;0;0;216.4865;-2.562495;8.889405;189.6051;189.7762;-0.1836697;0.1869019;0;
183.3954;0;0;235.0721;-1.019679;7.60792;209.7794;212.8239;-0.05355047;-0.0731553;0;
-233.5169;0;0;-147.0972;-11.26643;15.1691;-198.976;-198.4958;0.3363074;-0.2030165;0;
-698.9232;0;0;-602.9077;-14.1355;18.16797;-659.2322;-658.2527;0.2060348;0.1220242;0;
-479.2684;0;0;-436.2603;-8.963734;5.892205;-444.9896;-441.8872;-0.119009;0.4467383;0;
-221.0414;0;0;-203.064;-9.155797;2.671103;-187.5467;-187.5083;-0.05392203;0.2513874;0;
-238.6853;0;0;-218.727;-9.079248;9.902454;-202.7255;-205.2484;0.01109949;-0.0737019;0;
218.2624;0;0;202.1564;-8.467889;8.686811;246.6899;245.5438;-0.053879;0.05630686;0;
720.0408;0;0;694.3307;-5.913785;7.405529;742.4427;740.4857;-0.3136942;0.2511523;0;
442.269;0;0;471.6821;-4.635046;7.532054;469.521;467.9408;-0.4433137;-0.008969433;0;
141.7255;0;0;197.5333;-1.482556;-2.187917;171.3864;175.2425;-0.2479662;-0.1388951;0;
179.8139;0;0;230.3807;1.399322;-4.99888;209.6323;215.7335;0.01215228;-0.0737882;0;
-223.914;0;0;-138.7904;-3.89337;-4.324028;-186.3793;-181.9085;-0.1177946;0.1861553;0;
-712.8806;0;0;-614.7241;-3.823085;-6.664086;-670.3237;-664.733;-0.1826436;0.3159029;0;
-487.1524;0;0;-441.5682;-0.06819953;-1.097928;-449.0111;-442.5514;-0.05252539;0.2506182;0;
-208.5527;0;0;-189.7508;0.4677325;-0.1590641;-171.824;-168.7441;0.2723641;0.2503664;0;
-235.8918;0;0;-213.3607;4.352028;-2.101409;-196.8262;-196.1857;0.3370578;0.1851475;0;
209.9338;0;0;198.7092;6.424736;-1.429468;243.0256;244.8524;-0.7027584;0.2499288;0;
708.9719;0;0;688.5132;3.002029;-2.097862;737.4702;737.9208;-1.026889;0.1847103;0;
438.4576;0;0;475.1158;1.457795;-1.358941;473.1117;471.5629;0.01362033;-0.01037734;0;
152.0983;0;0;217.4552;8.690975;-3.500908;189.2787;191.7295;0.1435413;0.05460044;0;
180.7435;0;0;241.9118;9.150757;-3.430407;216.8246;223.021;0.01346242;0.1844803;0;
-232.2307;0;0;-137.2658;3.649206;-2.556182;-187.7525;-183.5613;0.2083509;0.1193276;0;
-708.3829;0;0;-606.0172;2.975954;-2.754562;-658.1398;-654.3901;0.07820688;0.05424031;0;
-484.2209;0;0;-435.0564;-6.672578;4.415135;-439.5255;-434.093;0.2730303;0.1841205;0;
-216.1189;0;0;-189.1177;-10.68436;7.424931;-172.7803;-170.9763;0.4026906;0.3788375;0;
-240.8267;0;0;-212.6657;-9.200734;1.724043;-195.5326;-197.7285;0.01248199;0.3784569;0;
206.3782;0;0;200.0906;-11.87081;0.1817033;244.4428;244.8103;0.07743679;0.5729786;0;
710.0425;0;0;698.2016;-8.174207;10.63061;743.1339;744.2507;0.2072937;0.4424682;0;
437.3408;0;0;481.671;-8.300692;13.16516;476.3959;474.3881;-0.1177513;0.05221955;0;
137.9891;0;0;209.761;-6.014199;2.568996;179.6911;180.1216;-0.7023391;-0.07776762;0;
183.0777;0;0;249.4052;-3.664607;1.159773;223.4884;228.5412;-0.6366661;-0.1426568;0;
-221.0907;0;0;-122.2213;-11.02832;-1.654675;-173.9115;-169.3635;0.2085491;0.1173559;0;
-722.0541;0;0;-610.1031;-11.41938;-4.466174;-669.3002;-664.5693;0.5331763;-0.07766405;0;
-494.5051;0;0;-433.1413;-10.06775;0.02604831;-447.8636;-440.7013;0.01290181;-0.2724881;0;
-214.024;0;0;-177.3344;-10.52713;-0.0409608;-170.4278;-166.646;-0.2469805;-0.01234488;0;
-245.6054;0;0;-209.39;-6.631786;1.767619;-199.7418;-200.0867;-0.1167977;-0.1422672;0;
204.7901;0;0;201.3015;-5.820839;4.378056;243.5487;244.7034;-0.1816476;-0.07715687;0;
707.2067;0;0;697.2249;-5.011683;0.6227345;740.804;742.1448;0.0134369;0.2477574;0;
435.2574;0;0;483.8187;-4.871949;2.02875;476.7544;476.095;0.1433581;-0.01236095;0;
149.2761;0;0;222.4637;-3.728954;5.9116;193.7299;196.1946;-0.05168799;-0.07731587;0;
185.3579;0;0;252.7873;-3.657858;7.580233;226.5187;233.6035;-0.1166034;0.1176639;0;
-222.6234;0;0;-122.4657;-9.012817;15.00748;-174.8198;-168.4917;-0.1814536;0.05257829;0;
-707.5933;0;0;-596.9166;-11.34829;18.47539;-653.8408;-648.2062;-0.2462386;0.2474275;0;
-486.9929;0;0;-428.9009;-14.28364;18.85872;-438.7916;-431.6634;-0.3109585;0.1822115;0;
-212.8911;0;0;-180.0324;-17.08233;20.7153;-166.4249;-162.8021;-0.3756134;-0.1428083;0;
-240.7255;0;0;-206.1508;-17.73573;19.89069;-193.1191;-193.6229;-0.2453013;0.1821719;0;
201.6691;0;0;196.8539;-18.25377;18.99992;240.9818;242.1027;-0.1151201;0.2469562;0;
708.7115;0;0;693.219;-25.60282;20.78937;743.6119;744.4194;-0.05003712;0.05180606;0;
439.5093;0;0;479.8794;-29.32814;19.8977;480.9339;479.4292;0.07994784;0.4415581;0;
139.5932;0;0;206.222;-15.16612;15.25601;182.8502;184.0332;-0.05006718;0.2462123;0;
182.6812;0;0;244.0582;-12.13678;14.10197;223.7708;227.7012;0.1448852;0.1809976;0;
-213.116;0;0;-117.8178;-19.15718;7.724542;-164.9462;-163.0188;0.7944129;0.5706198;0;
-709.3398;0;0;-599.7696;-18.33462;5.506466;-654.7842;-652.4839;0.8585821;0.2452097;0;
-494.6721;0;0;-437.4982;-18.1815;7.04154;-444.7315;-440.4345;0.0781113;-0.07987338;0;
-213.3162;0;0;-183.3736;-16.69034;6.029721;-165.3624;-164.2556;-0.1168692;0.05014157;0;
-239.9009;0;0;-206.0529;-21.76378;14.19534;-190.6834;-192.8261;0.2080849;-0.07984351;0;
201.1186;0;0;199.2006;-23.08109;17.06134;243.3526;242.2116;0.2728432;-0.3396327;0;
708.4739;0;0;697.4998;-15.89157;18.71865;746.9174;746.2148;0.272569;-0.07942202;0;
441.4584;0;0;487.8415;-16.47784;22.18295;486.1725;484.0339;-0.3773783;0.1805272;0;
145.7257;0;0;218.2991;-5.811366;20.35212;191.7068;191.5693;-0.6368684;0.05041109;0;
181.6237;0;0;250.8757;-1.452246;22.14021;225.8719;228.9204;-0.1164898;0.2452625;0;
-222.6057;0;0;-119.4403;-15.38226;20.10848;-170.6558;-169.2346;0.403366;0.5048854;0;
-712.7606;0;0;-600.5784;-17.37654;19.15051;-655.9903;-654.7579;0.5328954;0.1795414;0;
-495.5907;0;0;-432.4966;-16.68949;25.76246;-444.4372;-440.6448;0.01262119;-0.2104431;0;
-217.1699;0;0;-175.8783;-18.34669;26.87528;-167.8169;-166.5271;-0.1822935;-0.1452643;0;
-241.1895;0;0;-199.1898;-20.07054;25.70957;-190.3869;-193.1588;-0.2470777;0.114751;0;
199.7063;0;0;206.494;-20.85368;26.68848;242.2745;240.6299;-0.5716661;0.2445704;0;
702.253;0;0;699.6635;-20.16314;23.64743;738.594;736.1389;-0.441157;-0.1454794;0;
435.8684;0;0;482.8816;-20.00916;23.22177;477.4203;473.0311;-0.1808444;-0.08036587;0;
144.889;0;0;216.8424;-15.70214;23.60033;189.2726;188.636;-0.050728;0.2445516;0;
181.35;0;0;251.1072;-14.81571;22.50489;225.6891;228.8012;0.4040944;0.1143712;0;
-221.13;0;0;-119.5214;-7.030315;28.51062;-169.7765;-167.9169;0.2737536;0.04928893;0;
-705.1019;0;0;-595.7244;-2.937414;30.96034;-649.4272;-647.8194;-0.2462602;0.0492394;0;
-491.8753;0;0;-435.0813;-11.70935;24.23106;-440.8167;-438.1486;-0.3109801;-0.08074477;0;
-220.7671;0;0;-186.3939;-11.49651;24.00577;-170.5095;-171.0298;-0.05079821;-0.0156963;0;
-242.1594;0;0;-203.8228;-12.62404;25.52225;-189.7034;-193.7215;0.2740895;0.3091562;0;
196.7385;0;0;197.368;-13.61573;24.3579;240.8334;237.6314;0.4037488;-0.01599117;0;
703.2861;0;0;692.2958;-11.19115;32.03634;740.4651;737.5163;0.1434738;-0.2108771;0;
446.8329;0;0;491.5757;-11.38;34.28144;489.4095;485.7139;-0.3114418;0.3740408;0;
147.0969;0;0;221.3424;-6.746866;30.16116;192.4417;192.0607;-0.2461615;0.568567;0;
183.3683;0;0;254.2908;-5.199845;31.80543;227.8555;230.7857;0.2738246;0.243159;0;
-212.9918;0;0;-109.407;-3.184889;25.0753;-161.4904;-159.9374;0.1436147;-0.01695467;0;
-712.0893;0;0;-597.2393;-0.7707909;23.04062;-655.6422;-654.528;-0.2463336;-0.2118397;0;
-499.8551;0;0;-439.0934;-5.592788;29.24676;-450.1488;-447.4741;-0.2460861;0.1132099;0;
-215.6205;0;0;-184.5924;-6.123031;28.34659;-169.0251;-169.7264;-0.0509368;0.4379329;0;
-241.828;0;0;-209.7692;-3.906076;35.88706;-193.0931;-198.104;0.01408172;0.1126561;0;
195.7576;0;0;193.7389;-3.9695;38.53019;237.3222;234.6901;-0.1158671;-0.2772611;0;
708.9279;0;0;699.9771;-4.367653;30.58773;745.2657;743.5109;-0.2456854;-0.3419499;0;
448.1588;0;0;496.6256;-4.563359;30.28907;490.0198;486.7675;-0.1155038;0.3080671;0;
152.7317;0;0;225.95;-2.281598;25.43599;195.2379;195.5495;0.1444816;0.3077576;0;
195.6816;0;0;261.33;-0.9401352;22.32921;235.8962;238.0191;-0.0505656;-0.3422251;0;
-205.8758;0;0;-107.9346;-4.220744;26.9286;-159.0175;-158.271;0.01445255;-0.1469792;0;
-704.6057;0;0;-595.5185;-4.953437;26.83456;-652.9218;-650.2396;0.01443803;0.1780052;0;
-499.188;0;0;-440.1854;-0.3941088;23.12353;-452.9285;-449.062;-0.3753805;0.307761;0;
-224.0745;0;0;-189.8687;-0.3263639;22.56443;-180.2977;-180.6205;-0.1801013;0.3724191;0;
-239.529;0;0;-208.2936;3.090216;23.34556;-194.172;-198.0551;-0.2448877;-0.2126611;0;
199.6786;0;0;192.1521;5.90015;22.71925;238.7431;236.4256;-0.7643803;0.1773566;0;
703.4121;0;0;687.0851;-4.755699;26.44747;737.5024;735.562;-0.4387756;0.5669824;0;
448.5831;0;0;485.8705;-5.889997;26.75581;487.824;484.6986;0.01643667;-0.08326069;0;
152.281;0;0;218.329;-3.874346;25.52323;192.9818;193.1704;0.1463548;-0.01820969;0;
187.4228;0;0;251.7178;-5.478044;25.36362;226.5834;229.8328;-0.04869424;0.04677596;0;
-207.8794;0;0;-110.9155;1.694757;18.77393;-161.0745;-159.2652;-0.1136127;-0.2781078;0;
-706.6072;0;0;-597.9342;1.893149;15.40604;-655.1642;-653.0444;-0.1784658;-0.1478936;0;
-499.6259;0;0;-445.847;7.116159;16.66311;-454.1067;-450.7396;-0.1782865;-0.08277769;0;
-213.9548;0;0;-186.0919;9.922048;15.0389;-169.2933;-170.2399;0.2116967;0.1122075;0;
-240.2265;0;0;-205.5825;-1.474776;9.196398;-193.6109;-198.2422;0.08154928;0.4369315;0;
187.9873;0;0;187.2392;-3.147258;6.842754;226.9349;224.3697;-0.7631081;0.4364925;0;
699.5412;0;0;687.1747;-8.167937;6.032206;733.3896;730.3898;-0.6324067;0.3061192;0;
447.9644;0;0;489.0834;-12.44664;3.949673;487.0262;482.2177;-0.2419672;0.1758769;0;
148.4771;0;0;218.7901;-6.071119;9.505166;189.9359;188.5056;-0.241724;0.1107328;0;
179.6246;0;0;249.0549;-5.730226;11.50498;219.8549;221.487;0.08335558;0.1755889;0;
-213.5458;0;0;-113.1384;-8.001644;5.063303;-166.7343;-165.6036;0.3431412;0.04547781;0;
-701.9606;0;0;-592.4088;-6.252292;4.723301;-649.8863;-648.0696;0.4077637;-0.01953524;0;
-501.4182;0;0;-443.4506;-9.527563;8.871375;-454.7061;-452.0166;0.01754996;0.1104191;0;
-231.7372;0;0;-199.4399;-10.79079;9.733239;-187.1959;-188.2573;-0.3073044;-0.2145286;0;
-250.3074;0;0;-214.4818;1.410217;10.66122;-204.4365;-208.5578;-0.1770609;-0.4092151;0;
192.8465;0;0;194.1534;3.01639;11.85608;230.3629;228.4322;-0.1119157;0.3708043;0;
706.9567;0;0;698.5172;4.152435;11.91115;736.9392;734.9479;0.2130335;0.3054643;0;
451.0621;0;0;498.478;6.090646;12.76996;486.0745;481.8363;0.2777868;-0.01967934;0;
152.5087;0;0;224.4271;-3.694738;13.76187;190.297;189.1865;0.08260564;0.5650465;0;
196.0835;0;0;259.8712;-4.494333;14.88675;232.8343;235.2232;0.14749;0.5644788;0;
-201.8511;0;0;-105.8937;-13.19833;14.13498;-156.8914;-155.2545;0.3422438;0.2390749;0;
-712.3915;0;0;-605.8484;-15.99811;14.0538;-661.7299;-659.7198;0.2769326;0.2388346;0;
-505.0921;0;0;-451.6919;-12.43206;16.71887;-459.4788;-456.5338;-0.0481824;0.2385947;0;
-214.4804;0;0;-188.4951;-13.3566;16.56811;-170.787;-171.2807;-0.1780687;0.3033223;0;
-247.6856;0;0;-218.1657;-1.085665;19.56569;-203.224;-206.5283;-0.1129224;-0.1517539;0;
183.4092;0;0;180.8531;2.130607;20.95267;221.142;219.0904;0.01712575;-0.3465035;0;
710.0851;0;0;696.3497;9.965347;15.70707;743.0323;740.3581;-0.0478588;-0.2162206;0;
450.6891;0;0;489.691;15.44769;15.95922;488.8506;484.6798;-0.3076801;-0.345938;0;
144.8273;0;0;212.8379;9.604043;9.914843;185.6991;185.0307;-0.2424036;-0.08572108;0;
186.5357;0;0;251.7918;12.07362;6.555734;225.8047;228.3229;-0.1122253;0.1742344;0;
-205.9545;0;0;-109.3423;-0.9329609;16.39539;-160.1033;-158.3997;0.01782212;0.1740594;0;
-700.0616;0;0;-591.9273;-6.224285;16.31194;-647.7598;-645.8704;0.08277155;0.2388518;0;
-503.1443;0;0;-444.0316;2.757926;18.90788;-455.0179;-452.256;-0.1122136;0.1736445;0;
-229.7759;0;0;-194.8979;0.07583748;20.96535;-183.3221;-183.6238;-0.04713355;0.3034047;0;
-245.1622;0;0;-207.8829;5.300674;11.5668;-196.5061;-199.8686;0.0828485;0.3680671;0;
188.9911;0;0;190.0635;6.969311;10.01469;230.1644;228.1797;-0.1121368;0.107828;0;
696.6085;0;0;686.4354;-4.625617;6.253583;731.4311;730.1355;-0.3069261;-0.02221509;0;
448.2205;0;0;492.4679;-7.232937;2.228446;488.1306;485.2746;-0.04674836;0.302644;0;
151.2941;0;0;221.9837;-6.556085;8.857394;192.2886;192.0591;0.2781353;0.3673072;0;
191.0595;0;0;255.9935;-8.826673;8.647546;230.1387;232.2208;0.5377252;-0.217768;0;
-194.6886;0;0;-95.39974;-9.88953;4.486037;-146.6532;-146.1974;0.4722176;-0.02264712;0;
-703.9244;0;0;-590.4925;-11.68825;4.414546;-649.8154;-647.9232;-0.112963;0.3022124;0;
-510.7514;0;0;-449.7196;-11.60916;0.05634219;-462.9435;-458.9294;-0.5026535;0.171974;0;
-212.5128;0;0;-179.2784;-11.66485;-1.484322;-167.2518;-167.0522;-0.3722138;0.04186652;0;
-239.2857;0;0;-201.5245;-15.87268;1.062399;-191.5714;-194.1207;-0.04700307;0.1067918;0;
176.9331;0;0;182.4226;-16.45995;0.2576583;217.4156;217.3052;0.08297884;0.1716518;0;
707.1762;0;0;704.1019;-16.7782;5.749878;741.1213;740.5737;-0.2419412;-0.1533574;0;
455.5293;0;0;509.367;-18.03414;8.557261;494.7501;491.7043;-0.3716328;-0.02326859;0;
137.1689;0;0;217.6266;-9.910717;0.1760406;177.9119;177.9926;-0.3062921;0.3665588;0;
185.0694;0;0;259.2619;-7.221442;-0.4939656;223.8975;227.8512;-0.5008863;0.4311579;0;
-196.3;0;0;-90.76033;-11.83589;4.664094;-149.8273;-146.9395;-0.1755463;0.30079;0;
-695.3518;0;0;-583.1716;-10.68589;5.597169;-643.491;-641.3558;0.1494668;-0.1542837;0;
-498.6891;0;0;-443.9678;-10.34036;5.457579;-451.8154;-448.9327;0.2142839;-0.08916131;0;
-225.8249;0;0;-198.0826;-8.989827;5.653044;-180.4976;-180.1165;0.08413393;0.3007323;0;
-245.0882;0;0;-213.2508;-9.449308;10.73794;-197.9948;-201.9245;0.1490167;0.0405608;0;
186.941;0;0;181.89;-9.105021;12.8035;225.8661;222.3777;0.148867;-0.2843167;0;
697.8088;0;0;681.8308;-4.407799;9.910495;730.1981;727.7751;-0.3710213;-0.1540963;0;
448.6075;0;0;490.1792;-4.202299;11.24007;486.7114;483.1664;-0.6305179;-0.02400679;0;
149.1196;0;0;218.8853;1.830143;7.946738;189.3091;189.3909;-0.2400803;-0.02398267;0;
188.9497;0;0;253.8352;2.698961;7.000992;227.0998;230.8046;-0.1748717;0.1059761;0;
-199.9198;0;0;-104.4274;-0.1167906;11.74962;-154.0619;-152.7971;-0.1097286;-0.02406506;0;
-703.5282;0;0;-596.8874;-0.6525367;11.8048;-650.9073;-650.3933;0.02031629;-0.08900822;0;
-513.354;0;0;-455.7333;-12.50725;15.34303;-465.5336;-463.1461;-0.1096388;0.04101592;0;
-225.5451;0;0;-194.2816;-17.65225;15.99732;-180.0841;-180.0103;0.02040604;0.1709094;0;
-247.12;0;0;-212.8894;-19.44317;14.90965;-200.2679;-202.568;0.3452222;0.1707377;0;
173.0422;0;0;174.255;-22.70616;14.82768;212.4135;211.1152;0.02003866;-0.08930328;0;
705.4756;0;0;695.8177;-28.3758;9.588236;739.6849;736.7012;-0.3048182;0.04072115;0;
460.4521;0;0;506.2135;-31.96461;7.837045;500.4366;496.394;-0.04464254;0.1706149;0;
141.9617;0;0;218.1618;-21.48364;2.537641;183.2804;183.8645;0.280239;-0.47923;0;
190.732;0;0;262.0455;-18.24687;-0.6129848;229.198;233.03;0.2149901;-0.5437157;0;
-186.8324;0;0;-86.35534;-23.78825;1.396997;-142.0957;-139.7669;-0.04509529;0.04153666;0;
-700.4489;0;0;-589.9529;-23.22848;0.5248153;-649.6978;-647.6836;-0.1749847;-0.02347244;0;
-514.0884;0;0;-457.8637;-14.29653;-0.07843643;-468.6981;-465.0618;0.08506053;-0.2183509;0;
-226.4037;0;0;-197.8466;-11.06699;-0.6142211;-184.932;-183.7357;0.2798771;-0.08819679;0;
-242.4805;0;0;-208.5173;-14.40477;4.008096;-200.2384;-202.4166;-0.04524084;0.04182653;0;
182.2372;0;0;182.9955;-12.85005;5.276745;217.0656;216.6388;-0.1751301;-0.1531175;0;
699.1692;0;0;689.0571;-17.19042;3.998767;727.7782;726.6022;0.2148499;-0.08799635;0;
457.088;0;0;497.5857;-19.18288;4.731561;490.6657;486.5549;0.1496667;-0.1528753;0;
152.7814;0;0;218.8506;-13.00166;0.8417969;188.137;186.9663;-0.04538568;-0.412591;0;
192.0456;0;0;255.2997;-13.25604;-0.3646197;226.4911;228.3825;0.2145293;0.1075623;0;
-188.5187;0;0;-95.03084;-14.11338;-1.302014;-146.1743;-145.9089;0.3442484;0.2373889;0;
-697.0735;0;0;-592.3104;-14.83613;-3.109245;-648.2125;-648.6345;0.08403314;-0.1526537;0;
-512.0283;0;0;-458.1573;-17.36682;0.3100084;-468.5261;-466.3866;-0.1109533;0.3022711;0;
-219.598;0;0;-194.2044;-19.15803;1.649234;-179.3255;-179.0621;-0.1758092;0.04209801;0;
-242.6157;0;0;-213.8743;-19.2725;-3.710936;-199.9473;-204.4943;-0.1106652;-0.5426503;0;
174.731;0;0;170.2726;-18.64993;-3.707207;210.0476;206.5671;-0.1755213;0.04260097;0;
711.598;0;0;693.5884;-29.68325;-0.4883016;740.0075;737.8424;0.01955707;0.4973296;0;
468.3174;0;0;502.7995;-32.40009;0.1820183;502.3831;499.7203;0.1494721;0.04205844;0;
142.5728;0;0;208.5045;-25.20024;6.344021;179.2279;180.2536;-0.1105475;-0.2178532;0;
195.0281;0;0;258.2699;-25.50971;8.749032;230.2096;233.6705;-0.2403711;-0.02273227;0;
-176.1689;0;0;-79.69489;-14.63309;9.41007;-133.7764;-131.7557;-0.04522751;-0.1526441;0;
-695.2309;0;0;-584.3611;-9.79561;11.20903;-647.696;-645.1152;-0.1751167;-0.5422948;0;
-508.9381;0;0;-450.7158;-12.86723;10.52806;-466.4485;-462.3086;-0.1749408;0.0429562;0;
-223.0077;0;0;-195.0162;-9.103253;11.72305;-181.7477;-180.1107;0.1500717;0.3027824;0;
-243.6481;0;0;-216.8717;-12.84515;5.682933;-201.1177;-203.9801;0.2798556;-0.02235856;0;
184.3817;0;0;176.3987;-11.69317;3.131993;218.6235;215.8264;0.1496397;-0.08730343;0;
706.7462;0;0;688.9012;-8.935728;8.755291;735.7062;733.2244;-0.4352167;0.04271899;0;
465.2196;0;0;500.3034;-8.256188;7.875715;500.0851;495.2319;-0.3048447;0.3025454;0;
158.1563;0;0;221.8779;0.258574;9.274444;195.4855;193.4482;0.345135;0.1723067;0;
198.9768;0;0;257.2621;3.539868;9.800987;234.7692;236.8569;-0.04501586;-0.4775398;0;
-181.5945;0;0;-91.88354;4.541665;4.49961;-139.7161;-138.7549;-0.499742;-0.671962;0;
-687.9074;0;0;-584.606;6.613206;3.289396;-640.7613;-639.6761;0.08546621;-0.0216134;0;
-505.9948;0;0;-453.5217;9.21853;1.745483;-463.1439;-460.5605;0.1503477;0.303245;0;
-225.3771;0;0;-197.6319;11.219;0.6050196;-184.5059;-184.9861;0.08522926;0.04307097;0;
-245.5154;0;0;-212.4258;5.112157;0.001687236;-202.7487;-206.5393;-0.1747258;0.0430277;0;
173.3333;0;0;171.4698;2.963567;-0.3332291;207.4989;205.3988;-0.7592562;-0.2168849;0;
706.8909;0;0;690.6615;7.381218;0.336935;733.0261;731.6153;-0.3686893;-0.2816343;0;
471.0488;0;0;506.9345;6.771565;0.4704403;502.5301;499.8088;0.2813546;-0.216384;0;
142.7403;0;0;208.3874;1.539848;4.957824;177.2509;177.4684;0.08616984;-0.2811339;0;
186.8871;0;0;248.158;-1.073667;7.23014;220.2386;223.267;-0.4986228;0.17392;0;
-182.1778;0;0;-88.48481;-0.8051446;5.414458;-141.5509;-139.8999;-0.4981218;0.1087779;0;
-706.1063;0;0;-598.1396;-3.483653;6.078725;-659.7732;-658.5611;0.1520521;-0.2161682;0;
-522.7386;0;0;-469.0407;-2.542147;9.55573;-481.6369;-479.3016;0.02196467;-0.3458856;0;
-220.1152;0;0;-195.7691;-2.941735;11.35454;-181.8035;-182.1566;-0.3678614;-0.4754728;0;
-243.757;0;0;-212.9386;-9.033372;7.927128;-202.985;-206.4613;-0.1725898;-0.1501583;0;
170.2174;0;0;166.8345;-8.756851;7.651231;205.0139;202.4782;-0.107449;0.2397966;0;
702.4038;0;0;684.6566;-19.59904;9.519066;731.3558;727.948;-0.3672104;0.6293597;0;
463.6302;0;0;498.9366;-24.26742;9.04062;497.4881;491.9598;-0.3018741;0.173956;0;
150.2591;0;0;213.5784;-7.431177;13.25134;185.3948;183.8701;0.08823325;-0.3459576;0;
196.9596;0;0;255.1553;-5.81612;15.11355;229.7487;231.8486;0.2180793;0.1091615;0;
-179.4867;0;0;-88.55341;-2.997237;10.27571;-139.2343;-138.7606;-0.04200922;0.1740191;0;
-698.1705;0;0;-592.7734;0.4220264;10.66716;-652.2115;-651.301;0.08796768;-0.08602513;0;
-519.4335;0;0;-463.9298;-6.812066;9.249923;-478.8929;-476.9839;0.1528466;0.1739307;0;
-226.3711;0;0;-196.4104;-6.6715;7.90097;-189.1821;-189.7737;0.08772571;0.04382125;0;
-247.5079;0;0;-214.8911;-11.55492;16.0647;-208.4198;-212.0717;-0.1722318;-0.2810595;0;
172.3424;0;0;165.946;-13.68676;17.72314;204.2698;201.4336;-0.4968955;-0.08587508;0;
708.1498;0;0;688.1417;-12.66765;14.7582;732.6738;731.0898;-0.4314288;0.04414591;0;
470.4323;0;0;505.4792;-13.92772;14.40846;500.9288;496.9726;-0.3010606;-0.02086581;0;
152.6816;0;0;217.3034;-10.16268;16.13541;185.896;184.0053;-0.2357908;-0.08581218;0;
198.8799;0;0;259.0015;-9.148094;16.25317;230.1244;231.9212;-0.1705865;-0.2156606;0;
-174.3199;0;0;-82.77461;-7.39759;9.739736;-135.5481;-135.1899;0.0244869;-0.4753133;0;
-694.8206;0;0;-591.6231;-6.05001;7.519512;-650.5905;-650.0452;-0.3653418;-0.2799337;0;
-517.836;0;0;-466.966;-3.431962;4.899744;-478.9602;-476.6664;-0.429942;0.04518431;0;
-222.1515;0;0;-197.0697;-1.352409;1.612657;-186.1884;-186.3331;0.2201634;0.2400409;0;
-242.1681;0;0;-212.8637;-7.512992;5.830839;-203.9298;-207.3852;0.2199422;0.1748324;0;
167.8067;0;0;163.1613;-9.515175;5.691014;200.9467;198.1819;0.08978652;-0.08521265;0;
698.3089;0;0;681.7991;-3.677489;1.800408;726.1682;723.2188;-0.04023838;0.1747424;0;
466.8482;0;0;503.8906;-2.669416;1.396701;499.5521;495.0439;-0.2351;0.3694688;0;
148.1016;0;0;215.1541;-9.632958;0.2565882;182.2719;181.5163;0.4148097;0.3690976;0;
190.0566;0;0;252.3567;-10.29286;-0.413377;222.256;224.5622;0.3494255;0.433694;0;
-174.4512;0;0;-81.91652;-10.75104;-1.015808;-135.3501;-135.2327;0.4140418;0.04345419;0;
-688.2051;0;0;-581.4581;-12.34782;-2.689361;-643.4587;-643.6537;0.9333644;0.1083779;0;
-517.5366;0;0;-457.3734;-8.584373;3.810564;-477.2703;-477.3402;0.3477205;0.1732363;0;
-222.0398;0;0;-190.5477;-11.18869;5.749118;-183.813;-187.8808;0.02253444;-0.2167418;0;
-239.1829;0;0;-209.9714;0.2094052;-3.701008;-198.5583;-205.1208;0.08747914;-0.216524;0;
170.6015;0;0;167.3001;3.156932;-5.170792;204.3138;199.9443;0.1523586;-0.02140445;0;
702.9125;0;0;687.8077;-11.2472;-6.304306;729.4069;725.4167;0.2821402;0.04358442;0;
469.5731;0;0;506.27;-9.964082;-9.580135;501.0385;495.6779;0.151922;0.04354063;0;
147.9502;0;0;214.97;-30.11483;-1.532679;181.6953;179.651;-0.2380347;-0.08643782;0;
191.717;0;0;251.7979;-36.38121;-0.05751437;223.679;225.2599;-0.4326975;-0.1513183;0;
-167.2953;0;0;-77.22739;-20.06768;-8.497184;-128.244;-127.5392;-0.3672954;-0.476003;0;
-681.6186;0;0;-574.2125;-19.9138;-9.359425;-636.1722;-636.1553;-0.1720243;-0.6704267;0;
-512.1436;0;0;-454.6328;-1.072195;-9.417003;-471.3655;-470.2242;-0.1068842;-0.474851;0;
-212.4668;0;0;-184.8114;7.703769;-9.742455;-174.7283;-176.1493;-0.1067768;-0.3444392;0;
-239.5521;0;0;-209.6756;7.427608;-9.464734;-199.6026;-204.8328;0.1531999;0.240613;0;
161.6121;0;0;157.1009;14.98958;-9.388241;195.462;191.6114;0.02311128;0.6301752;0;
709.6116;0;0;693.236;4.793115;-3.953312;737.1807;734.2085;-0.561618;0.3696727;0;
480.2635;0;0;519.2515;2.242704;-1.337005;513.0522;509.0211;-0.4960864;-0.2154049;0;
145.1991;0;0;215.3822;16.10555;-1.000747;180.3287;179.4875;-0.0408165;-0.1502211;0;
192.217;0;0;257.6444;17.02737;1.545488;224.5627;227.0956;0.1541265;0.3696686;0;
-167.9202;0;0;-72.19878;7.633142;1.20902;-129.4851;-128.0167;0.02403699;0.1094278;0;
-691.9255;0;0;-583.1194;5.683089;1.54272;-647.1572;-646.8772;-0.3657912;-0.08558419;0;
-516.0682;0;0;-459.158;-0.8203322;6.564768;-476.3425;-475.2506;-0.1705216;0.4342405;0;
-216.4501;0;0;-184.7093;-4.905345;7.027052;-180.0126;-181.483;0.6742252;0.5637389;0;
-245.4054;0;0;-206.8875;-2.823335;7.488872;-207.6927;-212.4725;0.4786457;0.4332378;0;
162.8861;0;0;164.5088;-4.83023;7.883245;193.502;190.7884;-0.236476;-0.1519036;0;
702.8884;0;0;685.8939;-2.749272;0.3733568;727.2891;725.2654;-0.3012058;-0.346653;0;
475.9209;0;0;507.9812;-2.076924;-2.574145;505.6694;501.2114;-0.2359358;0.173434;0;
157.1651;0;0;219.1158;-3.414008;-2.705525;188.383;187.4278;0.02417065;-0.02164227;0;
190.9901;0;0;251.6291;-2.539921;-4.645311;219.9902;222.7841;0.154081;-0.4114246;0;
-173.831;0;0;-81.76875;-1.867784;-7.654754;-137.6137;-136.072;-0.2358778;-0.02120712;0;
-678.59;0;0;-574.5638;-0.5931092;-9.254652;-636.662;-635.0594;-0.04073879;0.3036509;0;
-512.8661;0;0;-463.4796;-1.329448;-8.173626;-475.7278;-474.4392;0.3491062;0.4332805;0;
-223.8708;0;0;-206.5802;-0.993319;-8.500328;-188.394;-191.2921;0.3487554;0.1729757;0;
-245.4474;0;0;-222.9268;2.021789;-6.95118;-207.6949;-212.6515;0.2834376;0.1078346;0;
157.2844;0;0;147.7359;2.355526;-6.810229;187.4403;185.5496;0.02328347;0.3026283;0;
703.1644;0;0;679.5701;5.768435;-5.128813;727.1056;725.3417;0.02326008;0.04245483;0;
479.6948;0;0;511.4089;7.5713;-4.520935;509.5464;504.2237;-0.106698;0.04241217;0;
144.8184;0;0;209.2342;-0.07211801;-5.1861;177.2637;174.3201;-0.7562642;0.1073369;0;
196.5843;0;0;255.9379;-2.817736;-4.109284;227.1854;228.6801;-0.3657002;-0.08767299;0;
-155.3114;0;0;-66.15751;2.811174;-13.5495;-117.4322;-116.5013;0.349308;0.2372518;0;
-689.5118;0;0;-584.7053;2.272486;-17.21983;-645.3613;-645.056;0.2190223;0.0421114;0;
-524.9014;0;0;-467.7388;-1.815635;-9.767665;-485.7303;-484.2384;0.02390021;-0.4776697;0;
-220.0269;0;0;-191.5949;-2.215952;-10.36057;-182.7068;-184.4023;0.1538109;-0.2173203;0;
-246.9172;0;0;-215.8901;-9.045252;-9.412525;-206.3237;-212.4528;0.3485584;0.1727021;0;
155.129;0;0;153.8911;-11.78283;-7.527545;188.1854;183.8741;0.1533061;0.3024633;0;
699.6368;0;0;685.7815;-5.5417;-15.49071;725.2887;721.9813;-0.04174997;0.1722247;0;
478.732;0;0;520.1754;-4.531754;-16.68083;510.7924;505.2394;0.4780307;0.1070843;0;
155.4757;0;0;230.9228;-4.459851;-12.04237;190.6273;188.6406;0.5425177;0.366846;0;
193.8001;0;0;262.1749;-2.244567;-11.96329;227.0424;229.1181;-0.1077008;0.3664774;0;
-169.3372;0;0;-77.29301;-1.371655;-9.473022;-128.882;-128.4325;0.1522768;0.04127248;0;
-684.0332;0;0;-580.9622;0.7731767;-9.12859;-637.934;-638.7344;0.4769605;-0.02373635;0;
-516.2424;0;0;-462.75;3.115948;-5.703287;-475.3119;-475.112;-0.04325751;0.04125486;0;
-224.4326;0;0;-197.793;4.118172;-3.68819;-185.2924;-187.0917;-0.3680508;-0.218656;0;
-247.1955;0;0;-216.0849;9.807461;-11.3203;-205.7208;-210.7042;-0.1727789;-0.2184363;0;
158.724;0;0;157.1322;10.93571;-12.1797;192.9106;189.8688;-0.107638;-0.02331476;0;
703.3531;0;0;688.3322;10.99207;-13.30617;731.1961;728.3447;-0.4973339;-0.2831607;0;
482.2572;0;0;519.1003;11.71796;-14.83341;515.6943;510.2846;-0.2369648;-0.3478435;0;
148.69;0;0;214.9813;4.003023;-11.53634;184.8422;181.8742;-0.04182464;-0.0226573;0;
194.8298;0;0;257.4313;2.257688;-11.25682;229.7588;230.5419;-0.2366846;-0.02263453;0;
-153.1286;0;0;-57.85648;-0.8924122;-10.57568;-112.3002;-111.4555;0.2832919;0.1073229;0;
-690.3921;0;0;-579.2862;-2.432733;-10.49807;-643.8577;-643.5759;0.607844;0.1721824;0;
-532.34;0;0;-473.8818;-2.631359;-5.9328;-490.1626;-488.4444;0.02252713;0.04207472;0;
-218.5875;0;0;-193.234;-3.967886;-3.783507;-179.1387;-179.8585;-0.2373649;0.3668692;0;
-246.9785;0;0;-217.8399;3.671911;-7.999508;-205.8827;-210.3499;0.2826124;0.2365658;0;
146.6344;0;0;145.5715;3.5345;-6.785777;181.6295;178.4162;0.3472957;-0.1534759;0;
698.1473;0;0;684.904;15.45367;-13.2092;727.61;724.5873;-0.04285727;-0.02338704;0;
485.5523;0;0;526.545;21.06422;-16.14305;519.6081;515.0267;0.02215313;0.1065712;0;
158.2912;0;0;228.9153;3.293184;-4.271219;194.2493;191.609;0.08709821;0.04149674;0;
188.6792;0;0;253.2979;1.949728;-2.257439;223.5393;222.5258;0.0870107;0.1064224;0;
-172.329;0;0;-77.10312;-5.821763;-4.06371;-129.8204;-131.5824;0.41176;0.3012175;0;
-688.0215;0;0;-579.8979;-12.51372;-1.782207;-638.6841;-639.6947;0.3463789;0.1709801;0;
-527.6605;0;0;-468.371;2.100891;-3.521973;-482.2456;-482.0683;-0.0437732;-0.1540284;0;
-233.2155;0;0;-201.9715;3.103158;-1.910843;-189.7828;-192.1044;-0.3035986;-0.02393895;0;
-254.4704;0;0;-221.1963;-0.985797;-3.583497;-209.0823;-214.5875;-0.1733588;0.3009218;0;
145.7718;0;0;147.3408;1.49344;-4.115759;183.9928;179.3677;-0.04324996;0.5604888;0;
690.9762;0;0;677.3013;-6.546012;4.529052;722.9119;719.2285;0.3465976;0.4299909;0;
479.263;0;0;516.7012;-8.079677;6.064987;516.4764;511.5473;0.4112166;-0.1551472;0;
146.4485;0;0;216.9574;1.707706;8.604244;186.4981;185.1971;0.02099938;-0.479828;0;
186.3437;0;0;252.0966;2.643995;10.47112;224.479;228.1144;0.2158803;-0.4143785;0;
-159.045;0;0;-60.31231;7.530483;6.441623;-114.3264;-112.2564;0.150696;-0.02415811;0;
-692.9918;0;0;-575.4302;10.33595;6.167219;-642.1336;-641.3776;-0.3691941;0.2357356;0;
-534.4998;0;0;-469.7799;4.096279;1.405356;-488.6277;-487.4352;-0.4987578;0.04059666;0;
-221.9945;0;0;-189.1362;3.422578;-1.208268;-178.7923;-180.4744;-0.3033547;-0.08937883;0;
-259.6899;0;0;-221.8671;5.160451;-1.073088;-214.3447;-217.8367;0.02178688;-0.284191;0;
133.2487;0;0;138.9246;5.959548;-3.282447;171.6768;169.1253;0.216667;-0.3488728;0;
698.0183;0;0;689.7581;-3.624633;-2.475353;730.4108;726.675;0.2164493;0.1062491;0;
484.7988;0;0;530.2073;-7.238313;-3.47761;524.0928;518.4241;0.4111338;0.04117502;0;
149.5424;0;0;226.0772;3.351531;-2.603338;192.4201;189.8806;0.5406554;0.04113365;0;
187.8103;0;0;258.3337;4.219796;-1.796927;228.3961;229.17;0.2802428;0.171027;0;
-168.8867;0;0;-69.32379;4.951514;-6.215873;-121.5951;-122.0089;-0.04487551;0.04092047;0;
-689.2053;0;0;-574.6251;7.291063;-6.745491;-635.9643;-636.3152;0.08510427;-0.02408801;0;
-530.2798;0;0;-463.4158;3.532693;-5.332071;-481.715;-480.8787;0.2149534;0.04090355;0;
-239.3305;0;0;-200.0199;4.132356;-5.326714;-191.9389;-194.1019;0.2797048;0.04086245;0;
-265.0145;0;0;-222.2451;5.333652;-2.709149;-215.2967;-220.2061;0.3443911;0.1057887;0;
133.3017;0;0;144.3566;5.931505;-1.6347;176.7852;173.0051;0.149143;-0.02425226;0;
684.7655;0;0;680.6294;6.59513;0.242465;721.9584;718.9318;-0.2408109;-0.08919523;0;
483.7407;0;0;528.7715;6.32106;2.519519;525.6438;521.1834;-0.3705036;0.1707638;0;
151.9211;0;0;227.0166;14.35168;-0.7650542;197.7177;194.6361;-0.110262;0.3005269;0;
183.6275;0;0;253.9623;18.22301;-0.8312684;227.5664;227.299;-0.1751185;0.04035554;0;
-163.3827;0;0;-61.50944;8.089663;2.987472;-113.6783;-114.82;-0.2399099;0.1052823;0;
-693.2646;0;0;-573.8776;6.675014;3.051453;-637.051;-638.0041;0.2800699;0.2351112;0;
-540.2071;0;0;-471.2272;13.63453;7.938019;-488.7975;-487.4384;0.1498538;0.3648097;0;
-225.0724;0;0;-186.709;13.21869;10.7432;-176.5881;-177.6666;-0.3050682;0.1695411;0;
-253.8317;0;0;-211.0091;15.54993;1.355043;-204.1467;-208.5974;-0.369729;-0.2854007;0;
125.8576;0;0;137.5278;16.27124;-0.3877531;169.1834;165.4243;-0.3693575;-0.2851139;0;
686.949;0;0;684.3022;11.16468;5.105115;725.0464;720.9787;-0.5638884;-0.4147621;0;
489.3578;0;0;537.1882;10.08173;5.166968;532.5392;526.3517;-0.3684197;-0.2194433;0;
148.9744;0;0;227.9286;4.779342;5.429708;194.9236;191.7408;0.02175451;0.3005159;0;
183.8071;0;0;259.1838;1.224566;5.959994;227.7112;228.8419;-0.108202;0.2352466;0;
-161.579;0;0;-56.98033;6.247177;3.944639;-111.2224;-111.5296;-0.04312597;0.2999776;0;
-690.8381;0;0;-570.6024;6.441971;2.868949;-633.4731;-634.1548;0.2167867;0.5595455;0;
-540.2192;0;0;-468.2052;1.345283;5.947159;-487.2223;-486.2791;-0.1082678;0.5589833;0;
-234.08;0;0;-189.8744;1.142861;5.941183;-183.5726;-186.2535;-0.4329957;0.2335849;0;
-254.3345;0;0;-203.6141;2.883024;1.91636;-201.0043;-207.4306;-0.3675933;0.03844818;0;
134.7256;0;0;148.8509;4.555067;0.5077924;181.6929;176.0851;-0.1073546;0.3632463;0;
686.3129;0;0;679.5595;4.349419;0.4404212;726.6114;721.384;0.08765531;0.1030119;0;
484.6618;0;0;531.3883;5.014634;0.5068396;529.9173;524.8201;0.08756724;-0.2868957;0;
147.0942;0;0;227.132;14.11927;-4.182353;195.4901;194.3961;0.02251191;-0.02673803;0;
180.4921;0;0;255.7643;16.64971;-4.379099;227.8399;229.8079;-0.04247805;0.1681909;0;
-170.388;0;0;-63.26997;16.16446;-3.03504;-116.0913;-116.3117;0.2824013;-0.02688016;0;
-703.5737;0;0;-579.322;16.0145;-2.898025;-643.397;-643.4298;0.6719216;-0.02685316;0;
-543.322;0;0;-470.7317;16.19948;6.281305;-488.8279;-486.5493;0.2164751;0.1031085;0;
-227.6219;0;0;-187.8381;15.04412;9.356208;-175.8064;-177.0283;-0.1735465;-0.3517665;0;
-261.626;0;0;-215.8227;7.058405;12.76281;-207.0514;-212.1451;0.02152993;-0.4813477;0;
113.3235;0;0;129.2833;4.907859;16.43393;160.7843;157.5698;-0.04345905;0.1688094;0;
674.6774;0;0;673.005;-9.900179;13.00141;714.9691;712.5074;0.216454;0.2985744;0;
480.2219;0;0;530.7125;-17.65976;13.92611;526.2827;521.0124;0.3461712;-0.09152963;0;
134.7253;0;0;218.3359;-5.853022;11.56771;184.2381;180.7222;0.2158887;0.2333991;0;
169.8847;0;0;246.9771;-7.32101;10.08259;218.0359;218.1467;0.2806391;0.03826252;0;
-162.5565;0;0;-54.61964;-5.170199;11.74691;-107.3947;-108.1586;0.3453244;-0.2216453;0;
-690.6901;0;0;-565.6204;-3.356343;10.46255;-629.5244;-630.6622;0.1500754;0.2983162;0;
-543.882;0;0;-470.9743;-7.84095;11.92554;-488.7122;-488.2873;0.214892;0.1680817;0;
-232.8041;0;0;-189.6423;-6.895066;11.84657;-180.5633;-182.5126;0.6044801;-0.1569239;0;
-258.5571;0;0;-210.0039;-12.31412;10.16022;-204.1824;-209.5031;0.9287093;-0.02683154;0;
123.4483;0;0;139.4691;-14.17678;10.75273;171.584;167.3306;0.4080375;0.03816278;0;
681.856;0;0;683.6179;-8.871251;5.785313;724.446;720.2595;-0.3719806;0.1030918;0;
487.7056;0;0;539.8154;-7.857959;4.640912;535.4377;529.0065;-0.4365742;-0.02694651;0;
152.009;0;0;234.6136;-9.85882;8.990018;201.9421;198.5783;-0.04633144;-0.3517562;0;
189.0251;0;0;269.5477;-9.246677;9.315899;237.5962;239.1083;0.01868245;-0.41637;0;
-153.1179;0;0;-42.69133;-6.424347;11.65082;-96.66216;-96.46339;-0.1762383;-0.09111496;0;
-692.3804;0;0;-565.5106;-5.547235;11.90704;-629.4222;-629.3486;-0.2410286;0.2338133;0;
-549.3188;0;0;-470.7397;-0.3840978;13.56965;-491.3588;-488.9115;-0.04588439;-0.09125834;0;
-237.9231;0;0;-189.4704;2.430303;13.02015;-182.8324;-183.3236;0.1490637;-0.2860687;0;
-265.1077;0;0;-212.5183;-1.591603;13.47595;-208.0734;-211.9374;0.2788486;-0.2857812;0;
119.1531;0;0;138.5813;-0.9204181;14.40017;170.0707;167.6474;0.01869909;-0.1555594;0;
683.937;0;0;686.6041;-2.459735;-0.2162097;728.6814;726.2606;-0.3061564;0.1694336;0;
490.2842;0;0;543.7981;-3.863783;-3.833071;541.0432;535.5638;0.21389;0.1042961;0;
151.8989;0;0;237.4054;3.642188;-5.369705;205.7303;202.2554;0.4085771;-0.2206455;0;
191.4763;0;0;272.3367;5.781982;-9.852165;241.6304;242.8442;-0.1115722;-0.09048908;0;
-154.1674;0;0;-42.59129;-0.9889817;1.946486;-97.69193;-97.60381;-0.04649276;-0.2853002;0;
-701.6747;0;0;-570.4081;-1.792271;3.08324;-637.8847;-638.9211;0.08348864;-0.6748176;0;
-554.6058;0;0;-471.8218;3.166023;6.563132;-496.2521;-495.1635;-0.1764646;-0.4142701;0;
-231.0233;0;0;-181.6808;4.234569;11.44617;-176.3515;-177.5129;-0.11132;-0.4788212;0;
-258.0275;0;0;-206.7355;3.359657;-2.83233;-202.2862;-206.4449;0.2136286;-0.5433074;0;
117.9804;0;0;136.8621;4.361636;-4.838972;166.6068;163.889;-0.1114228;-0.1529575;0;
681.1412;0;0;684.3868;2.548592;1.998027;724.0966;720.6318;-0.4361475;-0.02286909;0;
488.3658;0;0;544.1442;1.608026;1.393173;537.0251;531.8148;0.1489968;0.3019906;0;
152.1689;0;0;239.3129;10.18023;6.214423;203.4654;202.4457;0.2138144;0.1717525;0;
190.0593;0;0;269.6821;13.5189;8.75353;238.8056;241.8474;0.08366491;-0.02332213;0;
-156.2701;0;0;-46.86742;8.280402;2.850358;-101.0761;-100.0988;0.6033196;0.3665054;0;
-695.9043;0;0;-566.809;10.7513;2.445596;-633.3945;-632.9803;0.537746;0.3011698;0;
-556.8995;0;0;-475.1602;5.113447;7.399754;-498.0132;-495.5381;-0.2424024;0.2358998;0;
-244.9965;0;0;-196.4476;2.29527;8.062148;-188.918;-190.0685;-0.6319629;0.04076074;0;
-259.1806;0;0;-211.3676;20.91349;6.98232;-202.2838;-208.4307;-0.4364259;-0.2841169;0;
121.7635;0;0;137.4195;24.24137;6.037543;171.919;166.403;-0.176118;-0.08892943;0;
679.0485;0;0;681.1956;20.46695;6.835272;723.0316;718.1458;0.1488957;-0.02387273;0;
494.0838;0;0;549.452;21.45076;5.354779;542.0832;536.4527;0.2137134;-0.2187508;0;
151.3844;0;0;239.8053;17.81189;3.473999;201.9592;199.4578;0.01859665;-0.1535636;0;
185.7149;0;0;266.1759;17.25813;2.59973;234.6147;235.1143;-0.1113567;-0.08844198;0;
-143.9311;0;0;-35.87735;6.055001;-7.383095;-88.95847;-89.64626;-0.04627749;-0.2182878;0;
-694.0099;0;0;-566.2622;0.6902819;-11.19358;-631.159;-633.7202;0.0837037;0.3016703;0;
-559.8171;0;0;-482.0477;6.852506;-10.24457;-500.7151;-502.8988;0.1485869;0.2363998;0;
-225.5474;0;0;-181.2768;5.907616;-12.37773;-170.1903;-173.3714;0.213405;-0.3485438;0;
-248.9964;0;0;-199.7728;2.284357;-10.42279;-191.6335;-197.9972;-0.1766135;0.3014798;0;
115.883;0;0;131.4491;1.277684;-10.74723;167.6286;160.8339;-0.3713381;0.2362096;0;
685.043;0;0;681.7278;6.969827;-5.846802;730.3022;724.389;-0.2410303;-0.4137012;0;
502.6335;0;0;550.9207;9.038929;-2.42492;552.5325;546.6876;-0.04588605;-0.02348146;0;
155.0529;0;0;235.0257;7.623327;-9.187637;209.1496;205.497;0.1490621;0.1714442;0;
188.5677;0;0;264.2747;9.491677;-8.843491;240.9858;240.3354;0.08394496;-0.1535648;0;
-143.0177;0;0;-37.02705;5.731096;-5.485458;-85.65476;-87.11663;0.148828;-0.2183779;0;
-681.1035;0;0;-558.4152;3.916676;-5.613912;-616.4893;-618.5744;0.4735151;-0.0232564;0;
-546.2366;0;0;-470.2107;12.35186;0.4869315;-485.6228;-486.9562;-0.0466994;0.04173432;0;
-233.7195;0;0;-187.3802;13.2101;2.161016;-177.7269;-182.0574;-0.3065218;0.04169239;0;
-252.9124;0;0;-203.4962;10.31742;0.283322;-195.9141;-203.1763;-0.1113118;0.3015199;0;
125.5266;0;0;142.0972;11.37878;1.287781;175.9085;170.9024;-0.2411347;-0.02361983;0;
680.8713;0;0;680.3713;2.659806;-4.139008;724.8932;720.2045;-0.175925;-0.4134001;0;
495.53;0;0;546.6295;0.3126092;-5.407403;545.1298;538.7592;0.01915377;-0.2180827;0;
158.7011;0;0;242.4204;3.326405;-4.397347;210.8748;208.0088;0.01913452;-0.1528963;0;
188.9014;0;0;267.0393;2.050265;-4.995654;239.2735;239.284;-0.1108194;0.1720941;0;
-143.4964;0;0;-37.95085;7.33949;-1.976524;-86.6782;-88.72919;-0.3056101;0.1719212;0;
-685.892;0;0;-563.586;8.33747;-0.3669475;-622.6342;-624.6206;-0.110401;-0.1530883;0;
-553.519;0;0;-478.1873;9.266121;-1.170374;-493.823;-493.0588;0.2145467;-0.0229998;0;
-226.0022;0;0;-180.8561;10.59696;-0.5663516;-169.9268;-169.9131;-0.04553826;0.04199067;0;
-255.885;0;0;-206.7237;9.313512;5.663386;-199.4911;-202.9132;-0.6301986;-0.1529536;0;
104.1288;0;0;122.3812;11.04547;7.667183;154.5315;150.9255;-0.4996307;-0.5426039;0;
681.1716;0;0;683.726;0.3170979;7.190599;725.4641;721.4245;0.1505448;-0.607026;0;
506.1372;0;0;557.5396;-3.902779;8.188118;554.6957;548.8484;0.3452955;-0.4115141;0;
156.9914;0;0;235.6408;9.497728;6.237385;208.1872;206.094;0.2150139;-0.02129654;0;
196.1264;0;0;265.7013;11.2295;6.030169;245.2717;247.5535;0.01989583;0.3035616;0;
-132.2182;0;0;-30.41693;6.395443;3.143966;-76.93787;-76.03275;0.1498105;-0.02158017;0;
-679.4977;0;0;-554.8727;6.791158;2.06908;-617.6512;-617.3093;0.4744967;-0.1514932;0;
-546.6938;0;0;-469.6703;6.248471;2.669847;-488.97;-487.5664;0.2791179;-0.1513409;0;
-225.9305;0;0;-181.4679;5.840051;2.600182;-170.7634;-171.9224;-0.04599927;0.1736479;0;
-242.1327;0;0;-196.2781;8.044986;3.669296;-184.7722;-188.8036;-0.3707898;0.3683754;0;
127.9872;0;0;141.8743;8.907558;4.201472;179.4805;176.8275;-0.5653192;0.3030379;0;
678.0195;0;0;675.9632;4.679049;7.747224;722.8395;720.9387;-0.1099798;0.3027334;0;
496.3667;0;0;543.2878;3.602621;8.87815;545.0771;541.6166;-0.1098693;-0.2173095;0;
161.536;0;0;241.7057;5.742455;9.80699;213.3834;211.8628;-0.4345956;-0.2170912;0;
194.8569;0;0;272.2599;4.664958;9.797135;244.903;247.257;-0.1742895;0.4328004;0;
-134.486;0;0;-26.98839;11.55915;7.978753;-79.36768;-77.39083;0.1507223;0.4973328;0;
-677.7027;0;0;-548.6365;15.49965;5.425384;-616.268;-615.9174;0.3454729;0.3019311;0;
-549.8981;0;0;-467.0635;0.5472445;5.486916;-492.4607;-490.986;0.2151911;0.04175836;0;
-224.1341;0;0;-177.6769;-2.06625;4.275831;-169.1282;-170.2786;0.08504014;-0.2831203;0;
-250.458;0;0;-204.1725;9.657474;-8.521961;-192.5089;-198.2808;0.01998736;-0.08793382;0;
107.9261;0;0;121.6815;11.52378;-12.19734;160.3198;156.1154;-0.1099674;0.1070566;0;
684.9026;0;0;680.5283;11.31113;-16.94075;730.5595;727.7961;-0.3697263;-0.1529204;0;
507.1159;0;0;554.2826;12.90735;-21.27749;556.2877;552.4026;-0.1744528;-0.08779938;0;
151.4099;0;0;231.7;13.89876;-10.67305;203.2184;202.5231;0.2804939;0.2371256;0;
197.9843;0;0;271.0098;13.55;-8.786931;248.179;251.8572;0.08531006;0.1069526;0;
-124.9899;0;0;-22.17778;19.76568;-4.491316;-68.97359;-65.11164;-0.1096777;0.1718125;0;
-680.6475;0;0;-557.6364;21.6882;1.005675;-617.5035;-614.7074;0.4101713;0.1066725;0;
-551.5906;0;0;-476.8663;10.61435;-4.286865;-492.1333;-489.215;0.2148571;-0.4131734;0;
-229.8228;0;0;-187.5324;8.059064;-2.273069;-173.9235;-173.0072;-0.1751629;-0.3477909;0;
-253.2674;0;0;-208.021;5.639093;2.953761;-196.2374;-198.4454;-0.04505216;0.1073299;0;
116.1765;0;0;129.331;2.150802;3.754589;166.4026;165.4461;-0.3698436;0.04225476;0;
683.2746;0;0;678.2375;5.430194;12.05646;727.2034;726.9976;-0.6943087;-0.1526897;0;
506.0518;0;0;552.4315;5.291017;14.92461;554.9964;553.6663;-0.04393763;0.1723004;0;
164.2149;0;0;246.3425;1.936797;8.278422;216.4836;217.9035;0.5408126;0.5619313;0;
198.7824;0;0;276.5796;1.600059;7.198378;249.1871;253.9163;0.4103345;0.23653;0;
-137.7483;0;0;-31.73095;5.885359;6.1864;-82.08444;-78.04709;0.4099222;0.171325;0;
-683.4604;0;0;-560.2459;7.620757;4.505733;-621.9805;-619.0092;0.344543;0.4310222;0;
-553.4637;0;0;-476.4123;7.746822;-0.1874774;-496.6682;-491.7009;-0.04560729;0.1057524;0;
-234.5676;0;0;-186.2667;8.944487;-3.40247;-180.6403;-176.9898;-0.1754961;-0.02428856;0;
-253.5098;0;0;-199.6977;11.68217;-0.04990436;-197.1379;-197.8639;0.01958222;0.04070321;0;
109.625;0;0;132.6485;13.41174;-0.1168372;159.8184;158.4684;-0.1103721;-0.08927239;0;
681.6648;0;0;682.0515;10.51787;-3.130952;724.9986;722.9629;-0.1752286;0.1057194;0;
507.3171;0;0;553.9302;9.837721;-2.457976;555.4175;551.7596;0.2147515;0.4954172;0;
147.9253;0;0;229.2865;12.7746;-4.464994;199.2881;199.4445;0.4094378;0.3649847;0;
191.0674;0;0;266.3499;12.62804;-5.331164;240.7545;245.0961;0.01922233;0.1697159;0;
-124.4661;0;0;-19.77405;11.4099;3.515696;-68.39469;-64.68209;-0.175699;-0.09032398;0;
-682.9352;0;0;-556.1721;11.26472;5.387563;-619.9237;-616.7146;0.2142816;-0.4150699;0;
-565.2454;0;0;-486.8977;8.038216;5.784047;-507.1697;-502.4645;0.1490989;-0.1547835;0;
-236.4049;0;0;-190.2449;7.293204;7.921689;-181.6359;-178.9345;-0.1758876;-0.08966064;0;
-252.2842;0;0;-200.6109;6.482569;0.2108143;-194.7592;-195.7462;0.01919116;-0.1545379;0;
109.2876;0;0;128.238;5.470701;-2.133678;160.383;159.4596;-0.1107628;0.1054868;0;
679.9534;0;0;680.4565;9.417319;1.485422;723.876;723.2034;-0.3055535;0.1703481;0;
508.606;0;0;559.5831;10.14479;0.4791856;557.7319;555.748;-0.1103445;-0.02472508;0;
161.9564;0;0;245.6159;9.062871;-2.40144;214.7186;214.6733;0.2795704;0.04026712;0;
197.5882;0;0;277.8528;8.249481;-3.537737;249.3603;252.2511;0.01942016;0.300096;0;
-133.0068;0;0;-25.89885;13.86825;-4.672892;-75.41462;-72.65172;-0.0455667;-0.02504224;0;
-686.4074;0;0;-561.2912;16.19884;-5.337904;-622.8137;-619.4288;0.6691198;-0.6097232;0;
-562.4671;0;0;-482.8289;4.259841;-3.926021;-502.3731;-497.8047;0.4735455;-0.4142085;0;
-233.9418;0;0;-189.9282;2.245829;-2.783366;-176.5943;-175.0915;-0.1116364;-0.2838576;0;
-251.6977;0;0;-205.6669;2.980507;-3.919279;-193.1584;-194.7181;0.01841045;-0.218605;0;
104.8761;0;0;119.439;0.900431;-2.97758;156.6099;155.8014;-0.1765101;0.4312881;0;
676.171;0;0;672.3535;7.329888;0.3744364;721.8559;720.1736;-0.5661368;0.5607894;0;
509.0128;0;0;558.8596;8.527971;1.780702;559.8991;556.5944;-0.4356332;0.1054545;0;
154.4293;0;0;241.6447;8.38568;6.132681;208.2005;207.7102;-0.1753261;-0.08955349;0;
192.255;0;0;276.3843;9.516331;8.403938;243.411;246.6693;-0.04521528;0.2353732;0;
-123.2172;0;0;-16.62122;9.841561;7.524716;-67.11511;-63.67273;0.2146995;0.2351367;0;
-678.5641;0;0;-557.2703;10.83605;7.986036;-616.0842;-612.2704;0.0845491;-0.08993628;0;
-558.9421;0;0;-481.9979;10.62409;7.71008;-500.5229;-495.4012;-0.2403726;0.1700235;0;
-228.109;0;0;-184.7252;12.42208;7.099486;-172.4347;-170.2541;0.149673;0.3647546;0;
-252.7423;0;0;-205.9039;6.113932;3.34143;-194.8126;-196.5072;0.2794573;-0.02541592;0;
100.3968;0;0;117.3281;4.500198;0.2568581;152.0214;151.2655;-0.5653989;-0.1553251;0;
675.944;0;0;674.6176;12.80107;4.007644;721.3949;721.0145;-0.6297982;-0.02523431;0;
508.9734;0;0;560.8091;12.78821;4.271549;559.0638;557.9966;-0.3043286;-0.2850783;0;
156.5764;0;0;243.6547;19.072;-5.645973;208.6779;211.235;-0.2390555;0.1050122;0;
187.7158;0;0;268.8346;20.66043;-7.850737;237.5161;242.9442;0.02105407;0.364776;0;
-136.4974;0;0;-25.66262;19.70166;-5.498446;-80.87514;-76.45199;0.1509676;0.1695075;0;
-680.9615;0;0;-550.2481;22.42756;-6.229733;-619.1483;-613.9799;-0.1090535;-0.02556487;0;
-559.2756;0;0;-478.3561;3.449704;-1.668756;-501.9597;-495.5472;-0.2388786;-0.4153432;0;
-232.9399;0;0;-187.9587;-2.247189;0.14146;-179.1174;-176.0222;0.08619817;-0.02512184;0;
-247.6358;0;0;-199.6389;9.476716;1.413872;-191.4311;-192.4619;0.1510789;0.4946421;0;
102.812;0;0;122.4;10.00306;3.154007;153.9627;154.4946;0.1509271;0.1043411;0;
675.046;0;0;676.7483;7.983274;5.830033;718.649;720.4923;0.2157428;-0.1556332;0;
515.3851;0;0;566.1235;9.315399;8.369527;561.8179;561.2231;-0.1093107;0.03942528;0;
156.5473;0;0;241.7175;15.13319;2.868639;205.1199;206.4622;-0.1741682;-0.0255817;0;
195.5579;0;0;273.6459;18.19944;2.128944;242.5824;247.6089;0.02090882;-0.220458;0;
-112.5464;0;0;-8.487356;21.26164;5.743761;-58.63506;-54.92541;-0.04407953;-0.1552692;0;
-673.7761;0;0;-550.3315;23.38373;5.470058;-613.6721;-610.0911;0.1508668;-0.0901458;0;
-562.2173;0;0;-486.123;27.71449;6.80422;-507.1712;-501.9697;0.2156825;0.2347815;0;
-226.7583;0;0;-182.1621;30.03116;6.663417;-174.8284;-172.8804;0.02056379;-0.09029114;0;
-251.6428;0;0;-201.844;21.49452;7.929398;-197.3289;-199.3808;-0.1743589;-0.7398738;0;
93.43674;0;0;110.0771;18.39147;8.993157;142.4487;141.0235;-0.1741837;-0.3493263;0;
674.4882;0;0;671.3093;21.18603;3.022762;717.329;715.7179;-0.238976;-0.1540733;0;
511.767;0;0;561.0024;19.69087;1.947998;558.5002;555.6413;0.02113347;-0.2838532;0;
155.619;0;0;238.8503;14.44715;3.017767;204.2419;203.5722;0.1510469;-0.08866594;0;
195.6924;0;0;272.031;13.56197;2.478871;242.08;243.5974;-0.3688436;-0.1535442;0;
-119.9707;0;0;-14.34849;11.13647;6.6292;-67.38279;-66.86642;-0.4984077;-0.4132593;0;
-672.4473;0;0;-546.8789;11.52742;8.765993;-612.541;-612.0876;-0.1081028;-0.2829093;0;
-562.0143;0;0;-482.9862;12.05171;6.010885;-505.7289;-503.0896;-0.04302683;0.1721463;0;
-235.3011;0;0;-190.8975;11.90587;6.406743;-183.0702;-182.2451;-0.1079509;-0.1528634;0;
-247.4334;0;0;-202.6996;25.96008;11.75882;-194.0057;-197.4293;0.2169942;-0.5425138;0;
103.5139;0;0;116.9685;29.34927;12.68476;151.016;148.6578;0.1518089;-0.1521647;0;
674.9976;0;0;670.1353;35.88387;16.28897;716.1426;715.0361;0.02172163;0.172825;0;
511.4637;0;0;557.6432;41.80966;18.34908;558.1895;555.3975;0.2815692;0.04271663;0;
159.7513;0;0;240.367;25.75909;11.83342;209.0539;208.9508;-0.04355045;-0.2171957;0;
198.6337;0;0;271.8596;23.45603;10.68282;244.8257;247.9087;-0.108474;-0.4118795;0;
-114.5336;0;0;-11.77117;22.62818;8.863667;-62.39098;-60.74789;0.08653698;-0.2815309;0;
-666.0787;0;0;-538.8694;18.38589;6.711307;-606.992;-606.1002;-0.108452;0.108556;0;
-559.0879;0;0;-479.1702;21.2478;9.450863;-503.9336;-501.5434;-0.2382777;0.498251;0;
-226.443;0;0;-183.9618;18.07764;9.709299;-175.1548;-174.2662;-0.1730709;0.3028483;0;
-243.7692;0;0;-196.8329;24.95933;7.154191;-191.2206;-193.4564;0.02200499;-0.4770641;0;
95.4304;0;0;113.8338;28.01473;7.481917;141.8042;140.945;-0.1079518;-0.7364541;0;
681.4149;0;0;678.7479;9.63448;7.005519;720.4958;720.2621;-0.3027454;-0.34591;0;
524.1839;0;0;568.6833;5.404265;5.85977;568.2855;564.5538;0.08736289;-0.02072577;0;
149.7826;0;0;227.5956;13.23572;15.29823;197.9004;195.984;0.0872751;-0.215607;0;
188.3002;0;0;259.9131;11.68217;17.69425;234.1207;236.6415;-0.04274727;-0.345325;0;
-111.9882;0;0;-9.962573;15.01934;13.45666;-59.90436;-58.38556;0.3470997;-0.2150434;0;
-669.0331;0;0;-541.3729;16.14332;14.98375;-609.3804;-608.3629;0.4766856;-0.4746966;0;
-559.5405;0;0;-475.6742;11.43805;6.729915;-504.2582;-501.3676;0.2163373;-0.734089;0;
-227.8322;0;0;-180.4069;11.49391;4.11094;-176.6659;-176.4019;-0.1736841;-0.4085147;0;
-249.4673;0;0;-203.7763;8.46825;8.594544;-197.0406;-200.0252;-0.1085423;-0.2781695;0;
97.54654;0;0;110.0208;6.784802;6.978318;143.5488;142.3163;0.02150148;-0.1479554;0;
674.6584;0;0;666.8803;11.13224;11.45904;713.618;713.0114;-0.1084548;0.2419974;0;
514.0609;0;0;557.7647;11.45585;11.84942;557.9788;555.4363;0.1515235;0.2417542;0;
157.4108;0;0;239.9887;10.17154;10.09596;205.0328;204.3669;0.2163386;0.1115766;0;
192.5474;0;0;270.1073;10.62983;10.08582;237.7477;240.3308;-0.3036175;-0.01847019;0;
-115.4288;0;0;-12.08488;11.42344;5.453982;-65.6513;-63.88287;-0.1084104;-0.4082557;0;
-663.1;0;0;-539.6201;13.42071;4.108966;-607.1256;-605.7963;0.2815026;-0.01804142;0;
-559.4855;0;0;-481.7317;12.93871;-0.5168633;-506.8157;-504.1758;-0.04361697;0.1768788;0;
-233.1495;0;0;-190.019;16.54304;-3.530576;-183.2813;-183.5801;-0.3684098;-0.08316836;0;
-246.7208;0;0;-201.5722;16.25799;-0.4458136;-195.7158;-199.2002;-0.4979743;0.1118172;0;
95.04292;0;0;111.0358;19.12205;-0.9812291;140.7493;139.2049;-0.5624413;0.1117049;0;
673.4691;0;0;671.455;29.48531;-1.516107;712.6329;711.2775;-0.3020068;0.04662531;0;
518.0577;0;0;566.2079;32.33509;-1.179669;561.4299;557.1399;-0.236736;0.1115458;0;
152.4707;0;0;232.4939;52.0622;-0.7096027;200.0472;197.4481;0.02337123;-0.01850097;0;
196.8576;0;0;265.7435;60.78477;-0.03918233;242.4498;243.2266;0.5430865;-0.1484171;0;
-98.87919;0;0;-0.3899047;48.86833;1.032584;-47.58569;-47.74669;0.4775734;-0.2782026;0;
-664.4955;0;0;-542.3671;49.95732;2.438188;-605.5699;-606.9801;0.08728952;-0.08302106;0;
-569.5627;0;0;-495.4079;45.4865;-0.1096133;-515.0066;-515.1036;0.02223447;0.1119644;0;
-235.6579;0;0;-195.3732;42.29296;-0.9131764;-184.8423;-186.1261;0.08717947;-0.0180828;0;
-252.7874;0;0;-208.6077;40.24073;4.981995;-200.5236;-205.1794;-0.04284281;0.04690273;0;
92.98042;0;0;107.1309;36.04712;6.383631;138.0703;134.9809;-0.2377018;0.4366597;0;
675.7191;0;0;671.427;37.75318;1.688533;713.5797;711.5554;-0.3024303;0.3712536;0;
520.6177;0;0;563.8061;35.97296;0.2801951;563.4378;559.7289;-0.3021264;0.04604381;0;
159.0261;0;0;236.4664;32.65526;4.633804;205.3014;204.9695;-0.4317575;0.1109649;0;
188.289;0;0;262.9653;30.34527;5.365839;232.2689;235.3731;-0.3663563;0.1108534;0;
-114.3107;0;0;-12.41063;34.86913;-0.06504881;-65.19006;-63.77562;-0.2360535;-0.2140947;0;
-662.1704;0;0;-542.5067;36.44168;0.1359653;-606.29;-605.5017;0.02405302;-0.3438143;0;
-566.2404;0;0;-493.6109;24.48235;-4.351906;-514.7266;-512.1899;-0.04093849;-0.2785015;0;
-242.3965;0;0;-201.1991;21.10885;-6.356899;-194.0578;-193.4602;0.02406999;-0.343189;0;
-257.3328;0;0;-208.868;27.3833;2.758923;-206.2316;-209.8824;-0.04092154;-0.08297478;0;
89.75146;0;0;108.8073;26.41876;4.028827;135.1167;131.2821;-0.4306845;0.176978;0;
678.9276;0;0;677.1622;25.45421;7.507769;716.8135;714.0447;-0.6251537;0.1118328;0;
528.883;0;0;577.2192;24.22318;10.04545;571.9781;567.4005;-0.5595583;0.0467531;0;
155.7888;0;0;240.6206;23.99777;7.959012;202.3389;200.5145;-0.4290613;-0.343098;0;
191.8016;0;0;270.5511;23.4378;9.625588;235.119;238.3564;-0.1687608;-0.2777859;0;
-99.61974;0;0;4.288;16.64909;4.994094;-50.59872;-48.05173;0.02631077;-0.08260471;0;
-666.4222;0;0;-542.0042;14.22146;4.453334;-609.6418;-608.2843;0.4810557;-0.2124564;0;
-575.1106;0;0;-495.7326;13.80503;5.18555;-522.3229;-519.7798;0.2856703;-0.2772103;0;
-233.8915;0;0;-190.5751;13.38902;4.644598;-184.7175;-184.2384;-0.2343554;-0.4068664;0;
-251.9598;0;0;-207.0003;8.419073;10.33324;-200.7112;-203.6684;-0.1041853;-0.2765229;0;
86.62335;0;0;100.5532;6.669302;12.13139;131.6985;129.3689;-0.1040806;0.2434937;0;
678.6761;0;0;670.9155;18.51797;14.59757;716.5221;714.1324;-0.1689433;0.5031184;0;
533.5668;0;0;574.1646;22.91999;16.99417;575.81;571.2363;-0.03883892;0.04784148;0;
166.7773;0;0;244.6905;19.0122;13.96298;211.9765;209.9687;-0.1687346;0.3076628;0;
194.2833;0;0;268.5575;20.7344;12.34136;236.751;238.3683;0.026337;0.8270923;0;
-104.137;0;0;-5.012455;27.94822;18.62523;-56.21478;-55.66105;0.2861799;0.1765879;0;
-652.819;0;0;-534.991;29.99624;18.20462;-597.8235;-597.5202;0.1559577;-0.08345893;0;
-562.7705;0;0;-490.2881;31.77476;11.95704;-511.7658;-510.0885;-0.2340031;0.306429;0;
-242.0535;0;0;-202.1276;33.28307;10.40442;-193.3489;-194.5468;-0.4936373;-0.01871563;0;
-254.9911;0;0;-209.2958;26.41713;-0.1221137;-202.9621;-207.7821;-0.03836993;-0.1486315;0;
87.15576;0;0;102.3829;24.2481;-4.207828;133.3229;129.0075;0.3514727;0.04641988;0;
671.4619;0;0;663.6229;25.0944;-5.878051;709.9615;706.3376;0.3511195;-0.01859412;0;
531.6697;0;0;571.9393;24.59969;-8.95336;573.6288;569.0091;0.1558647;0.1763266;0;
161.946;0;0;238.9692;19.01624;-3.11697;206.4242;204.4953;0.09074073;0.3710515;0;
192.143;0;0;263.4667;17.65699;-2.644958;234.1402;235.3367;0.2205842;-0.01912545;0;
-91.90734;0;0;6.143655;15.09365;1.9794;-44.39265;-44.63416;-0.2344088;-0.2789756;0;
-655.1568;0;0;-533.7162;9.117615;4.589746;-600.9433;-601.5593;-0.2991406;-0.2786953;0;
-570.7281;0;0;-495.3239;27.72898;3.379441;-521.4416;-520.2455;0.02599667;-0.3433826;0;
-230.3879;0;0;-192.1658;26.83046;4.715582;-185.2739;-185.6406;-0.2338988;-0.3430375;0;
-252.2079;0;0;-209.5889;21.57859;1.026905;-205.0152;-207.8179;-0.03876176;0.2420132;0;
79.1916;0;0;93.96922;21.75797;-0.3807688;120.6522;118.9768;-0.1036902;0.3717047;0;
676.4368;0;0;667.8363;-9.410341;-0.1794375;710.7968;709.3729;-0.2335207;0.04649453;0;
534.0159;0;0;572.0881;-16.50083;-0.9829303;572.8391;568.9803;0.3514201;0.3063172;0;
158.1054;0;0;235.9944;-37.91782;-6.273472;200.3879;198.7819;0.2860996;0.3709767;0;
190.8051;0;0;265.8046;-52.88389;-9.080452;230.7962;234.689;0.02594277;-0.01920009;0;
-95.24297;0;0;3.731643;-18.87126;-5.253423;-50.29457;-46.40561;-0.03905064;-0.1491155;0;
-651.3677;0;0;-531.5031;-15.3687;-6.252766;-599.343;-597.2071;-0.2339134;-0.4738024;0;
-564.3191;0;0;-488.2405;-11.87063;-4.705998;-515.2828;-512.7117;-0.1687111;-0.2784243;0;
-232.2937;0;0;-191.2739;-1.744648;-3.830491;-185.9928;-185.923;-0.03860684;0.1116596;0;
-250.8009;0;0;-205.4495;-14.87106;-7.644547;-203.1097;-206.9131;0.2862687;0.241482;0;
79.91003;0;0;96.73013;-13.51597;-6.967037;121.3689;118.4439;0.4159157;0.1762721;0;
663.2864;0;0;659.2252;0.8985734;-10.77794;698.3943;696.8466;-0.0392736;-0.3436438;0;
522.4404;0;0;568.0458;3.844431;-11.36996;562.9478;559.5276;-0.1042015;-0.4082658;0;
159.5352;0;0;238.3904;6.117744;-8.679338;203.6875;202.2697;-0.03912944;0.1118831;0;
195.3568;0;0;264.4501;8.858263;-10.07726;236.966;238.798;-0.2339921;0.3716401;0;
-93.5694;0;0;3.627891;0.6103399;2.994295;-46.69215;-46.48621;0.350949;0.04642995;0;
-660.253;0;0;-538.1035;-1.198935;6.809191;-606.239;-605.8458;0.2856291;-0.6032901;0;
-578.2554;0;0;-499.7693;0.7446532;-0.9674267;-528.6685;-526.0269;-0.2343967;-0.6676513;0;
-233.0351;0;0;-192.2339;-0.5279167;-0.09579853;-188.1207;-188.1679;0.1556429;-0.212209;0;
-248.9804;0;0;-208.7823;-0.863155;-5.789008;-202.112;-205.9073;0.4803232;0.1778083;0;
74.66976;0;0;85.02985;-1.665595;-7.457764;116.1812;113.4517;0.0250692;0.3075643;0;
667.0469;0;0;656.8444;0.9480471;-8.990878;700.9579;699.1682;-0.169858;0.1773206;0;
531.7568;0;0;571.7894;2.08617;-11.52707;569.6942;566.407;-0.03975266;0.04720769;0;
157.2855;0;0;235.4461;1.012347;-5.286322;199.0578;197.648;-0.1696474;-0.0178071;0;
190.4857;0;0;263.3204;2.41785;-5.28101;230.4669;233.0565;-0.1694769;-0.1477239;0;
-90.81441;0;0;10.12045;0.6741079;-1.725608;-46.12576;-42.78912;-0.234274;0.04732658;0;
-651.5038;0;0;-529.1187;0.20394;0.4194572;-599.0515;-597.6547;-0.1041039;-0.01768833;0;
-570.577;0;0;-496.5406;9.313414;-4.403614;-520.7386;-518.9684;0.02593538;-0.1476052;0;
-236.6088;0;0;-198.2539;12.78766;-3.997291;-190.756;-189.05;-0.03905802;0.1773798;0;
-252.9877;0;0;-207.7998;6.745611;-6.471521;-205.4943;-206.6636;-0.03901877;0.1122342;0;
75.03928;0;0;92.75806;6.939904;-6.598984;116.1132;114.945;-0.1039469;-0.2127153;0;
664.7924;0;0;659.1301;9.344805;-7.932012;698.9534;697.9114;-0.1688098;-0.08256685;0;
532.3157;0;0;573.573;8.062617;-8.995769;571.7522;568.3374;0.1561965;0.1124182;0;
160.1551;0;0;238.9771;14.15008;-1.685712;202.2382;201.5129;0.4159089;-0.1475642;0;
190.7287;0;0;264.7863;15.20759;-0.5453087;229.5211;233.6067;0.2855563;-0.2773506;0;
-92.13333;0;0;10.21061;6.551148;4.880613;-48.25746;-43.73872;0.2852694;-0.01720254;0;
-651.572;0;0;-526.7173;3.999946;8.224855;-600.6813;-595.8547;0.5448521;-0.1471199;0;
-566.7721;0;0;-490.3935;3.660158;1.585403;-519.1808;-512.5476;0.3494027;-0.2769068;0;
-226.4984;0;0;-188.1149;2.451032;1.449844;-181.891;-177.8256;0.08918221;-0.08172654;0;
-249.634;0;0;-206.3542;-5.320963;0.9125234;-203.2599;-203.5714;0.1540599;-0.2115791;0;
64.83386;0;0;79.14727;-8.463449;0.1078113;104.9146;104.7283;0.02397046;-0.3413012;0;
663.2179;0;0;652.5295;-3.498451;0.2416689;695.8246;695.701;-0.1709557;-0.4059256;0;
539.1135;0;0;576.0994;-4.165497;0.241426;576.2477;572.8134;-0.1707839;-0.01571366;0;
158.2005;0;0;235.0042;2.537469;-0.8974044;199.4827;197.3637;-0.2355796;0.1792042;0;
190.4628;0;0;263.1288;6.285964;-1.901247;229.642;232.3977;-0.1054082;-0.1458126;0;
-84.15316;0;0;15.55124;-1.356162;6.808201;-39.82838;-37.32534;0.1545671;0.244138;0;
-649.1595;0;0;-526.5045;-1.153729;9.480678;-597.508;-596.2569;0.08944441;0.3738273;0;
-571.4835;0;0;-497.8645;4.004994;4.38057;-523.3821;-521.8823;-0.1705148;-0.146287;0;
-235.0781;0;0;-201.0757;5.407489;3.907288;-190.2109;-192.086;0.02455853;-0.01620537;0;
-257.1432;0;0;-218.8021;5.200985;5.577813;-210.9468;-215.4436;0.08950119;0.1787129;0;
64.82851;0;0;74.83273;5.999066;4.768536;104.919;102.2383;-0.3003928;-0.2112707;0;
662.9002;0;0;649.781;6.662624;2.084427;696.2039;694.088;-0.1701563;-0.4059604;0;
543.9186;0;0;577.9764;6.522207;0.8096566;581.3117;577.2615;0.2847861;0.1141862;0;
170.6844;0;0;244.5629;10.40042;-1.669403;211.3508;209.3661;0.08959792;0.3089735;0;
192.3769;0;0;262.7454;11.79649;-1.734709;230.5036;233.3935;-0.1053941;-0.1461083;0;
-86.114;0;0;10.42059;8.168289;-8.163205;-43.21549;-40.70334;0.4144505;-0.2109289;0;
-644.1219;0;0;-523.9463;8.562223;-10.16449;-594.0202;-592.635;0.7388707;-0.0158149;0;
-572.1981;0;0;-498.6823;3.596151;-0.04009882;-525.5824;-522.3245;0.2183896;-0.3406357;0;
-238.5405;0;0;-203.3918;0.5784278;2.036412;-194.9077;-194.4018;-0.04169919;-0.2103588;0;
-252.981;0;0;-213.12;11.22777;7.995725;-206.8933;-210.0735;0.08827739;0.5044934;0;
67.92455;0;0;79.13486;13.15984;12.74336;107.7815;105.9789;0.2181234;0.5039865;0;
662.6823;0;0;649.9559;7.85436;8.309801;694.5033;693.0772;-0.1069325;0.308578;0;
546.7619;0;0;582.0241;8.851821;9.440161;582.3615;579.2502;-0.1068251;-0.1465034;0;
172.9626;0;0;246.6701;5.426675;11.30608;211.9622;211.5402;0.218119;-0.666095;0;
197.7138;0;0;265.0379;4.349496;10.75885;235.05;238.5639;0.1529325;-0.2756216;0;
-76.90944;0;0;16.52133;11.91359;13.76227;-34.11352;-31.66508;0.1527788;0.3743288;0;
-648.2949;0;0;-529.5333;14.782;14.01638;-598.8578;-596.9741;0.02269061;0.2440179;0;
-575.6797;0;0;-500.7029;8.270416;7.304121;-530.0404;-526.4094;-0.04229953;-0.01609663;0;
-225.6519;0;0;-186.6699;6.654516;4.550604;-183.3068;-181.9284;0.152645;0.3087563;0;
-251.5995;0;0;-208.159;20.31186;5.483671;-205.4864;-208.6695;-0.1723451;0.3734134;0;
62.74544;0;0;75.7201;23.64035;4.138624;104.127;102.1965;-0.4970086;-0.08173324;0;
668.6278;0;0;657.7889;16.31558;1.589114;700.4726;700.8553;-0.2366399;-0.2115858;0;
545.8923;0;0;584.2896;16.43291;1.453552;581.953;579.6492;0.02346728;-0.01647117;0;
172.9685;0;0;248.496;13.40229;-1.629002;213.6156;212.0637;0.1533784;0.3083821;0;
201.6552;0;0;270.8599;11.44644;-2.163228;239.6378;242.5227;0.283159;0.1781376;0;
-83.84154;0;0;14.15413;10.49693;2.527628;-40.83717;-37.95511;0.1529398;-0.2118455;0;
-644.8503;0;0;-521.0286;7.740694;3.261901;-594.9551;-593.2628;-0.04211595;-0.08169796;0;
-565.8667;0;0;-489.3957;10.14381;10.49254;-519.6448;-516.8923;-0.04207363;0.04831883;0;
-230.7163;0;0;-195.3015;8.79445;13.36226;-187.8517;-186.6012;0.3477727;0.04827028;0;
-246.6013;0;0;-207.599;6.508438;9.999686;-202.1557;-204.4046;0.4123906;-0.01674558;0;
69.61261;0;0;83.33846;5.161751;9.989638;107.7668;105.645;-0.1077625;0.1781733;0;
656.0604;0;0;651.0318;0.4684915;7.501354;686.6175;684.9976;-0.4324909;0.1130269;0;
540.0216;0;0;581.8496;-1.943853;5.149414;574.671;571.1162;-0.04225232;-0.3418581;0;
172.476;0;0;246.8705;-3.013627;3.536772;209.9016;208.2244;-0.1071772;-0.6013839;0;
201.0382;0;0;268.8613;-3.680184;1.52373;235.9275;238.6248;-0.2370042;-0.275943;0;
-74.33794;0;0;17.77973;-7.628601;-6.31456;-33.23686;-31.60423;0.34794;0.1141384;0;
-646.4756;0;0;-535.5225;-7.553586;-10.12624;-598.107;-598.0377;0.6074598;0.178991;0;
-578.5474;0;0;-511.2464;-7.948138;-7.771665;-534.2878;-531.9697;0.152078;-0.01609085;0;
-225.1434;0;0;-192.5176;-8.543365;-8.634634;-185.0512;-184.4221;-0.1729115;-0.2759441;0;
-240.5343;0;0;-203.4436;5.130226;-10.70231;-198.4834;-202.6026;0.02216426;-0.08076475;0;
59.30679;0;0;68.8116;9.478352;-11.83026;96.44285;91.95303;0.1520767;0.1791858;0;
661.7568;0;0;647.514;8.866591;-3.847651;690.9846;687.2488;-0.2378802;0.2439731;0;
557.2691;0;0;590.7666;11.60337;-0.3607942;590.4654;584.9219;-0.4975105;-0.01614145;0;
175.1509;0;0;247.6577;9.113467;-7.996242;211.9996;209.0853;-0.4320433;-0.6008313;0;
196.2143;0;0;265.5247;9.10431;-7.921224;230.2772;231.8636;-0.04180512;-0.2753909;0;
-80.03163;0;0;18.88176;5.545188;-4.363292;-40.19331;-39.73294;0.3480409;0.1796573;0;
-648.1656;0;0;-526.8004;3.529884;-3.890027;-600.1215;-600.0364;0.1527892;0.04954204;0;
-576.4875;0;0;-503.2202;3.392616;-2.345511;-531.2403;-529.2812;-0.2371684;-0.0154751;0;
-232.8307;0;0;-199.0547;2.451202;-2.075222;-191.4395;-192.2935;0.0229393;0.3743445;0;
-248.7761;0;0;-214.5968;0.9758463;0.9409729;-206.3645;-210.4036;0.4127203;0.6988051;0;
64.94128;0;0;71.35023;0.639097;2.547618;101.813;99.21481;-0.1074331;0.3082989;0;
662.763;0;0;649.3005;2.112324;-2.880438;693.0385;690.8802;-0.4321619;0.04811972;0;
549.2163;0;0;586.4918;1.976479;-3.815304;585.6458;581.4906;-0.04192361;0.3729081;0;
170.2296;0;0;251.6955;10.34724;-2.538795;212.557;210.4675;0.2829552;0.3725334;0;
192.11;0;0;268.3716;13.81946;-3.741937;232.0835;234.1815;0.2177036;-0.08261235;0;
-77.63503;0;0;18.91468;11.12626;-1.125842;-35.32789;-33.54433;-0.04238455;-0.1474967;0;
-646.0837;0;0;-528.6416;14.12919;-0.9907454;-600.1335;-599.4137;0.1525601;0.1125209;0;
-582.1539;0;0;-510.9315;4.938943;-3.870016;-541.5596;-539.9659;0.4122761;0.1773752;0;
-230.308;0;0;-196.7633;0.9154929;-4.803888;-192.6281;-192.4103;0.2169599;0.177197;0;
-250.8786;0;0;-213.4321;17.72643;-5.870667;-210.363;-211.6447;0.08680717;-0.08285047;0;
49.41016;0;0;57.33382;19.71836;-6.668563;83.32587;84.29429;-0.04321473;0.1121348;0;
661.7402;0;0;645.3556;14.27256;-8.269452;686.9387;688.156;-0.368008;0.5018262;0;
557.3149;0;0;587.1111;15.53102;-8.596058;586.2987;584.9536;-0.2377036;0.1115179;0;
170.8239;0;0;239.3832;7.544806;-9.659147;204.0264;204.8691;-0.3024321;-0.08349618;0;
196.9516;0;0;261.1316;6.66657;-9.448493;229.0587;234.3358;-0.3670955;-0.2783143;0;
-70.29959;0;0;20.30262;3.913205;-6.893648;-31.85289;-27.76803;0.2179794;-0.2780347;0;
-640.3174;0;0;-524.444;1.96689;-5.21227;-594.1632;-591.2693;0.5425971;0.1120488;0;
-580.4538;0;0;-507.5502;12.34739;-2.728664;-538.5938;-533.9538;0.2821825;-0.2129005;0;
-239.1043;0;0;-202.3809;14.14364;-0.8504;-201.5343;-199.3352;0.1519643;-0.01778459;0;
-249.8585;0;0;-211.7352;19.01858;2.566462;-210.7021;-212.878;-0.1730251;0.30707;0;
58.98741;0;0;65.33836;21.47771;3.568627;91.85765;90.05875;-0.1728512;-0.08304261;0;
650.8181;0;0;632.7999;22.72893;9.124503;676.7838;674.6744;0.1521592;-0.1479265;0;
542.3434;0;0;569.7579;24.4474;12.06246;572.7807;568.2371;0.2169736;-0.2127452;0;
171.9843;0;0;239.0389;17.05545;2.271077;205.5145;203.7241;0.2817229;-0.2125314;0;
195.0498;0;0;260.5378;15.76551;1.063102;226.0475;228.5693;0.4113745;-0.01741586;0;
-75.4478;0;0;14.77442;7.51065;0.5931534;-39.29632;-36.83959;0.08612448;-0.08236571;0;
-642.8992;0;0;-529.5918;3.149822;-0.7469792;-598.4758;-596.5212;-0.04389675;-0.0173156;0;
-585.9066;0;0;-514.567;7.433565;1.397103;-543.9016;-540.1374;0.2160167;0.04766915;0;
-229.4342;0;0;-196.3971;5.818505;1.194751;-191.282;-188.9584;0.02089765;-0.1472808;0;
-245.0082;0;0;-207.8189;7.755042;7.154909;-204.8953;-206.1348;-0.04409069;-0.2121001;0;
36.40911;0;0;48.19883;7.211386;9.559105;70.67213;70.68328;-0.2389484;0.1129497;0;
647.8777;0;0;634.918;11.82584;10.48714;674.1103;674.4962;-0.1087736;0.3077382;0;
558.6462;0;0;593.0507;13.08676;13.49083;589.3502;587.6743;0.2161724;0.3723963;0;
165.1574;0;0;240.7566;9.054142;10.32908;200.0159;201.2152;-0.3687509;0.1121528;0;
190.6035;0;0;259.6301;9.781979;10.92155;223.9903;228.3118;-0.4333477;-0.01789458;0;
-63.83518;0;0;29.54721;-0.8777705;12.71911;-24.79736;-21.72951;-0.1080756;0.1770254;0;
-639.2318;0;0;-520.1437;-4.426862;12.4384;-593.674;-590.2969;0.02196768;0.1768476;0;
-580.9934;0;0;-506.7525;1.605806;17.65045;-539.0421;-534.1067;0.02194561;-0.2131342;0;
-230.0857;0;0;-194.4001;2.67592;19.03936;-190.9877;-188.7433;-0.3678805;-0.7976261;0;
-243.3478;0;0;-202.3257;-0.4082282;15.87203;-202.2275;-203.2338;-0.4974455;-0.2121186;0;
64.30473;0;0;78.04931;-0.3404691;15.58815;99.57409;100.2555;-0.3020437;0.3078333;0;
662.4395;0;0;652.1198;10.97938;16.04136;689.1776;691.6074;-0.1718055;-0.01731273;0;
557.5762;0;0;593.3687;14.25088;16.22619;587.0986;587.9642;0.02326917;0.1776067;0;
181.9545;0;0;257.0663;17.25067;12.325;215.1953;217.3095;-0.3015909;0.4372976;0;
197.4512;0;0;269.2392;20.11372;11.17391;228.8471;235.0821;-0.3662552;0.3718909;0;
-72.67397;0;0;25.15373;17.01205;11.96648;-35.99982;-30.14595;-0.1709852;0.4364845;0;
-635.8179;0;0;-516.9741;17.32975;10.48083;-592.4964;-588.0852;-0.3007481;0.1761766;0;
-582.8303;0;0;-511.2697;13.76236;18.03925;-543.5504;-537.2695;0.1543255;-0.4087065;0;
-237.418;0;0;-203.9102;13.54747;20.7673;-201.301;-197.1504;0.2191378;-0.2783612;0;
-247.0495;0;0;-210.7018;6.232835;13.24459;-208.7199;-209.321;0.02401558;0.04675525;0;
44.17751;0;0;53.81456;3.547255;13.09731;77.34618;77.55768;0.1539261;-0.1481938;0;
656.138;0;0;643.0268;10.0414;13.82096;681.902;684.1123;-0.2360326;-0.01811018;0;
568.46;0;0;602.2134;9.093307;13.20423;597.8837;599.5296;-0.1058607;-0.01809199;0;
169.5265;0;0;244.1005;22.34606;17.87965;203.4809;206.312;0.154115;-0.2779432;0;
190.9703;0;0;257.8481;27.48117;19.80406;223.1415;228.5934;-0.04094187;0.1121402;0;
-60.2829;0;0;31.45273;19.41658;13.28706;-23.70876;-17.38774;0.283936;0.2419622;0;
-637.9944;0;0;-522.1132;20.40145;10.92931;-594.4605;-588.0209;0.08874865;0.1117844;0;
-590.8143;0;0;-522.6505;15.6919;21.63535;-550.9473;-543.4522;0.2185941;-0.01826265;0;
-236.4609;0;0;-205.0972;12.32723;23.08724;-200.1322;-194.6437;0.6081786;-0.2131463;0;
-242.2828;0;0;-205.5782;15.32895;15.83001;-203.1171;-203.4436;0.2177634;-0.1479648;0;
51.62557;0;0;61.49418;12.43316;14.40758;85.6295;84.99097;0.08760992;0.1770206;0;
648.4612;0;0;634.2695;12.89016;11.31189;675.5594;675.9835;0.1524892;0.1768427;0;
552.8573;0;0;580.7837;13.54679;9.425001;584.1137;582.9131;0.08736867;0.04673034;0;
178.6146;0;0;243.0571;-2.073233;3.655243;212.8381;215.0746;0.08728088;-0.1482187;0;
200.2992;0;0;262.428;-6.224335;0.1684573;232.3019;238.8464;0.02222584;-0.5378737;0;
-69.01682;0;0;21.84761;1.6188;4.254247;-31.0493;-25.69825;0.1521382;-0.2774639;0;
-640.8475;0;0;-525.2744;1.885593;3.714109;-596.234;-591.7004;0.02205063;0.2425536;0;
-589.7914;0;0;-517.875;3.959803;4.447067;-549.783;-543.6922;0.1519632;0.04740785;0;
-241.561;0;0;-209.5094;4.692759;5.916223;-204.2789;-201.3177;0.7365165;-0.01760715;0;
-253.3747;0;0;-217.9195;14.06517;1.757459;-213.1316;-214.1089;0.1510704;-0.08255679;0;
40.29486;0;0;50.97689;17.9358;0.616983;74.8754;75.64819;-0.4337875;-0.2773759;0;
652.3217;0;0;637.1935;12.55914;7.247551;678.934;679.9559;-0.1085149;-0.2121298;0;
563.2732;0;0;594.0746;13.55188;8.245013;592.295;591.5043;0.2164309;-0.4068187;0;
172.8407;0;0;244.7155;7.576413;6.629138;205.1442;207.4777;0.3461481;-0.08157321;0;
195.593;0;0;263.8973;5.023205;7.694204;226.927;233.0063;-0.1739385;0.6331495;0;
-61.09962;0;0;32.9356;5.688719;0.9883015;-24.17493;-19.28867;-0.1087964;0.4376113;0;
-644.0577;0;0;-527.5033;3.405827;-0.8212308;-599.9862;-596.4791;0.6709211;0.1773022;0;
-598.1832;0;0;-524.7869;6.61661;0.05037253;-557.9666;-552.4641;0.3454102;0.4369934;0;
-239.9495;0;0;-206.6692;7.481594;-2.427925;-203.334;-199.1488;-0.1746756;0.5015217;0;
-250.8902;0;0;-216.519;3.588334;3.133976;-211.9377;-211.5674;0.215304;-0.08368833;0;
37.3421;0;0;46.75385;3.584728;2.795913;70.94564;71.5655;0.474957;-0.4734083;0;
646.8107;0;0;630.351;5.188717;3.39595;673.1341;673.1287;-0.04525897;0.04680614;0;
565.0141;0;0;593.9231;4.714989;5.669835;595.3715;592.8049;-0.1101808;0.1117265;0;
182.7007;0;0;255.2463;9.19823;-8.736826;217.1506;216.0233;0.474636;-0.08328785;0;
197.9469;0;0;265.547;9.590153;-11.54121;229.676;232.173;0.08435499;0.2416326;0;
-62.37124;0;0;27.64962;10.05001;-9.319297;-26.05137;-23.18206;-0.3705012;-0.01847961;0;
-634.0212;0;0;-521.4147;11.44643;-12.45801;-590.3665;-587.9998;-0.4350962;-0.2133631;0;
-591.8425;0;0;-522.8898;3.263253;0.1469341;-552.1672;-548.741;-0.3696917;-0.01824666;0;
-243.6101;0;0;-212.8324;2.991554;2.826104;-208.2225;-206.174;0.08545116;-0.148163;0;
-247.1134;0;0;-213.9929;-4.647262;-0.057002;-209.2626;-210.7769;0.0853653;-0.1480141;0;
44.48845;0;0;52.71317;-9.665458;2.354441;77.2412;76.16576;-0.1096225;-0.01793072;0;
649.8894;0;0;633.7431;7.825701;-4.480062;674.4883;673.7263;0.2802917;-0.6026188;0;
566.5905;0;0;593.3763;9.55915;-5.346339;594.413;590.7158;0.2150427;-0.5370459;0;
175.0926;0;0;244.7675;10.08541;-6.211623;207.5099;204.7534;-0.04504272;0.2431018;0;
192.6578;0;0;256.578;13.09036;-8.750732;223.7307;224.725;-0.1099648;0.04795552;0;
-55.28627;0;0;29.12189;3.832831;-1.708854;-19.55946;-18.81599;-0.434691;-0.3418967;0;
-637.0632;0;0;-525.5036;3.427814;-1.10429;-594.3759;-593.6956;0.02051715;-0.08168382;0;
-598.1299;0;0;-528.099;-3.541856;-2.44284;-558.7962;-555.7429;0.3453332;0.243235;0;
-231.4004;0;0;-199.983;-7.624134;-1.234692;-195.7294;-194.6157;0.08511689;0.1780232;0;
-236.2903;0;0;-201.4687;0.3541302;-6.859896;-198.2814;-201.3541;0.02006402;0.1778443;0;
37.37216;0;0;46.35923;-0.3158109;-7.991713;70.34541;67.58811;-0.04492348;0.3725677;0;
644.5294;0;0;629.457;1.091026;-6.309109;669.9733;667.3437;-0.174813;0.4371607;0;
569.1069;0;0;599.027;1.223652;-6.637685;598.2108;593.46;-0.3695394;0.176852;0;
171.9219;0;0;244.2281;2.562569;-5.291479;205.7442;202.9346;-0.3042007;0.111707;0;
189.6152;0;0;256.5389;4.100235;-4.817281;221.467;222.4708;0.1508763;0.3714641;0;
-56.26438;0;0;33.70555;-6.553805;-4.075628;-19.82188;-19.13141;0.4755614;-0.0187132;0;
-639.6646;0;0;-522.2364;-9.695051;-3.937567;-594.7005;-594.8228;0.7349529;-0.4734658;0;
-600.791;0;0;-525.9595;-6.805898;0.4201578;-558.7457;-557.0563;0.3444104;-0.278088;0;
-241.0554;0;0;-206.5913;-8.3393;3.03207;-204.2372;-203.7364;-0.3056091;-0.2128413;0;
-247.4348;0;0;-211.4437;-11.01024;-5.142772;-209.5292;-212.0899;0.01953471;-0.08269271;0;
35.98394;0;0;45.57721;-12.87421;-6.544125;69.54116;67.67022;0.4093191;0.04732508;0;
639.6443;0;0;625.8022;-8.105851;-1.982831;665.9839;664.3647;0.08407113;-0.08265717;0;
555.4186;0;0;586.8802;-6.289045;-2.583686;585.4174;581.6759;-0.3707847;0.04736058;0;
169.1169;0;0;242.7132;-11.77508;1.169833;202.5838;200.8451;-0.2404775;0.04731299;0;
184.6891;0;0;255.1504;-11.22739;2.776248;215.6236;217.6348;0.2795029;-0.08266924;0;
-69.55627;0;0;21.69877;-10.61387;-2.25014;-34.1551;-32.08353;0.3441894;0.3721852;0;
-638.4504;0;0;-525.7354;-10.80428;-2.649776;-596.5881;-594.3312;0.2139089;0.5667133;0;
-599.5156;0;0;-528.0807;-4.630501;-0.570765;-560.319;-556.1279;0.4085959;-0.01856225;0;
-245.216;0;0;-208.8977;-3.68882;0.5015354;-209.9319;-207.5565;0.148316;-0.278413;0;
-243.6578;0;0;-204.1276;1.272356;-1.709283;-207.6595;-209.0971;-0.3066044;0.04670351;0;
35.82169;0;0;45.95189;4.61998;-1.439634;67.16116;65.97487;-0.1113943;-0.08327811;0;
637.6707;0;0;620.1796;-6.034583;1.642905;662.5444;660.2973;-0.1762497;-0.01822709;0;
564.0666;0;0;590.1962;-7.703458;1.574272;592.0388;587.6075;-0.3060073;0.6314647;0;
172.259;0;0;240.9034;-5.619613;8.873708;203.4514;202.9602;0.1490716;0.3059934;0;
189.0773;0;0;254.7793;-7.086859;10.47226;218.4268;222.059;0.2788565;-0.2140528;0;
-49.24294;0;0;39.06904;-6.142709;8.318405;-14.55064;-12.42135;0.5384457;-0.1488703;0;
-632.6502;0;0;-520.0642;-7.208263;8.84591;-590.434;-589.2439;0.5379046;-0.2136881;0;
-605.8401;0;0;-536.0333;-3.047835;2.205833;-566.9772;-564.8513;-0.04734197;0.1763307;0;
-242.6012;0;0;-210.4081;-1.102389;1.13189;-207.9003;-207.6505;0.01767295;0.3710555;0;
-245.7932;0;0;-208.3851;-7.932808;-6.639023;-208.1286;-211.7522;0.08262253;0.1108133;0;
32.37659;0;0;40.94904;-8.729121;-10.65133;65.31814;61.51083;-0.1123625;-0.2141348;0;
641.4754;0;0;623.3027;-7.849694;-1.865984;666.2004;662.272;0.01768507;-0.5387563;0;
567.3053;0;0;595.2526;-9.650468;-1.797126;596.1909;589.2054;-0.3071694;-0.2783456;0;
179.305;0;0;249.3281;-4.013716;2.491466;212.6593;208.4295;-0.6316975;-0.01819653;0;
195.8664;0;0;263.3204;-3.206376;4.900226;226.626;228.0226;-0.306226;0.3066585;0;
-52.64308;0;0;37.60666;-7.824855;4.024646;-17.54159;-16.58365;0.08388572;0.436285;0;
-628.1758;0;0;-514.6536;-7.883365;5.695053;-586.2381;-585.9683;-0.04613325;0.305912;0;
-595.2484;0;0;-523.5067;-11.96128;2.608238;-556.7261;-555.2697;-0.3059563;-0.01923214;0;
-241.203;0;0;-209.8256;-12.6862;2.739583;-206.9672;-207.5737;0.1491226;-0.1491475;0;
-244.5838;0;0;-210.5518;-13.94625;-1.282024;-208.2585;-212.3001;0.1489727;0.2408064;0;
31.52332;0;0;41.47069;-14.93759;-3.625138;64.2514;59.4642;-0.5008504;0.1755971;0;
643.4341;0;0;627.0097;-9.630317;0.8662387;668.5706;664.3503;-0.5003471;-0.2793507;0;
579.8817;0;0;606.5146;-9.084777;-0.2733415;607.4916;602.9009;0.2797637;-0.2141027;0;
181.2491;0;0;250.5838;-2.04305;2.339267;212.4545;209.7424;0.4743846;-0.2788549;0;
192.3738;0;0;259.265;1.508976;2.805798;221.1115;222.1503;0.01913658;-0.4085094;0;
-39.45311;0;0;51.67124;-4.588109;-2.488551;-6.308938;-4.771461;0.08408469;-0.08326221;0;
-623.3699;0;0;-510.0359;-4.24773;-3.758727;-582.8253;-581.9765;0.1489675;-0.1481459;0;
-604.5027;0;0;-539.4458;-6.587986;-7.304923;-566.3727;-564.5877;0.01888318;-0.01806235;0;
-238.2041;0;0;-213.3799;-8.658448;-8.972157;-203.9854;-203.9514;0.08383155;0.1768578;0;
-241.8379;0;0;-211.7287;-6.506294;-12.04423;-206.2167;-209.3062;0.1487146;-0.1481566;0;
29.70627;0;0;32.79871;-7.771578;-13.84067;60.54398;58.01988;0.01863054;-0.1480077;0;
643.8677;0;0;621.8447;-7.831118;-11.61633;666.3036;664.1569;-0.04635552;0.04704304;0;
574.9426;0;0;599.106;-7.689528;-12.14052;600.7917;595.8361;0.1485931;-0.08293893;0;
184.4983;0;0;250.179;-11.0307;-6.166961;214.382;211.4303;-0.04645825;-0.3427249;0;
195.5573;0;0;256.9241;-10.75218;-3.682518;222.1001;223.9614;-0.1763463;-0.01754388;0;
-52.32721;0;0;31.09186;-14.49144;-7.228791;-20.75114;-19.20402;-0.04623438;0.5022125;0;
-623.4875;0;0;-513.6656;-16.48661;-6.886613;-583.4474;-582.714;-0.1761226;0.04693648;0;
-595.3124;0;0;-524.1439;-7.561438;-4.535412;-558.5609;-556.5163;0.01895639;-0.4078821;0;
-250.7621;0;0;-218.3957;-7.151699;-3.392145;-218.1705;-217.6272;0.08390468;-0.2125702;0;
-252.759;0;0;-219.5505;-2.255368;-6.871727;-218.3885;-221.5939;-0.0461143;-0.1473893;0;
30.41527;0;0;35.10468;1.497942;-6.864822;59.25395;56.17673;0.08386672;-0.08227385;0;
639.5161;0;0;617.2143;-10.35893;-7.795686;660.5172;658.8798;0.2137171;-0.2121259;0;
573.9061;0;0;597.2288;-10.54959;-8.725614;599.1965;595.7491;0.0835677;-0.2768801;0;
176.0916;0;0;244.3683;-15.69656;-1.750743;205.7918;204.222;-0.1114183;0.04823487;0;
193.3434;0;0;259.1152;-19.56555;0.2603818;221.2647;223.5695;-0.436143;0.1131537;0;
-27.48996;0;0;59.95485;-5.881862;0.7959837;5.775537;6.328955;-0.4357048;-0.01689465;0;
-620.9141;0;0;-506.5082;-4.335711;3.206569;-580.2482;-580.9447;0.1494391;-0.3417144;0;
-612.6065;0;0;-538.358;-2.656415;1.193859;-575.4798;-574.489;0.2142562;-0.4063384;0;
-233.806;0;0;-201.2987;0.2256666;1.728523;-200.9645;-200.5993;-0.1757631;-0.1460607;0;
-234.1958;0;0;-199.7846;-8.146329;4.673913;-198.7636;-201.6471;-0.2405538;-0.4057833;0;
27.09579;0;0;35.11069;-10.68374;5.339046;57.49495;54.30193;-0.04541009;-0.2754409;0;
647.819;0;0;629.714;-5.850233;7.611102;669.3796;666.9394;-0.1752991;0.1146399;0;
583.5751;0;0;611.0278;-6.447567;9.411993;608.7371;605.05;0.01977902;0.0495574;0;
187.1877;0;0;256.7791;-15.88556;6.589252;216.5723;215.2627;0.4095632;-0.1453944;0;
203.5537;0;0;269.1398;-19.68701;6.917546;231.0348;233.5371;0.1492823;-0.2102157;0;
-41.90252;0;0;46.41867;-18.86393;7.446459;-9.264181;-7.201672;-0.2406718;-0.2749718;0;
-620.6945;0;0;-508.1617;-21.12215;6.434233;-581.4048;-579.4068;-0.1754626;-0.2097282;0;
-598.5816;0;0;-528.2033;-22.24;13.86275;-562.9546;-559.147;-0.1752863;-0.1445501;0;
-247.6562;0;0;-217.8908;-22.61882;15.65724;-215.8756;-213.8834;-0.2400775;-0.0794375;0;
-241.1605;0;0;-210.6754;-25.7449;11.62265;-207.9126;-210.2328;-0.04493423;-0.144325;0;
36.94214;0;0;40.41023;-26.85713;12.48175;64.22217;62.21664;-0.1098564;-0.14418;0;
642.7255;0;0;621.0778;-23.28017;6.775783;661.8572;660.9156;-0.04477869;-0.1440351;0;
580.6106;0;0;605.0864;-23.59157;4.960436;603.9084;600.0319;0.2151357;-0.07892306;0;
184.2261;0;0;252.4054;-18.61137;8.237616;211.8734;209.6873;0.08498482;0.245993;0;
194.1609;0;0;255.7749;-15.77963;7.157611;219.4066;222.72;-0.1100026;0.3107131;0;
-31.60827;0;0;49.68389;-24.73973;10.23151;-1.328003;2.044495;-0.04492473;0.05053156;0;
-615.5955;0;0;-506.7739;-25.38446;10.15425;-576.6625;-574.6677;0.1500224;-0.2093886;0;
-609.4172;0;0;-541.5594;-23.75136;11.95258;-573.3969;-570.5295;0.2798064;-0.2741455;0;
-243.2386;0;0;-214.1171;-23.45908;13.48118;-212.6893;-211.5114;0.2145579;-0.1439354;0;
-239.7458;0;0;-203.1573;-24.23979;3.018543;-207.603;-210.3619;0.01944027;-0.3386928;0;
25.36194;0;0;37.11365;-25.55461;-0.1996713;53.34954;50.28109;-0.1754813;-0.4682872;0;
647.1489;0;0;629.3411;-14.81263;4.355247;667.6121;664.9841;-0.1103376;-0.2729146;0;
590.6517;0;0;613.3415;-12.85439;4.016078;614.4677;610.6553;0.21461;-0.2726404;0;
183.6375;0;0;244.5978;-12.7751;0.1270324;211.4276;210.0553;0.149427;-0.1424317;0;
191.8238;0;0;246.1636;-9.881878;-0.4759416;217.5244;219.6518;-0.0456252;-0.07732128;0;
-38.12847;0;0;40.14467;-23.00011;0.4622977;-7.393679;-5.330911;0.2792574;-0.01227625;0;
-614.1131;0;0;-507.1206;-25.5226;0.05993556;-575.0384;-573.6024;0.4089114;0.3125728;0;
-597.9413;0;0;-530.7864;-23.48722;5.150456;-562.3417;-559.5328;-0.1112382;0.3772261;0;
-244.268;0;0;-217.9101;-25.13856;6.685888;-214.014;-212.3948;-0.1760937;0.181945;0;
-239.0876;0;0;-211.6317;-20.29053;5.674427;-206.74;-209.8701;0.4087893;-0.01313984;0;
34.20291;0;0;37.76825;-18.93;6.204588;61.89533;58.89333;0.5383132;-0.07809398;0;
643.4248;0;0;623.7482;-17.77288;5.260593;662.9685;662.3433;0.1479682;-0.07801551;0;
586.3691;0;0;611.9396;-17.08543;5.456255;610.2035;607.58;-0.1770171;0.2468996;0;
191.0409;0;0;258.2522;-7.757515;2.436663;220.1611;218.5397;0.01806276;0.1816842;0;
204.0298;0;0;263.9897;-2.994298;2.233266;230.9968;233.8123;0.4078487;-0.5331392;0;
-23.18612;0;0;57.8904;-14.37814;-1.251968;8.438993;10.62696;0.2775042;-0.4026688;0;
-609.743;0;0;-500.8869;-14.69849;-3.394164;-571.0282;-569.9044;0.2772253;0.1824419;0;
-601.3217;0;0;-532.3051;-14.61637;5.986613;-566.7064;-563.7096;0.6017835;0.1172913;0;
-233.4021;0;0;-206.1839;-16.41035;7.521205;-203.4442;-202.387;0.1464074;-0.01276129;0;
-234.6044;0;0;-205.477;-8.624325;9.924911;-202.6151;-205.1197;-0.5034131;-0.01274847;0;
20.69062;0;0;25.48851;-6.94072;13.73297;48.21251;46.27266;-0.4379399;-0.1426703;0;
646.043;0;0;621.6632;-8.943478;2.533261;665.6662;664.8527;-0.1126632;-0.07755965;0;
602.4155;0;0;619.7892;-8.599698;-0.5504994;625.6421;623.705;0.2122867;0.247355;0;
194.14;0;0;255.2868;-5.64332;10.83691;221.5288;221.2178;0.3420081;0.05220444;0;
198.7551;0;0;255.0928;-4.700621;11.56283;223.0553;226.3678;0.1467624;-0.2077174;0;
-25.58199;0;0;53.75005;-8.781734;7.800291;2.691812;5.501276;0.341517;0.3122301;0;
-609.3878;0;0;-500.7128;-10.17943;8.261333;-573.6462;-572.2139;0.1462718;0.5717857;0;
-607.4637;0;0;-538.3155;-10.77144;3.229435;-573.5071;-570.1396;-0.2436792;0.1814071;0;
-252.219;0;0;-223.8074;-12.63663;2.55636;-221.7323;-219.9925;0.1463697;-0.0136772;0;
-246.4059;0;0;-215.5866;-12.6903;2.553792;-214.7005;-218.0848;-0.04867942;-0.2735328;0;
25.01788;0;0;30.06919;-13.01234;2.41726;51.50656;48.75033;-0.3734672;-0.3382253;0;
638.8717;0;0;616.9315;-19.49698;6.500668;657.5251;656.5208;0.01671209;-0.0780161;0;
585.069;0;0;607.1287;-21.82191;7.163965;606.7646;603.5125;-0.04827204;-0.2078724;0;
188.4301;0;0;253.6335;-19.12067;15.59637;214.6643;212.7896;-0.4380276;-0.2076635;0;
195.7995;0;0;257.6265;-20.97649;19.19778;220.3206;222.5083;-0.5675221;0.3122839;0;
-26.91038;0;0;55.34422;-17.33907;16.36521;1.396674;3.332316;-0.5019845;0.3769374;0;
-605.405;0;0;-498.433;-18.1923;18.1573;-569.8801;-568.6335;-0.04670876;-0.01324537;0;
-607.5453;0;0;-539.5363;-19.11105;16.3975;-574.2425;-571.4979;0.1482402;0.0517353;0;
-244.3671;0;0;-217.2184;-19.02547;17.72068;-215.0957;-214.4779;0.2780259;-0.01328404;0;
-237.9372;0;0;-208.2546;-32.46931;13.55006;-207.3209;-210.5767;0.2127792;-0.3381074;0;
13.86294;0;0;21.46433;-36.85732;13.00058;39.88828;37.38535;-0.3721406;-0.0778983;0;
639.0347;0;0;618.2053;-35.74856;19.88651;656.7256;656.0992;-0.241832;0.117082;0;
599.0374;0;0;620.2703;-37.18651;21.13921;619.7715;618.0213;0.343117;-0.01297033;0;
187.2047;0;0;254.0183;-38.82408;30.6293;213.7275;213.0411;0.01793556;0.2469121;0;
196.6368;0;0;257.3238;-38.04813;35.08626;221.1339;224.1963;-0.4368539;0.1167293;0;
-24.01249;0;0;57.3531;-33.32085;33.71146;5.207665;8.204485;-0.04661085;-0.2082247;0;
-609.694;0;0;-498.3627;-30.20592;35.88791;-572.2573;-570.8877;0.2782727;0.05185389;0;
-604.5836;0;0;-533.7814;-19.2582;34.44521;-570.7452;-568.3775;-0.306713;-0.2730349;0;
-245.6562;0;0;-216.0295;-12.33997;33.6739;-216.1622;-214.6089;-0.4363395;-0.6625646;0;
-239.3499;0;0;-205.6925;-9.98305;33.37214;-207.3244;-209.8956;-0.1110643;-0.3370622;0;
22.19673;0;0;31.02027;-4.345964;31.99895;49.38003;46.81141;-0.1109527;0.05308057;0;
635.9284;0;0;616.07;-5.145881;27.14414;654.4012;654.0216;0.2139954;-0.01194013;0;
592.1237;0;0;616.2631;-5.207083;24.10264;612.8893;611.5105;0.4736498;-0.1418628;0;
191.4798;0;0;260.5099;7.791617;23.94457;216.16;216.2194;0.3432392;-0.271655;0;
198.3463;0;0;259.6859;11.46846;21.84404;221.3776;224.3105;0.2129596;-0.4013167;0;
-25.61552;0;0;56.15211;-4.150453;22.49192;1.390633;4.008238;0.277713;0.1188253;0;
-608.984;0;0;-495.8144;-8.700634;23.00519;-574.5712;-571.5815;0.3424013;0.2486406;0;
-608.3096;0;0;-532.8598;-3.86912;16.88675;-576.1803;-571.257;-0.1127142;-0.1414133;0;
-251.3151;0;0;-220.731;-6.008687;15.5971;-223.4659;-220.7964;0.0823011;0.1185982;0;
-245.1905;0;0;-218.1354;-10.42328;19.46632;-215.3078;-217.3262;0.3420878;0.3783484;0;
16.79931;0;0;20.21406;-10.54653;19.04486;42.46655;40.76259;0.2767767;0.2480335;0;
638.1576;0;0;616.2691;-21.18585;23.64755;655.9905;655.1003;0.2764986;-0.01208508;0;
595.1002;0;0;615.5874;-25.2504;24.49444;617.1005;613.1503;-0.1135833;-0.07704028;0;
186.7072;0;0;250.5271;-11.35993;22.86236;213.3081;210.174;-0.1784365;0.1829065;0;
193.2662;0;0;250.3378;-10.47786;22.97336;216.592;218.2711;0.2115469;-0.01217931;0;
-22.1323;0;0;57.62051;-2.564074;16.85495;5.105607;8.032358;0.4712037;-0.1421017;0;
-609.6897;0;0;-498.5329;2.596066;14.96249;-573.921;-571.5594;0.3407955;0.05294307;0;
-615.5739;0;0;-546.57;-8.458604;9.588943;-581.4652;-579.3559;-0.244253;-0.2069795;0;
-246.5155;0;0;-223.8078;-8.115312;6.096318;-216.9389;-218.205;-0.1140729;-0.07683685;0;
-242.2073;0;0;-219.2726;-12.86258;9.640165;-211.2861;-215.4245;0.01597641;-0.01179231;0;
5.41169;0;0;4.835206;-16.33228;8.826684;31.92901;29.29405;-0.5037784;-0.1417151;0;
630.1547;0;0;603.8417;-12.89962;10.69334;648.0247;646.3295;-0.3083701;0.1182966;0;
595.726;0;0;612.7302;-16.90612;12.02225;616.8889;613.946;0.08174375;-0.07672427;0;
188.8941;0;0;251.7332;-3.225102;9.866717;214.8458;214.2172;0.1466289;0.05328752;0;
196.7003;0;0;256.915;2.538914;9.923786;220.502;223.8095;0.2764163;-0.01173338;0;
-19.07647;0;0;62.44201;-24.12211;12.92805;9.511392;12.00348;0.1462039;-0.5314603;0;
-614.1957;0;0;-501.9621;-27.91627;13.31695;-578.0153;-576.5253;0.2110243;-0.465959;0;
-623.5735;0;0;-549.3711;-21.18944;13.5044;-590.1157;-587.2528;0.01591025;-0.1406541;0;
-256.8809;0;0;-226.1063;-23.64639;14.16066;-227.4547;-226.1564;0.0808616;0.184324;0;
-250.0011;0;0;-219.07;-10.56181;9.792663;-218.3556;-221.4314;0.4705844;0.1841388;0;
11.61869;0;0;17.28139;-6.867505;8.845061;38.29737;35.41206;0.01534016;-0.4007523;0;
632.1701;0;0;611.9651;-11.21389;7.56362;650.2637;648.6932;-0.1795773;-0.3353823;0;
591.1177;0;0;612.0998;-10.66675;5.546532;612.8788;609.4358;0.08047253;0.1846934;0;
189.8501;0;0;253.852;-7.173411;11.30137;216.2121;214.4592;-0.04954301;0.5743119;0;
193.7823;0;0;255.8458;-6.429269;12.36174;216.9943;219.7409;-0.1794279;0.2488981;0;
-18.18096;0;0;62.7482;-11.91517;8.062533;8.568458;11.31226;0.0156544;-0.5309601;0;
-604.7429;0;0;-495.7841;-11.83584;7.31762;-570.2742;-568.72;0.08060601;-0.07565518;0;
-617.7534;0;0;-545.4482;-23.41188;8.716787;-585.6307;-583.266;0.01555768;0.3142249;0;
-246.7563;0;0;-217.4398;-27.87633;8.172287;-219.0387;-218.3631;-0.0494253;0.1190071;0;
-243.8222;0;0;-211.5367;-18.27013;7.628212;-214.7581;-217.8313;-0.114343;-0.01104714;0;
-1.948674;0;0;7.191054;-18.31814;7.754513;22.4635;19.33097;-0.04926074;-0.1409707;0;
628.5489;0;0;605.6955;-12.74101;4.129643;645.2529;642.6232;0.0157561;-0.07586173;0;
602.4301;0;0;620.7665;-10.11526;3.924544;622.678;618.4269;-0.1141944;-0.1407529;0;
194.6544;0;0;259.574;-8.431133;4.188533;220.2543;217.8815;-0.04911233;-0.2055788;0;
194.6463;0;0;254.3157;-5.474924;4.988119;217.7841;219.6616;0.0808717;-0.01047017;0;
-21.94055;0;0;57.40899;-11.49764;6.523715;4.42246;6.173041;-0.1141116;0.3143771;0;
