Fp1;Fp2;O1;O2;POLY3;POLY4;A1;A2;Video;Audio;event;
391.8789;0;0;0.06071948;-8.489291;19.20387;412.8115;412.0479;0.1385104;-0.1010892;0;12:39:15 Рука;
146.4208;0;0;0.06065847;-4.193854;18.78268;167.8321;171.1922;0.07340386;-0.165955;0;
194.437;0;0;0.06059752;-9.548274;17.55812;214.2026;219.8707;0.0733301;0.02911382;0;
-253.5333;0;0;0.06053663;-6.724665;17.00461;-226.7911;-223.3151;0.2031911;0.2239866;0;
-704.1144;0;0;0.0604758;-15.22535;10.75823;-673.0887;-668.0546;0.07305225;0.2237615;0;
-445.4116;0;0;0.06041504;-16.68295;8.671073;-418.8524;-411.8867;0.008011504;0.02863467;0;
-222.0761;0;0;0.06035433;-10.16945;3.169881;-196.2932;-194.0197;-0.1219312;0.09357325;0;
-228.5371;0;0;0.06029369;-10.56137;-1.053228;-202.7801;-204.0071;-0.3816781;0.4183159;0;
268.1305;0;0;0.0602331;-0.5030742;5.512035;285.9281;286.1391;-0.3163272;0.3529283;0;
696.7704;0;0;0.06017258;2.176749;5.171582;711.3019;711.0754;-0.1211074;0.2876063;0;
379.0422;0;0;0.06011212;4.250666;4.496556;399.4935;398.8924;0.1388837;0.3522847;0;
148.8394;0;0;0.06005172;7.461576;5.831697;169.6449;172.2928;0.008809468;-0.03787338;0;
183.6098;0;0;0.05999138;-1.320808;-0.135522;202.2705;207.5394;-0.05616672;-0.16777;0;
-263.9749;0;0;0.0599311;-2.323858;-1.14013;-238.0865;-233.5725;0.2687264;-0.1026341;0;
-694.7429;0;0;0.05987088;-6.072567;2.813009;-663.3209;-658.2493;0.1385217;-0.5573024;0;
-441.5468;0;0;0.05981072;-9.147924;3.279063;-413.6545;-408.2756;0.008447848;-0.4268077;0;
-217.2157;0;0;0.05975062;-6.92793;3.811631;-190.6008;-189.1004;-0.05652798;-0.1665095;0;
-222.5571;0;0;0.05969058;-9.399216;4.477509;-196.0315;-196.9063;0.008496159;-0.1013748;0;
260.9861;0;0;0.05963061;-2.088753;6.482498;279.6765;280.2393;-0.05647972;0.02866173;0;
696.2549;0;0;0.05957069;0.25787;8.083574;711.3658;710.5537;-0.3812597;0.1585676;0;
388.772;0;0;0.05951083;-7.780341;6.266913;410.6143;407.4293;-0.1859746;0.5482123;0;
150.501;0;0;0.05945104;-7.571453;6.796479;174.008;173.5747;0.2040164;0.2877921;0;
181.7715;0;0;0.0593913;-9.841021;9.669794;204.1304;206.1963;0.2687787;-0.4921052;0;
-262.438;0;0;0.05933162;-11.10393;11.5356;-232.7927;-231.8533;0.1385739;-0.2317413;0;
-696.1437;0;0;0.05927201;-6.404699;11.12211;-663.0299;-661.1544;-0.3163367;0.0283609;0;
-440.1975;0;0;0.05921245;-6.062495;12.65154;-412.989;-410.1159;-0.2510515;-0.3614717;0;
-214.0561;0;0;0.05915295;-3.378062;14.2463;-187.4372;-188.2526;0.07403748;-0.4910431;0;
-220.2753;0;0;0.05909352;-2.168243;14.83483;-192.1839;-195.4348;-0.05597159;-0.2306803;0;
264.8898;0;0;0.05903414;0.2448332;21.45111;285.0819;283.2086;-0.4457194;-0.03554654;0;
691.5965;0;0;0.05897482;3.59349;23.03715;707.7703;703.8999;-0.3153369;0.09442388;0;
382.744;0;0;0.05891556;-9.136146;23.8178;404.6487;399.2204;0.009816701;0.1592963;0;
153.5994;0;0;0.05885636;-13.34653;25.06642;175.4821;174.8694;0.07477418;0.2241036;0;
181.306;0;0;0.05879723;3.679819;19.28082;201.1053;203.8665;0.3995357;0.0289764;0;
-269.837;0;0;0.05873814;7.158746;18.12286;-242.6238;-240.5526;0.4641016;-0.03602006;0;
-695.4767;0;0;0.05867912;-0.8854234;11.87536;-664.9177;-661.5991;0.2687333;0.09395083;0;
-429.6612;0;0;0.05862016;1.325293;7.576641;-404.6925;-400.5027;0.2684633;-0.4258823;0;
-214.2125;0;0;0.05856126;-3.565183;13.53039;-188.5818;-188.0819;0.07329148;-0.6203564;0;
-236.3611;0;0;0.05850242;-5.035469;12.37808;-209.1944;-211.1312;-0.1216842;-0.229929;0;
264.0625;0;0;0.05844364;7.964036;10.22219;283.081;282.5204;0.0733401;-0.1647307;0;
714.3207;0;0;0.05838491;10.03214;9.07321;728.8848;727.4503;0.1382338;-0.09959779;0;
391.5149;0;0;0.05832624;14.37631;8.461369;411.4991;408.1295;-0.05680717;-0.1644651;0;
145.6199;0;0;0.05826764;17.37598;8.586832;166.2712;166.2157;-0.1217174;-0.4241692;0;
187.3275;0;0;0.05820909;12.53575;0.4733912;206.084;209.2145;-0.05662778;-0.09890625;0;
-256.0129;0;0;0.0581506;12.99167;-2.273263;-230.2788;-228.026;-0.1865056;0.09609517;0;
-690.7245;0;0;0.05809217;5.744944;0.8770973;-660.6435;-657.7682;-0.1863182;-0.4237401;0;
-428.3496;0;0;0.0580338;2.59134;-0.1955109;-403.2962;-399.7367;-0.3160656;-0.163445;0;
-204.9687;0;0;0.05797549;4.128978;3.622591;-180.2529;-180.1952;-0.6405848;0.356458;0;
-216.6943;0;0;0.05791723;1.981375;6.097319;-190.8163;-193.1325;-0.5749738;0.03126309;0;
271.778;0;0;0.05785904;1.24245;-0.2050811;289.7589;288.0697;-0.3145266;0.3560684;0;
698.4153;0;0;0.0578009;-1.370767;-0.3388409;712.3802;709.8806;-0.1193086;0.4856453;0;
384.8084;0;0;0.05774282;5.328415;2.943663;404.2564;401.5719;-0.05422137;0.09535328;0;
155.162;0;0;0.0576848;6.462137;1.935961;175.2151;175.6568;-0.3790036;0.2901595;0;
181.6801;0;0;0.05762684;0.1590046;11.51233;200.4013;202.6541;-0.1837207;0.02999856;0;
-268.0265;0;0;0.05756894;1.297921;14.31392;-241.7029;-240.3894;-0.1185688;-0.1649336;0;
-689.795;0;0;0.05751109;-10.15759;5.792954;-658.5629;-656.2512;-0.183417;0.03013414;0;
-432.356;0;0;0.0574533;-13.42893;5.653167;-405.528;-402.2191;0.2065713;-0.09983082;0;
-212.9691;0;0;0.05739557;-3.770875;-1.787374;-187.5424;-187.2354;-0.1184729;-0.09973051;0;
-209.8815;0;0;0.0573379;-2.962802;-6.273435;-183.6683;-186.1727;-0.1833212;-0.1645976;0;
274.7734;0;0;0.05728029;4.341192;0.6989715;294.6509;292.4614;0.206667;-0.03449757;0;
684.791;0;0;0.05722274;8.824809;-0.3734578;701.5876;698.4633;0.07652468;-0.09943025;0;
372.8844;0;0;0.05716524;6.939931;-1.645636;394.6616;391.2906;0.3363172;-0.1642977;0;
145.4364;0;0;0.0571078;8.741619;-1.108241;168.0038;168.0719;0.4659139;0.03076943;0;
174.2757;0;0;0.05705041;12.08174;-5.661845;196.633;198.4501;0.140609;-0.03422883;0;
-267.8648;0;0;0.05699309;12.80653;-5.857105;-238.2836;-237.5927;0.2704024;0.03077291;0;
-689.7585;0;0;0.05693582;12.2578;-6.855842;-657.0835;-655.019;0.4650328;0.03074199;0;
-428.4464;0;0;0.05687862;12.44656;-7.585765;-401.4889;-397.8648;0.1397288;-0.09922358;0;
-208.3763;0;0;0.05682146;5.20038;-1.014059;-182.0081;-181.8858;0.2045557;0.1607455;0;
-219.4113;0;0;0.05676437;2.85063;0.7285157;-192.8822;-195.4462;0.3992522;0.09561663;0;
271.7499;0;0;0.05670733;1.172827;1.799511;289.5692;288.6945;0.203949;0.0305532;0;
699.6367;0;0;0.05665035;-1.976184;3.539259;714.4395;713.1909;-0.2510273;0.0305225;0;
370.7861;0;0;0.05659343;3.317088;3.468719;392.1333;389.8864;-0.5756118;-0.3593122;0;
143.5276;0;0;0.05653656;2.911613;5.00572;165.478;166.8565;-0.7049681;-0.2939838;0;
198.2933;0;0;0.05647976;4.784698;2.589426;218.9098;222.9106;-0.4443904;0.161083;0;
-262.6119;0;0;0.056423;7.057065;3.256654;-234.5198;-232.0223;0.2057296;0.2258884;0;
-705.4378;0;0;0.05636631;0.2174716;0.9759617;-673.6883;-670.6935;0.3354576;-0.09917524;0;
-431.4913;0;0;0.05630967;0.8204654;-0.8335581;-405.5833;-401.4671;-0.3145529;0.09582645;0;
-211.668;0;0;0.05625309;-2.194469;8.34382;-186.0984;-185.8594;-0.7040409;0.4205669;0;
-224.5738;0;0;0.05619657;-3.799854;8.871177;-197.6555;-200.7901;-0.1835948;-0.03462713;0;
274.6511;0;0;0.0561401;4.844152;10.73779;292.8591;292.1015;0.3363284;-0.164527;0;
694.7263;0;0;0.05608369;4.571841;12.06665;708.5433;707.9114;0.0111538;0.09550768;0;
368.1295;0;0;0.05602734;15.88675;4.753512;387.4923;384.7372;-0.3136941;0.03044436;0;
141.3735;0;0;0.05597104;21.49784;3.810975;160.8417;161.4626;-0.2484116;0.2253158;0;
173.965;0;0;0.0559148;4.529683;-4.63246;192.9139;196.5327;0.0117074;-0.03477997;0;
-272.2981;0;0;0.05585862;3.453405;-8.378728;-245.1223;-243.1939;0.01169563;-0.4895164;0;
-691.6261;0;0;0.05580249;1.10541;-6.093011;-660.6046;-658.3657;-0.1182508;-0.1641878;0;
-426.3766;0;0;0.05574642;-2.646745;-8.364186;-399.8216;-397.0852;-0.118132;0.2907485;0;
-204.6844;0;0;0.05569041;6.867735;1.423482;-178.5308;-179.3579;0.0119214;0.3554237;0;
-221.1579;0;0;0.05563445;7.396698;5.842803;-194.0935;-198.1057;0.2717788;-0.09970479;0;
268.0685;0;0;0.05557855;7.054473;-0.3253753;286.9848;283.0391;-0.1182983;-0.2945066;0;
700.3318;0;0;0.0555227;7.91804;2.287286;714.1066;708.7906;-0.5729509;-0.3591781;0;
371.3556;0;0;0.05546691;7.910084;1.682141;390.239;383.7414;-0.1825711;-0.2938498;0;
135.1635;0;0;0.05541118;9.442378;0.07286076;154.1528;151.6598;-0.1823877;0.09624951;0;
180.2549;0;0;0.0553555;4.141604;15.94738;198.1632;198.3588;-0.1172371;0.4859568;0;
-266.889;0;0;0.05529988;4.271165;18.61067;-240.4405;-241.0572;0.2077174;0.6154032;0;
-692.1569;0;0;0.05524432;1.922348;12.96553;-662.0494;-661.541;0.07757404;0.5498176;0;
-424.6581;0;0;0.0551888;0.04538269;13.15345;-399.8906;-398.883;0.1424634;0.3543631;0;
-208.215;0;0;0.05513335;9.62353;1.083546;-183.16;-186.6512;0.1423203;0.159105;0;
-211.1916;0;0;0.05507795;9.814932;-3.405277;-185.5997;-192.1483;-0.2476268;0.2239124;0;
288.7693;0;0;0.05502261;15.96701;-8.425453;305.6525;300.5473;-0.2473779;-0.1661166;0;
697.8984;0;0;0.05496732;18.76401;-13.50757;712.2034;706.8534;-0.182162;-0.230917;0;
369.4869;0;0;0.05491209;6.889783;-12.15434;389.9619;384.1175;0.207825;0.4189884;0;
151.9123;0;0;0.05485692;4.404614;-14.75446;171.4921;169.4642;0.5324529;0.2236654;0;
179.1834;0;0;0.0548018;1.587149;-9.448104;196.5571;197.2799;0.3370159;-0.2962981;0;
-274.6436;0;0;0.05474673;-0.7589704;-7.898003;-249.916;-250.6933;0.5315793;-0.3609677;0;
-684.6614;0;0;0.05469172;-7.657084;-9.698606;-656.4604;-656.4248;0.5960125;0.09416639;0;
-419.9187;0;0;0.05463677;-11.13299;-8.08127;-397.0559;-395.0837;0.4654789;0.4189085;0;
-215.162;0;0;0.05458187;-5.629447;-9.479793;-192.6345;-193.1631;0.4650112;0.2885529;0;
-232.562;0;0;0.05452702;-6.092306;-8.800438;-209.1825;-212.3342;0.1397073;0.1583283;0;
280.6639;0;0;0.05447223;0.9464139;-9.863321;296.2737;293.6249;-0.4451392;-0.2316349;0;
722.1598;0;0;0.0544175;3.759478;-10.65721;733.1937;729.5481;-0.5746266;-0.2963695;0;
384.8534;0;0;0.05436282;6.166598;-5.555917;400.6863;396.3571;-0.1192778;0.02876501;0;
146.7736;0;0;0.05430819;10.84945;-4.210676;163.5902;163.3258;0.07574406;-0.03623124;0;
186.3562;0;0;0.05425363;-2.759108;-5.814035;202.0939;204.8283;0.07566795;0.3536092;0;
-262.1057;0;0;0.05419911;-6.23896;-4.736466;-238.7003;-237.5303;0.5303633;0.2882866;0;
-681.0067;0;0;0.05414465;5.355235;-7.142971;-653.0645;-651.5209;0.7247324;0.09309489;0;
-418.1417;0;0;0.05409025;4.880363;-7.872605;-395.1626;-392.1838;0.0743308;0.222936;0;
-214.886;0;0;0.0540359;7.287333;-4.113773;-192.1799;-192.3899;-0.3155479;-0.1021247;0;
-216.6066;0;0;0.0539816;10.36049;-4.511537;-193.4236;-195.9447;0.009605832;0.02791259;0;
291.7931;0;0;0.05392736;-4.184603;-0.8900474;307.1443;306.5622;0.1395309;0.02788455;0;
699.8571;0;0;0.05387317;-6.993438;0.7184373;711.6322;710.6134;-0.185446;-0.3619475;0;
375.8165;0;0;0.05381905;1.854848;-5.712524;391.89;389.9352;-0.1202924;-0.2966165;0;
162.8582;0;0;0.05376497;2.79099;-6.175664;178.7282;180.8358;-0.1851388;0.09348562;0;
183.7465;0;0;0.05371094;3.859912;-9.65245;199.1008;203.9549;-0.2499201;0.158359;0;
-279.5804;0;0;0.05365697;5.128831;-12.18798;-256.183;-252.7706;0.140135;-0.2965715;0;
-688.0939;0;0;0.05360306;10.81711;-4.47294;-660.5347;-656.3761;0.2699289;-0.1663388;0;
-420.5992;0;0;0.0535492;13.61928;-2.72689;-398.8148;-394.1606;0.2696577;0.2885997;0;
-213.9052;0;0;0.05349539;12.06535;-6.14028;-193.9543;-193.0529;0.139452;-0.03652699;0;
-215.3145;0;0;0.05344164;13.12495;-5.062383;-195.5085;-196.732;-0.2504921;-0.1014576;0;
286.962;0;0;0.05338794;8.690159;-2.913842;298.5647;298.0296;-0.1203058;0.1585137;0;
706.4626;0;0;0.0533343;4.997732;-1.303446;715.7423;712.834;0.1396845;0.2233218;0;
378.5423;0;0;0.05328071;12.09266;2.247959;395.5587;391.279;0.00960945;0.02819533;0;
147.6528;0;0;0.05322717;11.41092;5.25981;165.0894;164.4996;-0.05536755;-0.3616371;0;
183.8611;0;0;0.05317369;1.68754;3.647057;199.9684;200.941;-0.05531191;-0.1663717;0;
-270.2205;0;0;0.05312026;-0.4576094;3.978185;-245.5087;-246.1613;0.009711006;0.4185016;0;
-693.7359;0;0;0.05306688;-9.566829;12.8828;-664.4263;-663.6415;0.1396359;0.3531137;0;
-425.9856;0;0;0.05301356;-13.50933;15.3481;-401.0782;-398.7325;-0.1203737;-0.1020125;0;
-213.1643;0;0;0.05296029;-8.874056;13.72521;-188.5319;-189.8741;0.009681894;-0.4267467;0;
-214.4494;0;0;0.05290708;-8.329276;14.98397;-189.6543;-193.9312;0.4644436;-0.1014812;0;
290.7623;0;0;0.05285392;-7.516623;10.21325;307.4115;304.5132;-0.05576185;0.2234575;0;
706.9482;0;0;0.05280081;-6.303622;8.796344;719.8951;715.9378;-0.1206732;-0.1016037;0;
385.9614;0;0;0.05274775;4.553703;10.93096;404.2051;399.1898;0.3342195;0.2233351;0;
164.6846;0;0;0.05269475;9.103478;11.12092;183.9095;183.0221;0.398851;0.5479474;0;
180.636;0;0;0.05264181;8.357397;8.83233;200.2789;201.3914;0.4634176;0.4174621;0;
-282.3128;0;0;0.05258891;10.15766;8.823456;-255.4434;-255.2066;0.2030826;0.02723859;0;
-690.5114;0;0;0.05253607;10.34853;10.55615;-661.545;-659.122;-0.05699087;-0.3625928;0;
-421.0776;0;0;0.05248328;10.5392;9.808726;-398.6371;-394.5923;0.008033742;-0.03739178;0;
-221.0049;0;0;0.05243054;4.433039;19.77908;-199.7113;-199.4812;-0.1868764;0.2874825;0;
-230.0281;0;0;0.05237786;2.08406;23.04137;-207.3817;-210.5251;0.008213444;-0.1026104;0;
284.8818;0;0;0.05232523;-3.812532;16.78893;299.3846;297.8685;-0.05676215;0.02742737;0;
709.3195;0;0;0.05227266;-8.630496;17.84379;720.0597;717.8579;-0.5114765;0.1573345;0;
385.7066;0;0;0.05222013;-3.196817;11.73053;402.3705;397.8596;-0.1211585;-0.297595;0;
161.5565;0;0;0.05216766;-4.733846;9.575293;177.3291;176.8207;-0.05606944;-0.03742659;0;
178.8854;0;0;0.05211524;-3.256197;12.84784;193.6426;196.4456;-0.5757518;0.2874477;0;
-281.0632;0;0;0.05206288;-1.175844;11.62923;-257.5128;-257.1489;-0.05543458;0.2221916;0;
-693.5733;0;0;0.05201056;-10.8202;16.23925;-666.111;-666.0598;0.2694578;0.02706626;0;
-423.7617;0;0;0.0519583;-11.61264;17.49561;-401.6993;-400.8361;-0.315519;-0.4277323;0;
-208.194;0;0;0.05190609;-8.520489;15.53552;-187.653;-189.7267;-0.4451366;-0.2324005;0;
-211.8579;0;0;0.05185394;-8.712997;15.85483;-191.0877;-194.6585;-0.18482;-0.03726497;0;
288.0413;0;0;0.05180184;-1.738018;15.50398;300.9821;299.1015;-0.05469962;-0.4919989;0;
700.4195;0;0;0.05174978;-0.06133237;15.4884;709.2868;706.4711;-0.2495467;-0.1666678;0;
375.1913;0;0;0.05169779;3.086561;13.12856;389.7968;385.0474;-0.5091653;0.4182057;0;
160.3596;0;0;0.05164584;5.360635;12.31157;175.5127;174.2038;-0.183817;0.2878508;0;
184.5612;0;0;0.05159395;2.609559;10.49066;197.825;199.7658;0.1412044;-0.1022425;0;
-276.8299;0;0;0.05154211;3.745036;8.738564;-256.0832;-256.0184;0.01112786;-0.03717241;0;
-681.4107;0;0;0.05149031;-5.502127;10.47134;-656.8743;-656.5597;0.2709861;-0.1021024;0;
-414.5473;0;0;0.05143858;-9.381365;8.719262;-394.8457;-393.282;0.1407791;-0.2319345;0;
-213.2943;0;0;0.05138689;-2.338364;12.19361;-193.7998;-195.6734;-0.2491664;0.1581026;0;
-214.4542;0;0;0.05133526;-3.140298;12.71723;-194.1048;-198.7877;0.07592064;0.2878785;0;
291.3196;0;0;0.05128368;-2.735001;2.724234;304.0899;300.3488;-0.05409033;-0.2971169;0;
705.2562;0;0;0.05123215;-1.459455;-0.828599;713.8282;708.8415;-0.3788727;-0.2968184;0;
380.273;0;0;0.05118067;-5.209033;-0.09095417;394.5836;387.8528;-0.2485573;-0.1016181;0;
160.1264;0;0;0.05112924;-4.667935;-2.167212;175.1098;171.6965;-0.2483076;0.2233207;0;
184.5157;0;0;0.05107787;-4.596872;-5.983061;197.6724;197.8232;-0.1830907;0.09316166;0;
-277.75;0;0;0.05102654;-4.927046;-7.115637;-256.9229;-256.5847;-0.05297206;-0.101834;0;
-687.0775;0;0;0.05097527;1.910408;-10.1897;-662.8355;-660.8111;0.4018525;0.2231051;0;
-410.8381;0;0;0.05092405;3.44873;-11.58611;-392.8049;-390.0953;0.4664161;-0.0369885;0;
-199.4688;0;0;0.05087288;3.646335;-4.474395;-181.5162;-183.3696;0.07614341;-0.4267554;0;
-201.9546;0;0;0.05082177;4.312257;-2.058513;-183.2704;-187.8705;0.0760669;0.2233468;0;
299.9337;0;0;0.0507707;3.303546;0.6227505;311.3528;307.5069;0.1409578;0.8727958;0;
707.3649;0;0;0.05071969;3.300226;5.310808;716.5861;711.3073;0.07584883;0.5470821;0;
374.571;0;0;0.05066872;-1.659582;2.157396;389.8424;383.8193;0.01080528;-0.103141;0;
156.0543;0;0;0.05061781;-2.729642;4.432526;171.2479;168.9165;0.2056964;-0.232972;0;
187.5691;0;0;0.05056695;-6.545292;9.384687;201.8104;201.043;0.1405224;0.02713142;0;
-274.075;0;0;0.05051614;-8.41375;10.38;-251.6021;-253.5556;-0.0545208;0.1570389;0;
-683.7185;0;0;0.05046538;-3.381454;20.01487;-658.0199;-657.8475;-0.1194334;-0.1679557;0;
-406.8578;0;0;0.05041467;-2.909541;22.33916;-386.1201;-384.4485;-0.4441501;-0.2977216;0;
-206.7994;0;0;0.05036401;2.049875;21.31197;-186.0824;-188.4731;-0.05389973;0.02741428;0;
-217.6485;0;0;0.05031341;4.324991;22.09435;-196.8275;-202.7139;0.2709911;-0.03758061;0;
298.4984;0;0;0.05026285;3.985853;12.69478;311.5524;307.2335;-0.05411787;-0.3623796;0;
713.802;0;0;0.05021235;4.651433;9.466848;723.782;718.9052;-0.05406349;-0.1021461;0;
380.2521;0;0;0.05016189;7.259704;2.62532;395.9066;389.4106;0.01095818;0.2877606;0;
164.1035;0;0;0.05011149;9.596933;-3.137727;180.4295;177.0634;0.07591451;0.02760211;0;
185.8026;0;0;0.05006114;-4.278786;0.4153987;200.6754;200.0613;0.2707402;-0.2972623;0;
-277.4638;0;0;0.05001084;-8.560419;-1.795455;-254.9223;-255.9731;0.4004029;0.02787307;0;
-678.9206;0;0;0.04996059;0.8916783;-1.324771;-651.9665;-652.329;0.2050985;-0.03712228;0;
-404.7509;0;0;0.04991039;0.288546;-0.05076405;-383.446;-383.246;0.1399251;-0.1670197;0;
-196.6986;0;0;0.04986024;2.699154;-6.280004;-175.8524;-179.2133;0.4646212;0.5477889;0;
-200.8737;0;0;0.04981014;4.974593;-6.87654;-179.1115;-184.6553;0.1393177;0.6122059;0;
299.1394;0;0;0.04976009;-0.7911815;-1.712067;312.6964;308.9072;-0.5754631;-0.1680174;0;
709.9446;0;0;0.04971009;-1.258901;-1.174483;720.0522;715.4548;0.07478857;-0.2328159;0;
377.2732;0;0;0.04966014;1.756474;5.189954;393.2426;387.7128;0.7243868;-0.1026473;0;
156.5673;0;0;0.04961024;1.017775;8.399797;172.2709;171.1194;-0.05594913;-0.03757683;0;
190.8927;0;0;0.04956039;5.30366;1.157445;204.1442;205.9923;-0.2507949;-0.1025064;0;
-270.3174;0;0;0.04951059;6.302709;0.08455495;-250.3326;-250.4229;0.07429377;-0.03743607;0;
-682.5884;0;0;0.04946085;1.406255;4.70617;-658.6257;-658.1536;0.009251778;0.3524056;0;
-405.8538;0;0;0.04941115;0.9363279;5.371271;-387.3499;-384.8794;0.009242482;0.09218214;0;
-202.7979;0;0;0.0493615;-5.160182;0.7441735;-184.9373;-186.2173;-0.1856688;-0.1677799;0;
-209.2158;0;0;0.0493119;-8.771343;0.475494;-190.1237;-194.5259;-0.1205149;0.2221928;0;
302.9246;0;0;0.04926235;-1.863654;-2.338145;313.1894;310.041;0.009540849;0.4168715;0;
710.79;0;0;0.04921285;-1.258569;-4.613215;716.6093;711.5275;-0.5751748;0.09161597;0;
378.6175;0;0;0.0491634;-5.276768;3.898009;390.99;384.2892;-0.5745969;0.02655656;0;
166.1561;0;0;0.049114;-3.931319;4.76487;180.3903;177.4444;-0.2491828;0.09149723;0;
180.9816;0;0;0.04906465;-8.683767;5.028014;194.5144;193.5079;-0.2489324;0.1563726;0;
-289.1515;0;0;0.04901535;-10.14793;6.228654;-269.5104;-271.2031;0.2060891;0.2861502;0;
-681.4136;0;0;0.0489661;-0.2247515;2.203542;-659.7308;-658.6107;0.400784;0.35083;0;
-405.9296;0;0;0.0489169;0.5787815;2.335294;-388.1416;-387.3349;-0.1193574;0.3504775;0;
-202.9985;0;0;0.04886775;7.946567;-4.834105;-184.2289;-188.483;-0.05427013;0.09025597;0;
-196.2978;0;0;0.04881864;12.42656;-7.843357;-176.61;-182.9213;0.1406864;0.2201;0;
305.7097;0;0;0.04876959;0.2229363;-2.744895;317.7565;311.8264;-0.3791937;0.4797482;0;
705.9512;0;0;0.04872059;-0.1784533;-3.545933;714.3002;706.8768;-0.05397595;0.3493314;0;
372.9089;0;0;0.04867163;-5.671607;0.945365;386.9967;378.6437;0.270915;0.4789151;0;
163.2644;0;0;0.04862273;-10.6224;3.355679;176.9007;173.1788;-0.2490959;0.08862984;0;
202.3931;0;0;0.04857387;2.047925;-1.403359;214.3915;214.1091;-0.2488457;-0.3662306;0;
-274.2583;0;0;0.04852507;2.246938;-1.067035;-253.4014;-254.7454;0.07624109;-0.235928;0;
-697.8946;0;0;0.0484763;0.03387757;1.412406;-672.3735;-672.8417;0.2060992;-0.4955602;0;
-413.336;0;0;0.0484276;0.7044049;2.080816;-393.088;-393.4307;0.07595739;-0.3001603;0;
-203.401;0;0;0.04837894;-5.995084;2.346657;-184.6725;-188.2008;-0.119021;0.3498147;0;
-209.506;0;0;0.04833033;-7.12716;2.679214;-191.2336;-195.383;-0.1838687;0.02462653;0;
302.01;0;0;0.04828176;-11.27318;3.614161;312.0807;308.9973;-0.378586;0.1545365;0;
706.4406;0;0;0.04823325;-13.60638;3.744495;712.6906;708.6108;-0.3132382;0.4792179;0;
375.5218;0;0;0.04818479;-10.97977;5.147374;386.8878;382.8123;0.01191322;-0.1059697;0;
169.6852;0;0;0.04813637;-11.57195;6.347895;181.2897;180.5291;-0.3129355;-0.3657326;0;
188.0679;0;0;0.048088;-6.804896;1.049987;198.224;200.2127;-0.5075231;0.02443895;0;
-285.0084;0;0;0.04803968;-4.386185;-0.5586585;-266.7416;-266.0667;-0.3770784;0.2193164;0;
-684.5835;0;0;0.04799141;-5.252433;5.068347;-661.7748;-661.2256;-0.2467648;-0.2356753;0;
-409.2837;0;0;0.04794319;-3.2384;6.201964;-391.8078;-390.3845;0.1432872;-0.4303406;0;
-210.722;0;0;0.04789501;-2.36449;2.712742;-194.3881;-196.2146;0.4030126;-0.3649408;0;
-203.0141;0;0;0.04784689;-1.021967;2.509068;-186.2593;-190.1454;0.2726729;-0.6244435;0;
315.8667;0;0;0.04779881;-1.423082;3.109271;324.1714;323.475;-0.2473398;-0.4938813;0;
712.5997;0;0;0.04775079;-2.895521;1.632644;717.3354;716.7646;-0.3770259;-0.4284178;0;
373.3664;0;0;0.0477028;7.824658;7.52538;384.1567;381.4626;0.07812429;-0.6878566;0;
164.471;0;0;0.04765487;11.63519;8.656405;175.313;174.8705;-0.05188889;-0.3623288;0;
191.6046;0;0;0.04760699;-3.179608;0.2750854;200.8114;202.7432;0.01313059;0.0928067;0;
-279.5388;0;0;0.04755915;-5.052423;-2.002611;-262.0952;-261.6647;0.5978234;-0.1021886;0;
-687.1154;0;0;0.04751137;-2.769195;-3.942981;-665.6289;-665.0739;0.2723861;-0.296988;0;
-405.3163;0;0;0.04746363;-4.03921;-6.68532;-389.0988;-388.1695;-0.2476264;-0.2317222;0;
-199.1999;0;0;0.04741593;0.6529216;-6.343688;-182.2491;-185.3811;-0.1174429;-0.2964567;0;
-202.1232;0;0;0.04736829;1.65762;-6.538262;-184.5647;-189.3803;0.07757717;-0.1662241;0;
308.261;0;0;0.04732069;3.530988;-12.15814;316.7439;313.4324;-0.3123048;0.09381228;0;
709.6243;0;0;0.04727315;4.666516;-13.15054;715.1002;710.1678;-0.3769584;0.02875066;0;
374.5169;0;0;0.04722565;7.006351;-9.855287;385.2346;380.1198;0.1431591;-0.1012129;0;
166.8698;0;0;0.04717819;8.271133;-10.24728;177.8266;176.9648;0.2079826;-0.03614387;0;
186.1923;0;0;0.04713079;5.517132;-0.2567726;197.5129;198.5885;0.3377083;0.09382714;0;
-289.131;0;0;0.04708343;5.712659;3.561391;-270.5129;-270.1255;0.4673037;0.09373286;0;
-688.5145;0;0;0.04703612;-0.7234422;-1.666735;-666.5419;-664.5932;0.07703009;0.2235734;0;
-411.8989;0;0;0.04698886;-3.670452;-0.52635;-394.3836;-391.1875;0.14192;-0.03652066;0;
-213.0848;0;0;0.04694165;0.6874924;-1.061685;-196.649;-197.579;0.2717121;-0.231386;0;
-208.0606;0;0;0.04689448;-0.05013269;-0.2568226;-191.8287;-196.381;0.2714391;-0.1661862;0;
312.2621;0;0;0.04684736;-3.667405;-4.007487;320.8564;317.7455;0.1412317;-0.3609212;0;
719.1187;0;0;0.04680029;-6.744203;-5.008204;725.7053;721.8479;0.1410898;-0.2955912;0;
381.1906;0;0;0.04675326;1.165828;0.3553408;393.6427;388.9771;0.4008174;-0.1003922;0;
164.2914;0;0;0.04670628;2.571176;0.8908472;176.4187;176.6927;0.3354473;0.0296434;0;
184.4286;0;0;0.04665935;-7.277044;5.712601;196.5437;199.3162;0.4000776;0.3544503;0;
-288.5816;0;0;0.04661247;-6.867591;7.582383;-269.4197;-268.0867;0.07483884;-0.03570988;0;
-693.6503;0;0;0.04656563;-16.37251;7.70873;-672.2589;-670.0527;-0.2500731;-0.1656087;0;
-410.9076;0;0;0.04651884;-18.63324;8.973538;-394.9724;-392.1437;-0.05491976;0.02945974;0;
-205.1605;0;0;0.0464721;-12.11778;4.342821;-190.3657;-190.8507;-0.1847993;0.0943975;0;
-205.7664;0;0;0.04642541;-12.77519;2.998921;-189.7371;-192.7204;-0.1196462;0.15927;0;
310.0562;0;0;0.04637876;3.580997;1.4553;319.3852;317.0296;0.07537601;-0.1007594;0;
713.1044;0;0;0.04633215;8.802311;-0.2207354;719.2382;715.698;-0.05463441;0.09424385;0;
371.934;0;0;0.0462856;8.458674;-0.82336;383.4339;378.8354;0.01038783;0.4189859;0;
160.4789;0;0;0.04623909;12.40131;-1.425379;171.5924;170.6217;0.2702467;-0.3610432;0;
184.368;0;0;0.04619263;2.878009;-2.294603;194.7208;196.3122;0.3999099;-0.5555825;0;
-290.2038;0;0;0.04614622;0.1957994;-2.694195;-272.0529;-270.7754;-0.05526333;0.2245839;0;
-687.4623;0;0;0.04609985;0.4640224;0.6575368;-665.8939;-662.5562;-0.2501098;0.3542929;0;
-405.6004;0;0;0.04605353;-2.082039;1.460671;-388.9886;-384.8422;0.1399455;0.02910018;0;
-212.3523;0;0;0.04600725;-7.30486;5.344092;-196.8192;-196.7374;0.1398049;-0.1658311;0;
-202.6437;0;0;0.04596102;-9.842139;8.352832;-187.0637;-190.4803;0.2695991;0.02923756;0;
322.4836;0;0;0.04591484;-11.64091;4.057653;330.4892;327.8257;0.0744262;0.2890776;0;
710.0895;0;0;0.04586871;-13.7063;5.460217;715.5884;712.9276;-0.3154526;0.4187218;0;
365.8612;0;0;0.04582262;-7.12844;2.574587;376.9142;373.2566;-0.1202336;0.3533337;0;
161.8459;0;0;0.04577658;-6.04955;0.6294951;172.0758;172.2949;-0.3150148;0.1580767;0;
177.8627;0;0;0.04573058;-1.421771;11.94873;187.0827;190.1127;-0.444633;-0.3618209;0;
-299.6386;0;0;0.04568463;2.866565;13.5442;-282.4319;-280.7168;-0.05438218;-0.5563594;0;
-689.1416;0;0;0.04563873;-7.11665;11.78915;-668.5164;-666.1158;0.0106398;-0.1659963;0;
-400.2815;0;0;0.04559287;-8.381321;12.38015;-385.1117;-382.1514;0.07559645;0.2239745;0;
-199.1677;0;0;0.04554705;-2.54575;9.08555;-184.0756;-184.9289;-0.05441419;0.2887168;0;
-197.7806;0;0;0.04550129;-3.079056;9.009438;-181.5169;-185.3677;-0.2492615;0.02855735;0;
314.6606;0;0;0.04545557;-1.736791;-1.314742;323.037;319.9396;-0.2490111;0.4833001;0;
712.9565;0;0;0.0454099;-2.069839;-6.002104;718.326;713.7325;-0.3137282;0.8726185;0;
372.7234;0;0;0.04536426;-4.211213;-0.1686804;382.5227;376.4346;0.07639107;0.1571009;0;
163.5788;0;0;0.04531869;-5.077638;-2.71374;172.4313;170.2848;0.5960531;0.2219104;0;
197.3973;0;0;0.04527315;-10.2301;2.245601;206.116;206.6578;0.2056501;0.5465241;0;
-279.9362;0;0;0.04522766;-12.497;3.582882;-262.918;-264.0634;0.01054141;-0.2986005;0;
-692.8222;0;0;0.04518221;-14.02468;-5.46317;-672.4478;-672.0303;0.1404655;-0.4932024;0;
-405.8325;0;0;0.04513681;-15.81925;-6.730357;-391.2881;-389.1844;-0.05457766;0.0919992;0;
-202.0269;0;0;0.04509146;-13.25873;-11.61323;-188.7466;-190.6429;-0.1194902;0.1568741;0;
-197.3262;0;0;0.04504615;-11.90527;-15.82136;-183.3095;-188.3275;-0.1843374;0.1567165;0;
320.362;0;0;0.04500089;-15.91179;-9.107291;326.7433;322.605;-0.1191849;0.09159166;0;
710.0315;0;0;0.04495567;-16.29795;-9.56702;713.5955;708.899;0.1408042;-0.03843506;0;
367.5524;0;0;0.0449105;-7.842451;-15.3848;377.6719;372.2931;0.2056301;-0.1033638;0;
159.7248;0;0;0.04486537;-5.75749;-16.77598;170.0216;168.6462;0.2703908;-0.1682273;0;
182.4903;0;0;0.04482029;-3.139736;-19.30436;190.6528;191.7775;0.5299885;-0.1680582;0;
-289.4559;0;0;0.04477526;-0.3235421;-20.55763;-274.1802;-274.6808;0.4644886;-0.03795468;0;
-679.6563;0;0;0.04473026;-5.614502;-22.0106;-660.1481;-660.3358;0.2041526;-0.1028839;0;
-392.6798;0;0;0.04468532;-6.212073;-22.85914;-377.3766;-376.5646;0.07401273;-0.2327152;0;
-200.819;0;0;0.04464042;-4.530892;-20.35793;-186.2183;-187.7809;-0.05599632;0.1573227;0;
-195.9945;0;0;0.04459557;-4.593688;-19.26575;-181.7833;-184.9061;-0.1209074;0.4820013;0;
322.1921;0;0;0.04455076;-8.808632;-19.04544;328.3306;326.1479;0.009148775;-0.1031891;0;
710.0482;0;0;0.04450599;-10.87589;-17.95457;712.9322;709.4398;0.2690089;-0.4279221;0;
366.8819;0;0;0.04446127;-4.501945;-13.4488;375.51;372.1462;0.138804;-0.03768807;0;
157.9931;0;0;0.0444166;-3.425694;-10.82307;167.4871;168.7493;-0.1212049;0.2871865;0;
180.4479;0;0;0.04437197;-6.637433;-12.01777;189.8075;192.0679;0.2037536;0.676702;0;
-292.933;0;0;0.04432738;-6.630764;-10.59917;-276.2115;-276.2023;0.3334836;0.286218;0;
-685.1289;0;0;0.04428284;-7.293686;-8.579035;-666.4252;-664.6669;-0.1865902;-0.1038737;0;
-393.5242;0;0;0.04423834;-8.492783;-7.163774;-379.9618;-377.393;-0.4462721;0.0261654;0;
-198.4766;0;0;0.04419389;-3.125614;-7.759421;-184.553;-185.8599;-0.120987;-0.2337303;0;
-198.5271;0;0;0.04414949;-0.5095291;-7.885591;-184.3676;-187.7971;-0.2508001;-0.1035607;0;
317.9129;0;0;0.04410513;-11.8295;-3.456916;323.1877;320.761;-0.3804828;0.2863474;0;
700.7759;0;0;0.04406081;-13.69265;-2.582664;703.5466;699.3733;0.009703566;-0.03877704;0;
360.9297;0;0;0.04401654;-8.186532;-2.981966;370.3817;365.2132;0.1396285;-0.1686728;0;
164.9154;0;0;0.04397231;-8.982589;-1.974226;173.4834;173.3175;0.2044555;0.1563334;0;
176.8061;0;0;0.04392812;-2.744272;-6.259151;184.9907;186.8864;-0.1205866;0.09120902;0;
-298.1329;0;0;0.04388399;-1.53509;-6.922568;-281.9606;-282.4406;0.009469245;-0.4935887;0;
-675.5809;0;0;0.04383989;-1.332477;-7.049578;-657.2385;-656.3437;0.5941658;-0.5580601;0;
-396.2922;0;0;0.04379584;0.7449668;-8.248188;-382.5284;-380.3851;0.5286015;-0.4275647;0;
-217.5461;0;0;0.04375184;-8.968673;-3.551217;-202.6092;-204.1537;0.3331683;-0.1672657;0;
-216.0157;0;0;0.04370787;-10.70097;-2.944802;-200.1568;-204.3859;-0.1219379;0.09277176;0;
313.1855;0;0;0.04366396;-12.36418;-2.941843;320.5327;317.4948;-0.3816847;-0.1671908;0;
714.1066;0;0;0.04362008;-15.70066;-2.202075;716.8238;713.2891;0.07347018;-0.1020555;0;
372.8102;0;0;0.04357625;-7.982704;-5.013145;379.7726;375.242;0.1383637;0.3528185;0;
165.1648;0;0;0.04353246;-8.309476;-5.811903;171.9952;171.0924;-0.186612;-0.1023075;0;
184.4891;0;0;0.04348873;-4.884875;-6.007012;190.3131;192.4096;-0.2513919;-0.6869107;0;
-291.3322;0;0;0.04344503;-1.598413;-6.670805;-277.7679;-276.9854;-0.3161066;-0.2964165;0;
-684.2169;0;0;0.04340137;-14.32283;-9.946144;-666.4183;-665.0118;-0.05591962;0.1586528;0;
-395.2992;0;0;0.04335776;-15.71496;-11.87853;-382.1413;-379.9866;-0.1208308;-0.03640869;0;
-200.3748;0;0;0.0433142;-11.74705;-8.517573;-187.4799;-189.2005;-0.1207094;-0.2312741;0;
-199.2989;0;0;0.04327067;-11.06567;-8.575997;-187.1041;-191.0718;0.269216;-0.3609764;0;
324.5756;0;0;0.0432272;-10.92083;-8.701346;327.7627;325.2982;0.009076104;-0.2956464;0;
712.1795;0;0;0.04318376;-10.90985;-7.218979;712.6772;709.0283;-0.185835;-0.1654146;0;
366.6997;0;0;0.04314037;0.4215925;-12.63722;373.4437;368.3618;-0.05571363;-0.2951831;0;
171.1793;0;0;0.04309702;3.435279;-13.22737;178.1665;176.7752;-0.2505597;-0.2299192;0;
183.7509;0;0;0.04305372;7.181895;-7.855566;190.3562;191.2777;0.0745288;0.1601159;0;
-304.1261;0;0;0.04301046;11.93108;-6.441153;-288.9067;-289.4229;0.2693559;0.2898897;0;
-683.2548;0;0;0.04296724;-1.678569;-5.697868;-664.5525;-664.0687;0.07418326;-0.1002056;0;
-396.2122;0;0;0.04292407;-4.28885;-5.357228;-383.6506;-381.9179;0.2040434;-0.3599743;0;
-213.968;0;0;0.04288094;-0.5334967;0.1406329;-202.6684;-203.7485;0.07390369;0.03019145;0;
-195.6996;0;0;0.04283785;-2.944834;1.547133;-184.8486;-187.9266;0.07382943;0.09512848;0;
330.1703;0;0;0.04279481;1.679825;-1.468653;333.2018;330.8141;-0.05617943;0.03006553;0;
706.3369;0;0;0.0427518;2.884562;-1.400195;707.1164;703.4192;0.0738117;-0.03493202;0;
368.4216;0;0;0.04270885;-3.012835;-6.28842;374.885;369.6298;0.4635416;-0.2947663;0;
167.5897;0;0;0.04266593;-3.278227;-7.152757;174.6088;172.5448;0.1382391;-0.03460074;0;
180.1024;0;0;0.04262306;-3.006513;-13.64279;185.7402;187.3014;0.008165523;0.09536873;0;
-298.5255;0;0;0.04258024;-3.941497;-17.17906;-285.7095;-284.1499;0.008157319;-0.2295638;0;
-691.9027;0;0;0.04253745;3.296132;-7.449515;-675.7263;-672.9813;-0.1867529;0.09550357;0;
-403.4146;0;0;0.04249471;5.905764;-6.839183;-393.2515;-389.6971;-0.1215979;0.09540761;0;
-205.1712;0;0;0.04245201;1.00971;-3.014406;-195.7679;-195.3406;-0.3163778;-0.1645576;0;
-200.155;0;0;0.04240935;1.812979;-0.131233;-190.0739;-191.6461;-0.2510925;0.1604444;0;
322.3461;0;0;0.04236674;1.676459;-5.489614;324.3586;323.2253;-0.1209055;0.2902179;0;
711.7013;0;0;0.04232417;1.339982;-5.551081;710.3385;708.2068;-0.2507187;0.09502426;0;
364.3479;0;0;0.04228164;4.017953;-5.679469;368.0464;364.7925;-0.05556478;-0.1649406;0;
166.6435;0;0;0.04223916;3.411679;-6.209626;169.2139;169.4615;0.009458393;-0.03484019;0;
189.2147;0;0;0.04219672;6.556083;-6.739128;191.1577;194.591;-0.1204858;0.03016216;0;
-304.8522;0;0;0.04215432;6.482146;-6.464546;-294.6653;-292.4848;-0.1203647;-0.2297375;0;
-699.5974;0;0;0.04211196;2.523518;-11.01277;-687.5465;-684.4313;-0.05527645;0.09533005;0;
-406.6663;0;0;0.04206964;1.114463;-13.34598;-400.9369;-396.9502;0.2696158;0.1602016;0;
-212.605;0;0;0.04202737;-7.259401;-3.218394;-206.7565;-206.7093;0.3992796;0.225008;0;
-190.2775;0;0;0.04198514;-12.2086;-2.07645;-183.8101;-186.0743;0.07404167;0.0948472;0;
339.9598;0;0;0.04194296;-10.11925;-1.002759;337.0504;336.4751;-0.2508694;-0.2300848;0;
711.931;0;0;0.04190081;-12.18616;1.811532;703.4023;703.14;0.009252007;0.03001573;0;
367.7009;0;0;0.04185871;-17.46521;-7.433689;362.679;361.7297;0.5289814;-0.09994911;0;
177.5518;0;0;0.04181665;-18.51938;-7.962083;171.9103;173.5856;0.3335479;-0.2297834;0;
187.056;0;0;0.04177463;-22.38554;-11.83897;180.858;184.2808;-0.2514933;0.03031689;0;
-304.8847;0;0;0.04173266;-24.17171;-15.6451;-303.7678;-301.6602;-0.1862733;-0.09964825;0;
-686.6364;0;0;0.04169073;-17.44962;-2.099074;-683.7089;-680.2916;0.1387506;0.03038656;0;
-388.4709;0;0;0.04164883;-16.82887;-0.1545815;-392.9177;-388.5044;0.07364383;0.3551928;0;
-198.4259;0;0;0.04160699;-10.44895;-3.235519;-205.0547;-204.6438;0.07356983;0.1599338;0;
-194.1036;0;0;0.04156518;-6.753778;-1.758644;-202.2249;-204.1883;0.008528569;-0.1650636;0;
335.5753;0;0;0.04152341;-12.97628;-7.785218;317.9044;316.6302;-0.1214147;0.09497163;0;
721.9187;0;0;0.04148169;-11.55672;-10.05482;700.7674;696.8708;-0.3161947;0.614615;0;
367.6835;0;0;0.04144001;-15.89937;-8.638071;350.7388;345.9716;-0.510779;0.54903;0;
166.2276;0;0;0.04139837;-17.6247;-10.90681;147.3634;147.9733;-0.3153638;0.2236416;0;
188.5493;0;0;0.04135677;-9.903836;-10.15904;167.5177;170.8755;-0.1201449;-0.1663871;0;
-291.5864;0;0;0.04131522;-8.353643;-10.21581;-306.475;-304.8072;0.2048126;-0.4260893;0;
-673.7262;0;0;0.0412737;-9.283255;-18.10929;-686.7257;-683.8727;0.1396394;-0.03585712;0;
-382.7576;0;0;0.04123223;-8.871785;-19.02886;-402.1784;-399.0783;-0.2503049;0.02914625;0;
-196.7164;0;0;0.0411908;-1.561853;-22.29178;-217.8667;-218.5804;-0.1201187;-0.03585038;0;
-180.027;0;0;0.04114941;1.989689;-24.88171;-202.2181;-205.1174;0.07490398;0.09412035;0;
350.6997;0;0;0.04110806;-5.64812;-10.99161;319.2856;317.3887;-0.05510596;0.09402577;0;
723.8471;0;0;0.04106676;-6.11096;-7.229522;688.9663;686.4466;0.07488409;0.418768;0;
382.0412;0;0;0.0410255;-3.29178;-10.23649;351.6307;348.8637;0.2697109;0.2884125;0;
191.1281;0;0;0.04098427;-3.958058;-7.747836;158.6867;161.0449;0.009570498;-0.1666487;0;
196.6832;0;0;0.04094309;1.939441;-9.079709;161.7132;166.2554;0.2044629;-0.1015139;0;
-290.5197;0;0;0.04090195;5.220022;-9.338518;-320.4571;-318.4806;0.3341922;0.02852281;0;
-669.2247;0;0;0.04086085;-4.631836;-7.118698;-697.5079;-694.6589;-0.0559477;-0.03647319;0;
-379.9474;0;0;0.0408198;-6.033701;-7.982323;-413.6993;-410.0411;0.009075855;-0.1663712;0;
-189.9109;0;0;0.04077878;2.679899;-6.902575;-224.3786;-224.4721;-0.05590061;0.02869797;0;
-176.2269;0;0;-0.02173079;3.346791;-6.158949;-211.8468;-214.6889;-0.1857791;0.02866913;0;
352.5595;0;0;0.04075964;8.099827;-17.07061;306.9804;304.391;-0.05565776;-0.03632702;0;
739.9478;0;0;-0.02174991;11.17217;-20.60356;690.5414;687.5799;0.07433284;0.2885462;0;
388.818;0;0;0.1656777;5.401145;-15.69322;344.7086;342.4372;0.3990948;0.4831583;0;
193.4003;0;0;-0.02189453;5.864232;-17.21794;148.2108;150.6268;0.3337265;0.2228035;0;
224.2529;0;0;0.1030647;5.188755;-14.85636;176.3602;181.0226;0.00855447;0.1576122;0;
-276.7832;0;0;-0.02197609;4.379257;-14.50651;-319.193;-315.7222;0.3983499;0.4822906;0;
-675.3047;0;0;-1.958481;7.255245;-15.89858;-716.2975;-711.5808;0.1380803;0.2219366;0;
-368.1552;0;0;-1.706638;7.114233;-15.07881;-415.1038;-410.017;-0.4467645;0.02681156;0;
-181.3789;0;0;0.2316031;8.915746;-18.81458;-228.3429;-226.572;-0.2514136;0.09175198;0;
-170.8894;0;0;0.0439646;8.839438;-18.72869;-215.8071;-216.5368;-0.05625894;-0.2981443;0;
370.4478;0;0;-0.01854818;10.37177;-19.11177;317.6417;316.9128;-0.3160718;-0.2328774;0;
740.202;0;0;0.1688763;11.29838;-19.22653;681.2646;679.5993;-0.1208522;-0.167676;0;
388.1974;0;0;-0.01869923;3.651218;-15.38931;332.4425;330.9664;0.6588773;-0.03757286;0;
201.9007;0;0;0.1062568;1.236652;-14.97195;145.8896;148.1006;0.593248;0.02743224;0;
206.6329;0;0;0.0436814;1.837646;-6.383211;149.616;153.8238;0.00794581;-0.10253;0;
-285.3275;0;0;0.04363751;-0.03923455;-2.290961;-336.4151;-332.7737;-0.05702952;0.1574424;0;
-653.4807;0;0;0.04359366;-0.03919513;-10.46045;-701.9556;-696.6313;0.2678645;0.2222515;0;
-357.2226;0;0;0.1060185;-0.6423681;-11.11965;-410.459;-404.3904;0.3325627;-0.1028085;0;
-177.7037;0;0;0.04344333;-1.44503;-6.955658;-231.8861;-229.8841;0.007391818;-0.2326399;0;
-160.034;0;0;-0.01906892;-1.041436;-6.881686;-215.4737;-215.9724;-0.5123543;-0.0375041;0;
371.4847;0;0;0.04341884;-0.8402951;-9.420123;306.7304;307.4816;-0.7067416;0.09246828;0;
736.8027;0;0;-0.01909339;0.433347;-9.879538;668.99;668.7408;-0.3162274;-0.1025267;0;
386.9253;0;0;0.105863;-0.4377446;-11.74501;323.3661;322.9299;0.1388618;-0.2973257;0;
195.0078;0;0;-0.08164918;-0.5036776;-12.73795;128.6389;132.7009;0.2036896;-0.4269616;0;
212.8653;0;0;0.1058387;7.332734;-10.11294;144.4392;151.9953;0.07355023;0.09320615;0;
-268.9191;0;0;-0.01920488;9.335097;-9.6339;-331.0295;-323.2936;0.1384437;0.3529819;0;
-653.2056;0;0;-1.705838;12.33983;-8.284561;-711.3806;-703.0902;0.2032719;-0.1671116;0;
-358.1347;0;0;-1.391781;16.81541;-6.869595;-418.8124;-410.6554;-0.3816384;-0.03700896;0;
-170.6814;0;0;0.2338013;3.067132;-6.996658;-231.4856;-226.6476;-0.5111896;0.09296292;0;
-162.5764;0;0;0.04616059;0.1172887;-5.784058;-223.6318;-221.4848;-0.1858393;-0.2319672;0;
370.4442;0;0;-0.01635439;11.7051;-7.452697;299.0803;302.1621;-0.05571786;0.0931026;0;
749.7561;0;0;0.04613064;12.02813;-8.85185;671.3425;672.1724;0.2691748;0.2229437;0;
400.8652;0;0;0.1085529;13.75735;0.1325134;327.6528;324.9212;0.2689044;0.09278503;0;
204.9982;0;0;0.04597521;14.34674;2.275834;132.1092;133.1909;-0.05620254;0.0926918;0;
211.9136;0;0;0.1083976;16.87695;-4.960487;137.6611;143.8642;0.2037233;-0.1023034;0;
-275.4295;0;0;0.0458201;20.40996;-4.955503;-342.9232;-336.6639;0.07358392;-0.2321353;0;
-645.5291;0;0;-1.453472;4.850389;-11.58159;-710.2688;-703.8284;-0.121392;0.02796735;0;
-348.0296;0;0;-1.264606;1.495637;-15.52195;-417.5769;-410.081;0.2035666;-0.1019954;0;
-164.5845;0;0;0.235911;11.47447;-6.731707;-235.4361;-231.0088;0.1383947;-0.7515664;0;
-146.8654;0;0;0.04826815;11.39657;-6.523994;-217.8958;-216.2215;0.203223;-0.7508112;0;
385.5771;0;0;-0.01424895;18.01557;-8.058046;306.3723;308.9195;0.07308415;0.02955133;0;
753.567;0;0;0.04823397;21.81586;-6.643308;669.2568;670.6146;-0.3167933;0.1594563;0;
401.5489;0;0;0.1106541;15.69837;-12.59799;322.4459;323.0526;-0.121573;0.02936141;0;
211.1159;0;0;0.04807432;15.08036;-13.18818;132.842;138.1333;-0.3163529;0.02933191;0;
231.7058;0;0;0.1104946;24.04019;-9.691937;153.5106;161.7326;-0.316035;-0.1006322;0;
-262.7161;0;0;-0.01455361;26.42791;-9.347284;-331.7748;-324.9979;0.333956;0.2243056;0;
-655.8793;0;0;-1.951066;17.55912;-5.252056;-721.7452;-714.9127;0.3336204;0.4839496;0;
-353.0597;0;0;-1.636762;15.80016;-3.572205;-426.1683;-419.0926;0.1383832;0.09365925;0;
-162.9878;0;0;0.3638777;15.24842;-2.29594;-237.3972;-233.4521;-0.1216252;0.3534345;0;
-154.6406;0;0;0.05116905;12.68751;-0.8869912;-228.2257;-225.9087;-0.05653569;0.4180467;0;
382.4948;0;0;-0.01135096;15.82357;-0.1494097;300.4255;304.6767;-0.1864136;-0.2320468;0;
754.4233;0;0;0.1135976;16.20981;1.324365;668.6259;671.6234;-0.2511936;0.09302311;0;
395.8452;0;0;0.1134835;9.896881;-2.360905;316.1934;318.1259;0.008928166;0.7426031;0;
206.0426;0;0;0.05090087;8.546789;-2.425516;127.283;133.4614;-0.4458522;0.6119222;0;
218.5167;0;0;0.05084972;11.82073;-2.021181;139.9612;147.5702;-0.3804369;0.09156861;0;
-272.5186;0;0;-0.01166997;12.00992;-2.220099;-343.8738;-339.0836;0.1396841;-0.4932295;0;
-640.4972;0;0;-1.448436;13.94024;2.068918;-711.9056;-705.9957;0.2694785;-0.6226686;0;
-344.5645;0;0;-1.197106;15.13168;3.205549;-423.0851;-416.2441;0.3991424;-0.2972062;0;
-167.7445;0;0;0.2408744;14.51424;6.819284;-245.5615;-242.3506;0.0739046;0.02792914;0;
-146.8364;0;0;-0.009242022;14.56603;9.357783;-223.4508;-221.9922;0.008863006;-0.1670009;0;
392.2902;0;0;-0.009232736;16.09261;6.468114;306.7574;309.214;0.1387888;-0.6216045;0;
756.5877;0;0;0.05324514;16.14281;6.461615;666.0808;667.0358;-0.1861874;-0.3611106;0;
402.0053;0;0;0.1156602;15.25594;8.598577;316.462;316.4789;0.1388364;0.02905632;0;
213.8833;0;0;-0.009393176;15.64275;8.522954;129.4878;133.6276;-0.05620512;0.02902712;0;
215.9172;0;0;0.1780221;9.129322;7.37568;131.4816;138.4284;-0.4459527;-0.03596938;0;
-275.178;0;0;-0.009562615;6.910322;7.033354;-352.4698;-346.5295;0.2041688;-0.2308353;0;
-637.9066;0;0;-2.758171;11.19029;4.413952;-712.3721;-706.0004;0.2039637;0.1592007;0;
-342.2263;0;0;-2.31812;11.24541;3.538861;-422.739;-415.4368;-0.1860453;0.6787795;0;
-161.6606;0;0;0.4328279;11.56891;4.272118;-242.1548;-237.9833;0.3988477;0.3532608;0;
-145.5686;0;0;0.05758137;12.36157;4.602618;-224.8575;-223.5638;0.4634143;0.02806908;0;
388.3718;0;0;-0.004945091;12.41552;4.330183;298.7303;301.522;0.1381119;-0.1018938;0;
762.0435;0;0;0.1199971;12.67146;4.526659;668.1818;670.5334;0.2029405;0.02814326;0;
402.7081;0;0;0.1198765;15.20433;8.675053;316.187;317.8491;-0.1221001;0.3529517;0;
205.1525;0;0;0.05728745;15.79129;9.804924;119.2182;124.5017;-0.1869448;0.4825317;0;
221.8754;0;0;0.05722989;15.44063;11.67059;135.84;143.3671;-0.2517243;0.4170795;0;
-268.0389;0;0;-0.005296216;16.0947;12.3287;-345.5546;-338.9721;-0.2514714;0.1567911;0;
-640.5822;0;0;-1.941818;10.0503;11.44553;-715.6462;-708.2582;0.2685201;-0.2331705;0;
-334.7794;0;0;-1.627523;7.294516;11.09912;-416.6396;-409.134;0.1383156;-0.2979036;0;
-161.2176;0;0;0.3731072;9.899154;6.131348;-244.0574;-240.1202;0.1381766;-0.1676695;0;
-158.8692;0;0;0.0603893;7.612032;4.048838;-240.4389;-238.2547;0.0730704;0.09236831;0;
386.5164;0;0;-0.002139983;9.211973;0.8965718;297.2825;300.5889;-0.1868724;-0.1026265;0;
761.3769;0;0;0.185268;8.666854;-1.515593;668.3596;669.4139;0.2031194;0.157346;0;
403.9161;0;0;0.1226132;1.825642;-1.915967;315.74;315.4813;0.008013309;0.5469919;0;
219.2904;0;0;0.06002141;0.4846372;-3.521632;131.2028;134.8799;-0.2518641;0.0916709;0;
223.5053;0;0;0.0599611;-6.214631;-0.4370011;136.006;141.9283;-0.05670901;-0.1033233;0;
-272.0953;0;0;-0.002567752;-9.691011;0.3672332;-353.0099;-347.9681;0.13825;-0.03825209;0;
-632.1407;0;0;-1.189469;-4.791153;-0.3029651;-712.6617;-705.626;0.3330131;-0.103181;0;
-334.155;0;0;-0.938399;-5.523273;0.5681174;-418.4057;-411.0023;-0.05712556;0.02685736;0;
-162.5304;0;0;0.2494473;-4.714417;0.09866602;-245.447;-242.4863;-0.3169375;0.02683038;0;
-147.0623;0;0;-0.0006777267;-5.245543;0.1655498;-230.7702;-229.624;0.1381523;-0.2980333;0;
396.0001;0;0;-0.0006770457;-2.025091;2.777718;303.4433;305.213;0.008078829;-0.2327665;0;
766.8531;0;0;-0.0006763654;-0.6829098;3.980619;670.8911;670.1602;-0.5766354;0.2222388;0;
400.6412;0;0;0.1242615;-9.122317;0.761439;309.898;308.8556;-0.1212846;0.2220155;0;
202.0883;0;0;-0.0008005443;-10.51967;0.5597252;111.6237;114.9551;0.398576;-0.2979463;0;
223.6868;0;0;0.1866061;-14.52856;1.898821;132.501;137.8905;0.008371494;-0.2326796;0;
-264.2928;0;0;-0.0009872426;-17.52808;1.829931;-348.3281;-343.6935;-0.1215716;-0.1025111;0;
-642.9618;0;0;-2.749605;-13.42463;3.83758;-723.4144;-717.5351;0.2033873;-0.1024081;0;
-335.9073;0;0;-2.309562;-14.08072;4.436448;-421.7762;-415.0283;0.1382156;-0.3621746;0;
-153.8486;0;0;0.4413774;-12.05684;5.369751;-240.8181;-237.4504;0.203044;-0.4917454;0;
-145.9479;0;0;0.1285909;-11.10672;6.570049;-232.2054;-231.2773;0.20284;-0.2963492;0;
396.1139;0;0;-0.05894408;-14.10967;2.745542;301.8846;303.6239;-0.1222005;-0.2310841;0;
763.2811;0;0;0.128521;-15.43564;1.135193;665.8357;665.8241;-0.1220777;-0.1009172;0;
405.9434;0;0;0.06592321;-11.40067;8.301104;314.7178;313.207;0.007979612;0.02911885;0;
226.7504;0;0;0.06585696;-10.9207;10.43609;136.5535;138.4799;-0.4467998;0.288959;0;
230.7704;0;0;0.06579079;-17.74223;3.459628;140.1019;144.6501;-0.3813835;0.4186033;0;
-272.9584;0;0;0.003256085;-18.66143;3.6571;-357.2265;-352.7453;0.0737711;0.02837863;0;
-630.9416;0;0;-1.183651;-20.78613;2.313767;-713.4383;-707.5873;-0.3810744;0.09331747;0;
-331.0205;0;0;-0.9325868;-20.4978;0.4359198;-418.4943;-412.3369;-0.5755935;0.09322371;0;
-167.2701;0;0;0.2552536;-24.36197;10.28173;-253.1567;-250.4412;0.009690896;-0.2317067;0;
-140.9901;0;0;0.06759134;-26.21253;11.54407;-226.9154;-225.2646;-0.05528618;-0.1665065;0;
410.0621;0;0;0.06752342;-9.039535;12.13532;314.2282;316.8768;-0.3800673;0.09353016;0;
771.1559;0;0;0.004986974;-4.475124;14.06563;672.4822;672.1297;-0.2497508;0.02846882;0;
406.8138;0;0;0.1923878;-3.93574;5.544788;313.1118;311.1355;0.0753369;-0.1664618;0;
222.7473;0;0;-0.05767995;0.02032974;4.065714;129.0771;132.0377;0.1402285;-0.03635986;0;
245.0122;0;0;0.1922524;-4.266598;-0.2922617;152.3731;159.2663;0.01015295;0.2885134;0;
-270.0377;0;0;-0.05781517;-4.127614;-4.712719;-354.213;-348.8884;0.3999468;0.2232562;0;
-662.2566;0;0;-4.180685;-5.731056;5.741109;-743.6611;-737.9671;0.5294796;0.3529665;0;
-344.2507;0;0;-3.551798;-7.400237;7.878794;-432.3825;-425.0075;-0.3805952;0.5475138;0;
-160.1846;0;0;0.5746986;-5.918933;-1.30554;-248.8525;-245.358;-0.5751148;0.222127;0;
-143.9692;0;0;0.0743723;-5.377122;-1.170262;-231.1738;-231.1185;-0.1847329;0.1569365;0;
408.148;0;0;-0.1131082;-12.53901;-0.03049863;312.4729;312.7779;-0.1195799;0.02684409;0;
766.5575;0;0;0.1993484;-14.87094;-0.3653826;667.4803;665.9109;0.205377;-0.3629869;0;
405.4684;0;0;0.01174232;-4.339799;6.869019;312.3628;310.8575;0.3351053;-0.1677202;0;
223.5897;0;0;0.07419912;-2.86157;7.933844;130.0779;133.3842;-0.2499375;0.02735038;0;
218.3675;0;0;0.01165596;0.4228588;10.0692;124.6998;130.1892;0.1401177;-0.2325465;0;
-278.8521;0;0;0.01164425;3.772313;10.7959;-364.4297;-359.8828;0.2699116;-0.2972802;0;
-631.5195;0;0;-1.237739;-1.657461;7.971889;-714.7622;-709.0955;-0.380033;0.2227573;0;
-334.9087;0;0;-1.04909;-0.9862106;8.030863;-422.628;-416.1549;-0.2497165;0.3524682;0;
-163.5956;0;0;0.2013362;-2.258017;-4.368805;-251.2893;-247.6962;-0.3794003;0.2871467;0;
-133.134;0;0;0.07619666;-2.791612;-9.120082;-222.7385;-221.0856;-0.3790191;0.2868581;0;
408.2278;0;0;0.0761201;0.4263738;-6.632549;308.281;310.6819;-0.05380151;-0.4280709;0;
758.9536;0;0;0.01357501;1.029158;-9.171236;655.2967;656.4457;-0.3785841;-0.5575754;0;
398.8091;0;0;0.2009672;2.300921;-7.889346;302.1279;302.0889;-0.3132364;0.09265825;0;
214.126;0;0;-0.04910916;2.700751;-8.484264;119.2911;122.9378;0.01191504;0.3524345;0;
226.3421;0;0;0.2008146;5.845869;-6.667201;132.0397;137.7443;0.2068051;0.3520804;0;
-272.1973;0;0;-0.04926159;6.442232;-6.057655;-358.2216;-353.0225;0.336532;0.2217919;0;
-649.3591;0;0;-3.859797;7.574834;-3.238407;-732.3608;-725.293;0.1412918;0.1566017;0;
-338.4251;0;0;-3.168764;9.041092;-0.15406;-427.4654;-420.0298;0.2710845;0.3513464;0;
-151.6787;0;0;0.5825362;0.6592624;-8.995408;-240.3797;-236.6372;0.2708121;0.4159607;0;
-134.0351;0;0;0.0822021;-0.6141977;-9.522233;-221.585;-220.2201;-0.3141661;0.3505754;0;
408.8892;0;0;-0.0428177;-2.28852;-6.096536;312.6193;314.1702;-0.1189484;0.1553211;0;
761.5509;0;0;0.2070997;-4.563396;-6.425324;663.7535;663.6786;0.2060079;-0.234639;0;
396.7812;0;0;0.08195443;3.211697;2.288669;306.2034;305.3791;0.01089885;-0.2993706;0;
218.9092;0;0;0.08187208;4.145499;5.501428;127.2356;129.3481;0.3357246;-0.1041677;0;
218.9391;0;0;0.08178982;7.691307;4.424173;125.1087;129.2181;0.465322;-0.03909574;0;
-285.34;0;0;0.08170763;10.56397;6.630165;-373.0791;-368.5366;0.3349197;0.09087825;0;
-635.5646;0;0;-2.042307;3.855547;5.953673;-721.6539;-715.4293;0.3995505;0.2207216;0;
-331.0787;0;0;-1.727912;2.445153;6.550538;-422.5787;-416.1105;0.07431234;0.1555325;0;
-165.4542;0;0;0.2728197;6.863326;8.285512;-256.7372;-254.336;-0.3155664;0.1553762;0;
-135.1156;0;0;0.08513974;7.123874;8.880033;-225.9946;-225.9071;-0.3802166;0.02528539;0;
409.3091;0;0;0.08505419;1.088496;9.072059;311.4;312.362;-0.1849326;-0.169642;0;
752.6625;0;0;0.08496872;-0.2517688;10.00058;653.29;652.4395;0.01015528;-0.2344389;0;
392.337;0;0;0.147352;-3.131904;7.57927;299.8734;297.6494;0.07511242;0.09063336;0;
224.6519;0;0;-0.04020191;-6.210216;6.767859;132.781;134.9945;-0.05489774;0.3504117;0;
239.7934;0;0;0.2097129;0.895971;12.32052;145.641;151.7253;-0.1847773;0.4150269;0;
-274.3767;0;0;-0.04037224;0.9624197;12.97797;-363.5619;-357.7336;-0.1196243;0.02480582;0;
-646.4764;0;0;-3.725979;-0.5787888;16.98378;-734.1352;-726.9384;-0.1844714;-0.3650232;0;
-327.2369;0;0;-3.097549;-0.1770416;20.58367;-419.118;-411.0539;-0.1193187;-0.2347217;0;
-151.996;0;0;0.528742;-6.740947;9.645018;-241.0986;-237.1031;0.4005399;0.02538352;0;
-140.8488;0;0;0.09093056;-8.475486;8.429755;-228.3626;-227.1197;0.4001375;0.3501948;0;
402.832;0;0;-0.03409801;-10.40935;11.70333;306.4731;308.0271;0.07489869;0.3498428;0;
759.5602;0;0;0.2158107;-12.27393;9.481131;659.7999;659.2284;0.3996601;0.1545893;0;
396.2292;0;0;0.09065661;-10.25284;21.66225;301.3168;299.9338;0.4642259;0.2194013;0;
211.7986;0;0;0.09056552;-10.30891;24.72158;116.6692;119.6604;0.008988056;0.3491156;0;
221.206;0;0;0.09047452;-10.03111;15.92222;126.2971;131.5966;-0.1209557;0.1538627;0;
-273.1429;0;0;0.02791501;-9.953679;15.50432;-361.0225;-356.1656;-0.05586678;-0.1711286;0;
-631.2509;0;0;-2.096045;-8.738229;11.13498;-718.4174;-711.379;0.07412404;0.1538801;0;
-322.7088;0;0;-1.781596;-10.06862;8.243644;-415.4099;-408.1912;-0.05588512;0.2186928;0;
-153.407;0;0;0.4065948;-4.030282;8.034411;-243.3913;-240.3652;-0.1207963;-0.1063637;0;
-132.076;0;0;0.1563119;-2.218548;5.347021;-219.0963;-218.3846;-0.1206749;-0.1712241;0;
414.8444;0;0;0.03121762;-15.61193;6.212427;319.978;321.2512;-0.3154557;0.0888173;0;
759.3167;0;0;0.1561234;-17.94077;5.335406;662.1093;661.6946;-0.1202367;0.4135648;0;
394.2368;0;0;0.03102938;-22.41072;0.507396;303.1866;301.5854;0.2696882;0.0883125;0;
222.8642;0;0;0.1559354;-25.7371;-2.172309;129.4066;132.2424;0.1394825;-0.1066783;0;
224.2644;0;0;0.09331011;-21.82648;1.781745;129.8388;135.5452;-0.05555969;0.2182656;0;
-280.8322;0;0;0.09321635;-22.94264;1.712971;-365.9799;-362.0284;0.07443082;0.153079;0;
-627.2507;0;0;0.09312269;-14.81527;-4.317092;-709.5019;-704.9296;0.2692581;-0.2368789;0;
-319.8372;0;0;0.1554977;-11.91999;-5.317498;-406.8782;-401.436;0.1390528;-0.04173885;0;
-157.847;0;0;0.09287287;-13.04709;-7.790401;-245.6127;-242.9871;-0.3158583;0.2181725;0;
-133.9504;0;0;0.03031096;-10.62211;-8.921284;-222.1276;-221.1288;-0.4454756;-0.1068835;0;
412.0973;0;0;0.0927491;-13.96131;-5.630278;317.2621;319.2594;-0.3150933;0.2180606;0;
759.321;0;0;0.03018731;-13.61152;-4.084013;661.3951;662.5784;-0.184842;0.6726129;0;
392.9918;0;0;0.2175628;-15.27278;-4.079909;300.9114;300.8441;0.2051478;0.282133;0;
216.1231;0;0;0.02993836;-16.5966;-2.669168;125.3846;128.7532;0.1399743;0.08694752;0;
222.3402;0;0;0.09237688;-11.69078;4.969324;131.4431;138.4938;-0.1850031;0.08686015;0;
-283.8789;0;0;-0.03265314;-11.00945;9.050168;-367.3759;-360.707;-0.1848172;-0.2380638;0;
-637.5407;0;0;-1.906678;-10.66359;7.232657;-719.517;-712.2926;0.01027056;-0.1728573;0;
-323.1203;0;0;-1.59242;-9.179011;8.632031;-411.0737;-403.4193;0.335097;0.4769898;0;
-154.8176;0;0;0.2832386;-12.65241;12.57523;-242.4327;-239.4087;0.3997276;0.4115432;0;
-131.1738;0;0;0.09554818;-13.71143;13.09846;-218.7009;-218.1162;0.009521888;-0.2385437;0;
414.8086;0;0;0.03298358;-5.057461;14.49181;319.6858;321.6443;-0.250357;-0.2383041;0;
756.5323;0;0;0.2203562;-1.435057;15.01312;660.7555;660.7755;-0.3150728;-0.1081299;0;
397.8896;0;0;0.03272902;-9.069425;8.366965;307.2064;307.2888;-0.5096583;-0.1080213;0;
227.825;0;0;0.1576333;-7.386349;5.947173;133.7348;138.6897;-0.3792115;-0.1728801;0;
226.3467;0;0;0.09500634;-9.455031;4.333606;131.2891;138.5503;-0.05399374;-0.3026411;0;
-272.8174;0;0;0.09491087;-11.65633;1.516091;-357.9095;-352.2173;0.2708972;-0.2373696;0;
-621.6803;0;0;0.09481551;8.517119;3.122158;-702.5015;-696.6276;0.4005597;-0.04222908;0;
-324.5172;0;0;0.1571888;13.33133;3.052038;-409.3801;-402.9499;-0.05461416;0.1527154;0;
-165.6458;0;0;0.1570309;9.43317;-0.6350903;-249.4864;-246.7483;-0.1195266;0.4124313;0;
-132.8083;0;0;0.09440451;12.83994;-0.7014351;-217.6891;-217.8897;-0.2493412;0.5419516;0;
422.4836;0;0;0.09430965;0.5695314;0.3709967;327.818;328.0549;-0.6388947;0.4764397;0;
768.8848;0;0;0.09421489;-3.852646;0.4376068;671.1909;669.7408;-0.3134161;-0.0437778;0;
402.3586;0;0;0.1565888;4.792389;5.594731;310.3225;309.3112;0.01173558;-0.04373381;0;
222.1696;0;0;0.03149428;3.916918;6.459888;130.5384;134.9004;-0.2481456;0.1512122;0;
228.3182;0;0;0.09393124;-4.593484;10.20432;137.5287;144.3226;-0.1179616;-0.1737765;0;
-272.7845;0;0;0.03136825;-8.339913;12.20355;-355.2369;-349.5742;0.07705899;-0.04366719;0;
-627.8942;0;0;-0.9681609;-3.978253;5.225188;-707.8275;-701.8583;-0.2478551;0.2162461;0;
-311.8594;0;0;-0.7797822;-4.376397;4.550108;-396.0851;-389.9344;-0.3125734;0.02112674;0;
-146.504;0;0;0.2204989;-10.53394;-0.5450443;-229.5832;-226.9369;0.01257735;0.1510402;0;
-130.927;0;0;0.1578087;-11.79615;-3.558607;-213.1731;-212.8408;-0.11737;0.2808231;0;
419.4904;0;0;0.09518155;-13.12347;-0.6079038;329.7058;330.9123;-0.4420888;-0.04429577;0;
762.4588;0;0;0.09508591;-14.11564;-1.879847;670.3906;669.9092;-0.2467425;-0.04425126;0;
401.6237;0;0;0.03252177;-12.09172;0.8012374;314.583;313.415;-0.05159256;0.02076055;0;
241.3005;0;0;0.09495769;-11.61106;1.604228;152.9105;155.3669;-0.1165081;-0.304097;0;
234.6238;0;0;0.09486227;-9.522312;0.8658034;144.8858;148.8389;0.07851103;-0.2388241;0;
-278.9164;0;0;0.09476696;-7.972503;1.93666;-362.942;-359.4927;0.1433995;0.1512199;0;
-621.4639;0;0;0.09467173;-8.767799;0.9969532;-704.5305;-699.3979;-0.3764833;-0.04383407;0;
-317.8667;0;0;0.09457661;-9.161131;1.86673;-404.5355;-399.9078;-0.3111377;0.08614467;0;
-161.6881;0;0;0.09448158;-4.462876;-0.5465316;-245.3963;-245.1461;0.2089137;0.1510255;0;
-125.044;0;0;0.09438664;-4.057227;-1.617587;-207.6686;-208.3557;0.01380172;-0.1089957;0;
427.8038;0;0;0.09429181;-5.794462;3.608585;336.6416;338.5164;-0.4409835;0.1509832;0;
761.7684;0;0;0.09419706;-4.583191;3.738925;667.9492;668.6976;-0.3106058;0.1508315;0;
403.8699;0;0;0.09410241;-16.23288;4.270909;315.8921;315.0781;0.1444777;-0.1741568;0;
235.3611;0;0;0.09400786;-19.16431;4.333601;146.5347;149.4696;-0.05056946;0.08588761;0;
224.2551;0;0;0.09391339;-15.05922;2.922727;134.1436;139.3869;-0.4403227;0.02083395;0;
-281.7785;0;0;0.09381903;-16.24953;3.455653;-363.3662;-360.0646;0.01489113;0.02081302;0;
-627.8837;0;0;0.09372476;-9.534425;-7.532776;-705.0167;-702.1557;0.3397129;0.6054982;0;
-317.9083;0;0;0.09363058;-8.253023;-11.74501;-399.1492;-396.541;0.2744042;0.4749551;0;
-152.4844;0;0;0.0935365;-1.479576;-3.293603;-233.0814;-234.1614;0.2091611;0.2795759;0;
-138.9004;0;0;0.09344252;3.278309;-2.888396;-220.7907;-222.4319;-0.1808531;0.3442623;0;
413.2117;0;0;0.09334863;-8.312911;-5.296879;320.3467;321.5807;-0.7004101;0.01907962;0;
769.7421;0;0;0.09325483;-9.577355;-4.286812;674.4717;674.4551;-0.634739;-0.1758416;0;
398.0301;0;0;0.09316113;-6.017759;-6.49282;310.7889;309.7104;-0.2442971;-0.3055996;0;
230.9015;0;0;0.09306752;-7.150788;-8.026903;144.1228;146.731;-0.2440517;0.1494789;0;
232.7934;0;0;0.09297401;-7.411047;1.693443;146.2268;149.8944;-0.3087738;0.2792634;0;
-288.6785;0;0;0.09288058;-8.943841;3.0314;-366.1626;-364.8101;0.1463079;-0.1108213;0;
-630.2791;0;0;0.09278726;-8.198896;-0.1868263;-705.6239;-702.2112;0.4709975;-0.04574258;0;
-315.6161;0;0;0.09269402;-9.597178;0.8181054;-396.9447;-391.6614;0.2756223;0.08423807;0;
-162.0011;0;0;0.09260088;-9.653907;-10.63655;-243.1229;-242.0304;0.01547596;0.08415344;0;
-129.4171;0;0;0.09250784;-9.376763;-14.44377;-210.4575;-211.6149;-0.04950694;0.01910152;0;
423.3102;0;0;0.09241489;-19.68247;-13.82641;334.3553;334.8857;0.2104122;0.01908233;0;
750.2828;0;0;0.09232203;-22.40838;-17.63042;659.7306;658.7612;-0.04966861;-0.04590419;0;
386.4614;0;0;0.1546979;-20.57818;-9.842933;302.7468;300.2167;-0.04961871;-0.1108254;0;
227.4028;0;0;0.02960522;-21.62923;-7.95752;143.1477;143.681;0.1453332;0.01922064;0;
226.3622;0;0;0.09204407;-17.32059;-14.6477;140.5676;142.7246;-0.1796496;-0.04576602;0;
-285.7954;0;0;0.02948299;-15.42718;-13.42729;-365.257;-363.9767;0.08040032;0.08421466;0;
-635.02;0;0;-0.9700443;-14.27357;-15.08837;-712.965;-710.3117;0.2102542;0.2140647;0;
-319.3528;0;0;-0.7816637;-12.38322;-14.73829;-400.9676;-398.5668;-0.04982642;0.1488823;0;
-153.9899;0;0;0.2186193;-8.017499;-7.757379;-233.2738;-235.4981;0.01519099;0.018798;0;
-132.1586;0;0;0.155931;-5.664919;-5.271338;-211.4877;-214.8342;0.1451104;0.2136811;0;
420.509;0;0;0.09330574;-6.529883;-2.251809;332.7013;332.8564;-0.1149048;0.4083685;0;
761.7272;0;0;0.09321198;-6.054807;-0.7760443;671.9464;671.7889;-0.7644627;-0.1767479;0;
392.0223;0;0;0.03064972;-6.316167;6.324804;308.8283;307.1718;-0.4388579;-0.04663567;0;
226.1491;0;0;0.09308752;-6.443542;9.667474;143.1637;145.1945;0.1462892;0.01837853;0;
226.8589;0;0;0.09299399;-10.6576;1.017205;143.2697;147.4849;-0.1137272;-0.1115746;0;
-285.8615;0;0;0.09290055;-12.85672;0.2123882;-362.4951;-359.7834;-0.2435476;0.2783416;0;
-629.7762;0;0;0.0928072;-9.762342;-3.337799;-703.959;-700.1257;-0.3732376;0.1481272;0;
-320.5486;0;0;0.09271395;-9.819882;-6.080745;-398.9672;-394.2631;-0.4378299;0.01804366;0;
-164.5547;0;0;0.09262079;-13.8285;-5.873686;-243.4568;-241.6934;-0.2424879;0.1479602;0;
-123.7223;0;0;0.09252772;-15.15476;-8.613962;-204.7939;-205.2188;-0.3072116;0.01787685;0;
433.497;0;0;0.09243475;-12.12542;-2.844897;343.3239;343.2744;-0.3069029;0.1477936;0;
758.9601;0;0;0.09234187;-12.38068;-2.239192;666.5663;664.7676;-0.2416272;0.2775798;0;
400.1275;0;0;0.09224909;-10.22478;-5.653072;314.1983;310.9647;-0.1114497;0.4722029;0;
236.9947;0;0;0.0921564;-8.205754;-5.312477;151.9015;152.1069;-0.1763051;0.1468917;0;
227.6986;0;0;0.0920638;-15.43118;-9.459958;143.503;145.8322;-0.3060626;-0.1780926;0;
-277.3389;0;0;0.09197129;-16.35368;-10.58916;-352.4544;-351.3145;0.01908162;0.2118904;0;
-627.2592;0;0;0.09187888;-12.51885;-11.91806;-699.1758;-696.6003;0.08402979;0.0817428;0;
-319.9706;0;0;0.09178656;-12.37255;-14.04954;-397.8744;-394.1146;-0.175924;-0.04827403;0;
-162.1657;0;0;0.09169433;-7.805768;-7.404233;-239.9913;-240.608;0.1490895;0.3415785;0;
-144.3242;0;0;0.09160219;-5.18498;-5.655359;-223.0085;-226.4982;0.5387437;0.4062026;0;
426.8463;0;0;0.09151015;-8.729743;-10.53931;337.434;335.5095;0.473235;0.2108925;0;
780.1771;0;0;0.0914182;-8.788321;-9.590958;688.2933;684.4343;-0.04697921;-0.1141561;0;
397.0854;0;0;0.09132634;-1.478472;-11.9256;311.9156;307.1234;-0.1118993;-0.0490741;0;
225.0851;0;0;0.09123458;1.134982;-12.85138;139.7511;138.8992;0.2780171;0.4057466;0;
229.2942;0;0;0.09114291;-4.559586;-6.408226;144.7331;144.8191;-0.04709892;0.08050221;0;
-285.1777;0;0;0.09105133;-4.688726;-6.000012;-360.5334;-361.9468;0.01791575;-0.2444154;0;
-627.7188;0;0;0.09095984;-4.215501;-2.778802;-700.9999;-701.2249;0.3427345;-0.04926779;0;
-311.4967;0;0;0.09086844;-5.818855;-1.6373;-391.7006;-391.613;0.08252071;-0.04921828;0;
-157.1986;0;0;0.09077714;1.421636;-6.659253;-237.0096;-240.2954;0.01747045;0.1457332;0;
-121.8709;0;0;0.09068592;3.697383;-8.19317;-200.6646;-204.7592;0.1473876;0.08061944;0;
437.8453;0;0;0.0905948;-4.812798;-11.46698;350.3227;348.0438;-0.3724993;-0.1793309;0;
755.3705;0;0;0.09050377;-5.678618;-13.73288;665.6245;661.0366;-0.3071576;-0.2441181;0;
384.2977;0;0;0.09041283;-7.079432;-18.94362;300.4514;294.6812;0.3428244;-0.3088402;0;
231.738;0;0;0.09032198;-10.2875;-22.00568;147.8511;146.272;-0.1122914;-0.04866046;0;
221.6351;0;0;0.09023122;0.3054088;-19.23739;137.6451;138.3165;-0.4370153;-0.1135789;0;
-291.6422;0;0;0.09014057;2.582278;-18.81616;-368.7388;-369.0675;-0.04677215;-0.04849744;0;
-619.1219;0;0;0.09004999;-6.79744;-21.74438;-692.8926;-692.5339;0.08320953;0.276388;0;
-308.8429;0;0;0.08995951;-7.192751;-21.8565;-386.2877;-384.4926;-0.04680876;-0.1136938;0;
-158.1082;0;0;0.08986911;-9.864841;-14.60063;-233.9759;-234.8063;0.2131076;-0.5683509;0;
-125.3407;0;0;0.08977881;-11.39517;-12.71043;-200.5075;-203.8358;0.3428282;-0.3728778;0;
428.8192;0;0;0.08968861;-12.72289;-9.214673;343.7954;342.0323;-0.1122877;-0.5024378;0;
760.9087;0;0;0.08959848;-16.99701;-6.325148;670.9104;668.212;-0.1771422;-0.696835;0;
393.391;0;0;0.08950846;-1.574593;-10.27079;308.2932;303.8484;-0.04702951;-0.2413634;0;
227.204;0;0;0.08941852;1.508448;-9.456671;143.7535;142.499;-0.3068516;0.1486832;0;
222.9153;0;0;0.08932867;-12.55924;-13.39904;141.1103;141.1689;-0.241576;0.2135011;0;
-286.053;0;0;0.08923891;-13.01611;-15.2611;-359.5299;-360.5333;0.01853615;0.3432212;0;
-621.6592;0;0;0.08914924;-24.32254;-10.22217;-692.9384;-691.2546;0.2134195;0.2129417;0;
-306.3802;0;0;0.08905967;-29.72311;-9.943963;-383.085;-380.7158;0.01830308;0.0178257;0;
-154.586;0;0;0.08897018;-21.45519;-7.8575;-230.5266;-231.9079;-0.5014541;-0.2420616;0;
-128.1939;0;0;0.08888078;-22.57174;-5.103426;-203.6209;-206.8748;-0.3060482;-0.3067857;0;
426.7186;0;0;0.08879147;-20.00443;-10.79173;342.6218;339.7459;0.1490307;0.148294;0;
751.189;0;0;0.08870225;-18.84526;-10.7139;663.7409;658.6815;0.08391366;0.2780797;0;
386.4297;0;0;0.08861312;-17.01766;-2.933236;303.6921;297.201;0.1487967;0.08289821;0;
235.492;0;0;0.08852409;-14.18752;-0.9877835;151.5258;148.0397;0.01871249;0.1477823;0;
229.8831;0;0;0.08843514;-19.73297;4.237756;145.439;144.3303;-0.1762083;0.1476338;0;
-283.9022;0;0;0.08834628;-19.71314;8.051403;-360.0781;-361.2482;-0.0460966;-0.3722533;0;
-617.699;0;0;0.08825751;-18.0184;4.5602;-692.2366;-692.0937;0.0838844;-0.696716;0;
-305.485;0;0;0.08816882;-18.06764;5.761311;-386.7567;-386.0518;0.2137348;-0.3062119;0;
-168.6841;0;0;0.08808023;-16.10711;7.430095;-249.1246;-251.6062;0.01861801;-0.1759695;0;
-144.4642;0;0;0.08799173;-16.49209;7.757544;-223.3871;-227.3655;-0.04636804;-0.3706947;0;
431.8913;0;0;0.08790331;-10.84944;11.03179;345.9888;343.0139;0.08361324;-0.1754202;0;
761.4789;0;0;0.08781499;-8.561358;12.15942;674.6008;669.5674;-0.3062748;-0.1102766;0;
383.5909;0;0;0.08772675;-15.18419;10.53961;302.2972;296.2069;-0.1760324;0.1497036;0;
230.5946;0;0;0.0876386;-15.30265;10.72997;147.696;144.9227;0.1489812;0.08458581;0;
226.8647;0;0;0.08755054;-17.29701;11.72393;141.6756;140.8416;0.3437335;-0.4352379;0;
-291.6653;0;0;0.08746257;-18.6188;11.98008;-370.6469;-372.1671;0.3433881;-0.2398986;0;
-624.08;0;0;0.08737469;-14.11211;11.3652;-700.8582;-701.5649;-0.241663;-0.1097228;0;
-302.8015;0;0;0.0872869;-13.09355;10.8849;-383.938;-384.0193;-0.1114855;-0.4344493;0;
-154.1344;0;0;0.08719919;-15.69237;13.35233;-232.8779;-236.27;0.01856123;-0.3690454;0;
-127.9925;0;0;0.08711157;-17.28419;14.20969;-205.0328;-210.7953;-0.2413268;-0.0438379;0;
431.5424;0;0;0.08702404;-9.22887;11.44911;346.646;341.2017;-0.1111496;0.2160755;0;
753.1968;0;0;0.0869366;-8.683734;11.63856;668.1359;660.5731;-0.3059399;0.02095638;0;
382.3136;0;0;0.08684924;-11.35433;12.56462;304.8968;296.9668;-0.1756979;-0.1739667;0;
230.0683;0;0;0.08676198;-10.53961;13.89166;150.293;147.6808;0.2792501;-0.3037266;0;
221.4663;0;0;0.0866748;-23.32239;10.86347;138.7727;138.6619;0.1490348;-0.2384541;0;
-291.1862;0;0;0.08658771;-26.31307;9.512891;-366.8001;-368.0978;-0.04601698;0.08662226;0;
-613.3564;0;0;0.0865007;-27.89422;18.67987;-686.8955;-686.1304;0.2138986;0.1515026;0;
-297.6486;0;0;0.08641379;-30.81295;18.92903;-374.9868;-373.1604;0.4085857;0.08638299;0;
-154.6087;0;0;0.08632696;-24.01684;22.19206;-228.8707;-231.6064;0.2782405;-0.3035079;0;
-121.9072;0;0;0.08624022;-24.59592;23.9783;-195.0326;-200.0769;-0.0468758;-0.3032029;0;
438.9334;0;0;0.08615357;-12.44741;10.62484;357.1984;353.5959;-0.1767634;0.3467752;0;
756.0827;0;0;0.086067;-7.277344;7.131177;670.9316;665.771;-0.3714878;0.5413288;0;
388.6323;0;0;0.08598051;-16.37971;2.23438;306.5652;300.4728;-0.1112451;0.0210461;0;
239.2542;0;0;0.08589412;-14.42087;-2.523532;154.0837;152.2453;0.2786707;-0.2388444;0;
226.3327;0;0;0.08580782;-21.3726;-3.324791;141.2477;142.4097;-0.04644604;-0.4335065;0;
-290.8224;0;0;0.0857216;-23.29351;-7.407288;-365.3271;-364.6037;0.1485026;-0.7579076;0;
-620.9891;0;0;0.08563546;-17.91147;-0.5678295;-692.6078;-690.7607;0.7330595;-0.6921787;0;
-304.0866;0;0;0.08554941;-17.75975;0.437485;-383.2546;-380.4722;0.4074862;-0.2367118;0;
-153.9813;0;0;0.08546346;-13.99086;-6.194021;-233.1323;-233.4136;0.01727273;-0.04157191;0;
-127.8397;0;0;0.08537758;-12.90508;-6.72366;-205.6617;-208.0667;0.08222272;-0.1714648;0;
433.6316;0;0;0.0852918;-6.529098;-7.453717;345.7054;344.5522;-0.502566;-0.04135785;0;
758.2825;0;0;0.08520609;-3.708522;-7.51321;665.0723;662.1086;-0.8268977;-0.1062836;0;
384.8954;0;0;0.08512048;-5.781877;-9.850063;297.0262;292.3789;-0.5012301;-0.0412095;0;
237.0203;0;0;0.08503494;-4.234849;-10.64396;149.6142;148.4698;-0.4357592;0.02379925;0;
229.7232;0;0;0.0849495;-11.26417;-6.078427;143.4044;143.8853;0.08441744;-0.3660287;0;
-292.995;0;0;0.08486415;-13.32895;-4.330885;-369.357;-370.6881;0.6690387;-0.4955956;0;
-619.6613;0;0;0.08477888;-10.63624;-5.934124;-693.8226;-693.4658;0.6033991;-0.1702609;0;
-307.3828;0;0;0.08469369;-10.69291;-5.660229;-388.1537;-385.8607;0.2129887;0.2197142;0;
-176.1398;0;0;0.08460858;-10.61481;-0.0950805;-256.0799;-256.6628;-0.1770293;0.2844608;0;
-139.1063;0;0;0.08452357;-9.466047;1.177691;-219.4659;-221.4224;0.01805059;-0.04066176;0;
442.6786;0;0;0.08443864;-7.647875;2.248234;353.4668;352.9489;0.01803245;0.2842158;0;
762.6978;0;0;0.0843538;-6.970605;4.590256;672.2012;669.4975;0.01801434;0.4138649;0;
391.8049;0;0;0.08426904;0.6058367;-3.251116;306.959;302.7588;-0.04697111;0.1535797;0;
246.7964;0;0;0.08418436;2.145469;-3.984661;162.598;161.0881;-0.3067933;0.2183927;0;
223.7474;0;0;0.08409978;5.626914;-3.042896;142.8195;141.8109;0.0183517;0.1532059;0;
-297.9028;0;0;0.08401527;8.769092;-4.178548;-369.9413;-372.9479;0.0833006;-0.1717847;0;
-616.5057;0;0;0.08393085;-4.234164;4.935085;-689.4088;-690.5384;-0.1116851;-0.2365794;0;
-301.919;0;0;0.08384652;-6.306015;7.676426;-382.7449;-382.6864;0.1482965;0.08849499;0;
-156.8135;0;0;0.08376227;-9.313788;6.195088;-237.1833;-240.9979;0.01821277;0.2183408;0;
-125.1093;0;0;0.0836781;-13.05547;7.461539;-205.2109;-211.2081;0.08316181;-0.04174802;0;
440.5447;0;0;0.08359402;-6.545621;10.6691;351.9653;347.2235;0.01811091;-0.1716408;0;
764.8763;0;0;0.08351003;-7.811842;12.73485;676.1985;670.337;-0.306744;-0.2364356;0;
385.7354;0;0;0.08342612;-2.043216;7.899406;304.9553;298.3501;-0.3714031;-0.2361981;0;
233.924;0;0;0.08334229;-0.1661292;8.025434;151.4759;148.563;-0.1761279;-0.1709934;0;
228.3791;0;0;0.08325855;-5.188828;4.534258;146.0139;144.2908;-0.1109836;-0.1058542;0;
-298.6481;0;0;0.08317489;-4.380307;1.381626;-371.1855;-375.0932;-0.04590473;0.3490236;0;
-626.8704;0;0;0.08309131;-12.81502;12.29821;-698.2729;-699.8029;0.2789781;0.2187382;0;
-304.6522;0;0;0.08300782;-15.28039;13.42456;-383.1668;-383.1335;0.3436651;-0.1063184;0;
-162.7922;0;0;0.08292442;-13.59108;10.32986;-241.4778;-245.2552;-0.1114516;0.2186252;0;
-120.2124;0;0;0.08284109;-14.71552;11.25724;-200.1308;-205.0913;-0.2412743;0.4782749;0;
448.6225;0;0;0.08275785;-11.88769;3.543138;359.0393;355.8329;-0.1760645;0.4777943;0;
750.7072;0;0;0.0826747;-11.9431;1.262158;658.7776;654.5126;-0.3058223;0.2824122;0;
380.0762;0;0;0.08259163;-5.634458;0.6580431;294.5485;289.8504;0.01932172;-0.1076756;0;
242.2634;0;0;0.08250864;-2.949479;-2.423711;157.7586;156.8133;0.2791717;-0.3024695;0;
224.154;0;0;0.08242574;-5.424762;3.406117;140.4837;141.351;0.01902179;-0.1722309;0;
-296.872;0;0;0.08234292;-3.811721;4.206368;-373.0869;-373.22;0.08397003;0.2177463;0;
-611.4779;0;0;0.08226018;-11.5784;-1.759095;-686.1794;-684.7507;0.148853;0.08759279;0;
-299.7698;0;0;0.08217752;-15.31781;-2.49414;-379.5188;-377.1544;-0.1761333;-0.1723646;0;
-163.0997;0;0;0.08209495;-7.80033;-1.352924;-243.2057;-244.9042;-0.305891;0.1526453;0;
-123.5806;0;0;0.08201246;-9.199011;-1.284582;-205.7925;-210.0506;-0.2406163;-0.04241011;0;
443.8834;0;0;0.08193005;-9.32349;-2.62295;352.6961;350.254;-0.1104398;-0.0423675;0;
760.7154;0;0;0.08184773;-7.640158;-3.022212;668.183;664.1816;0.2145078;0.02264242;0;
382.0785;0;0;0.08176549;-24.84649;-0.2729967;297.0728;291.3263;0.2142923;-0.1722824;0;
230.5206;0;0;0.08168333;-29.84536;0.330124;146.6622;145.4817;0.1491096;0.2176948;0;
223.4799;0;0;0.08160125;-17.75796;1.267553;139.5808;141.7748;0.2788945;0.2174761;0;
-301.356;0;0;0.08151926;-16.80308;2.739904;-377.8619;-375.9825;0.408549;-0.1075792;0;
-629.3882;0;0;0.08143735;-17.05364;1.397493;-703.5059;-700.5663;0.4731058;-0.04250373;0;
-310.6656;0;0;0.08135552;-14.9604;2.735747;-389.5814;-386.8947;0.1477937;-0.2373631;0;
-171.9855;0;0;0.08127377;-15.81603;0.6565272;-251.0719;-251.6362;0.1476452;-0.1071899;0;
-137.8923;0;0;0.08119211;-16.46972;0.186987;-217.8362;-220.7113;0.4073662;0.2177546;0;
435.6456;0;0;0.08111052;-5.066318;8.827476;346.7865;344.2891;0.2120548;0.08760108;0;
754.4849;0;0;0.08102903;-1.042739;11.43082;662.7791;659.7844;0.1468744;0.1524804;0;
382.1635;0;0;0.08094761;-12.22748;11.28537;295.9846;292.1808;0.4715636;-0.2374769;0;
239.601;0;0;0.08086627;-12.08147;13.61843;152.4467;151.6453;-0.048649;-0.4971076;0;
219.6201;0;0;0.08078501;-18.09755;10.18862;134.3651;135.376;-0.4384042;0.0231306;0;
-309.2098;0;0;0.08070384;-21.56199;8.57091;-383.6971;-383.062;0.2117098;0.3479441;0;
-622.9288;0;0;0.08062275;-10.62296;14.6575;-694.8425;-692.5214;-0.1133397;0.3475945;0;
-306.3367;0;0;0.08054174;-9.071066;14.04005;-383.4255;-381.419;-0.6329645;0.1523432;0;
-170.8468;0;0;0.08046081;-9.263022;13.22215;-249.7322;-251.9132;-0.04762244;0.2821248;0;
-127.322;0;0;0.08037996;-7.914544;13.81171;-209.189;-213.4918;-0.1775093;0.411776;0;
440.4582;0;0;0.0802992;-3.686057;1.138298;351.7393;348.1281;-0.3072656;-0.1733439;0;
748.6729;0;0;0.08021852;-0.8693138;-1.943939;659.606;654.1868;0.0828472;0.151667;0;
370.298;0;0;0.08013791;-9.107463;-3.616559;287.5049;281.5289;0.01779661;0.4763514;0;
223.6869;0;0;0.08005739;-11.57656;-7.363847;141.2269;139.9421;0.08274607;-0.1088334;0;
223.3997;0;0;0.07997695;-6.407362;3.293595;141.4598;141.9878;-0.1122391;-0.1736914;0;
-294.4396;0;0;0.07989658;-8.275958;4.763788;-368.2387;-368.3359;0.01780836;0.02138519;0;
-619.4802;0;0;0.0798163;-8.201269;5.093915;-691.0812;-689.6166;0.2776598;0.2812331;0;
-298.3939;0;0;0.07973611;-8.326751;7.165268;-375.8575;-374.8315;0.1474462;0.3459179;0;
-162.8495;0;0;0.07965598;-21.64762;4.143836;-240.0479;-242.7086;0.4721347;-0.1092011;0;
-127.7035;0;0;0.07957595;-26.9845;4.407605;-204.262;-207.9821;0.2767583;-0.2390261;0;
444.8871;0;0;0.07949599;-22.67048;1.054151;360.6594;357.6302;-0.04835651;-0.1738186;0;
748.4747;0;0;0.07941611;-25.25967;-0.8224302;663.0198;657.8073;-0.1782426;-0.2386113;0;
372.4113;0;0;0.07933631;-26.37337;0.4510719;293.6014;288.2692;-0.1780635;-0.04346949;0;
241.2903;0;0;0.07925659;-26.61431;-0.0852448;161.935;161.0434;0.1469521;0.1514762;0;
229.5537;0;0;0.07917695;-31.14289;-4.438928;151.2775;151.6362;-0.1130649;-0.1085454;0;
-296.7875;0;0;0.0790974;-31.24533;-6.644782;-366.1769;-367.068;-0.1129513;-0.4982403;0;
-610.6439;0;0;0.07901792;-32.82152;0.1269266;-679.4014;-678.0427;0.1470316;-0.562707;0;
-295.1261;0;0;0.07893852;-33.65919;1.667407;-370.4362;-368.5791;0.2118512;-0.1723376;0;
-165.4571;0;0;0.0788592;-22.84173;-2.018208;-240.8789;-243.0841;0.2766056;0.08770496;0;
-122.6873;0;0;0.07877997;-18.46453;-1.145524;-198.0333;-202.735;-0.3083784;0.02264948;0;
446.1501;0;0;0.07870081;-22.46544;-3.957534;363.1337;358.5616;-0.3080685;-0.04234062;0;
743.3022;0;0;0.07862173;-20.50048;-5.427182;657.6831;652.0536;0.01707775;0.02266927;0;
371.3045;0;0;0.07854273;-18.67122;2.683084;290.7689;284.7702;-0.3727435;0.02264649;0;
242.1212;0;0;0.07846381;-19.52312;4.689754;161.604;159.7343;-0.1774669;0.08759109;0;
233.5695;0;0;0.07838497;-6.911194;0.5322217;154.3826;154.8887;0.4723848;0.2824051;0;
-300.4593;0;0;0.07830621;-1.946781;1.134533;-370.946;-371.8773;0.3419755;0.08721931;0;
-629.1171;0;0;0.07822753;-20.49898;0.1286494;-697.0966;-696.4653;0.01679517;-0.04280302;0;
-303.5233;0;0;0.07814892;-23.82728;-0.2063946;-376.7444;-375.1141;0.146713;0.2171094;0;
-161.1022;0;0;0.07807039;-16.70339;0.3966592;-234.7495;-236.869;0.4064349;0.3468259;0;
-126.5826;0;0;0.07799195;-17.49089;-0.8764151;-201.9675;-205.709;0.2111245;0.1515754;0;
438.0108;0;0;0.07791359;-17.13852;5.286773;353.0191;349.781;-0.1788917;-0.1734136;0;
744.9787;0;0;0.0778353;-16.92023;7.09;657.6361;651.7776;-0.1787119;-0.1732394;0;
372.4171;0;0;0.07775709;-13.55433;-1.82561;291.5965;284.5569;0.01636967;-0.1730653;0;
236.6734;0;0;0.07767896;-10.86139;-3.900246;156.996;153.3993;0.01635322;-0.2378588;0;
225.7534;0;0;0.0776009;-15.33748;-2.020805;147.0931;145.3741;-0.1135979;-0.04271774;0;
-305.4565;0;0;0.07752293;-15.65784;-3.693348;-376.7914;-378.7586;-0.1784511;0.1522272;0;
-621.7404;0;0;0.07744504;-8.40746;-1.613166;-692.6913;-692.0328;-0.1133044;0.02213956;0;
-298.8402;0;0;0.07736722;-7.394634;-0.3389913;-376.404;-374.0594;-0.04822325;-0.4326541;0;
-168.4178;0;0;0.07728948;-8.592652;-9.247137;-245.5913;-247.0597;0.01679255;-0.4971867;0;
-129.8929;0;0;0.07721182;-9.924166;-10.9794;-206.3641;-210.3923;0.1467104;-0.3017851;0;
438.5145;0;0;0.07713424;-7.636042;-7.083359;353.6868;349.9126;-0.1133064;0.08832221;0;
736.4864;0;0;0.07705674;-7.494647;-8.683832;648.7454;643.4133;0.08170945;0.1532008;0;
367.9937;0;0;0.0769793;-17.33373;1.439072;285.9006;280.199;0.3414967;-0.1717899;0;
240.8127;0;0;0.07690196;-18.18697;4.049839;158.6772;156.4795;-0.04865047;-0.2365846;0;
220.2059;0;0;0.07682469;-27.21102;-3.523058;140.1519;138.5187;0.08133309;-0.3662815;0;
-306.3758;0;0;0.07674749;-30.801;-3.720467;-376.6042;-380.1723;0.3411207;-0.1060441;0;
-611.7267;0;0;0.07667038;-19.71799;-7.400668;-679.0735;-681.0764;0.08090861;0.6736705;0;
-293.3343;0;0;0.07659334;-18.96125;-8.397976;-364.7989;-365.5503;-0.04910737;0.2831896;0;
-164.0419;0;0;0.07651637;-5.94775;-11.33666;-234.9974;-237.8095;-0.1789927;-0.2368337;0;
-125.2715;0;0;0.07643949;0.4212391;-11.92812;-197.8423;-200.1518;0.01608917;0.1532083;0;
439.8828;0;0;0.07636268;-2.392223;-11.58122;359.4515;358.4561;0.5358117;-0.04184766;0;
736.2292;0;0;0.07628595;2.164532;-12.57433;655.4413;651.386;0.3403713;-0.4316097;0;
361.4899;0;0;0.0762093;-4.602797;0.2986652;287.8422;282.604;-0.04977473;0.02359541;0;
233.2534;0;0;0.07613273;-5.468829;3.446563;160.117;158.1325;0.2101447;0.3484084;0;
225.9601;0;0;0.07605623;0.8333063;5.921346;153.2095;151.6642;0.1449662;0.2181237;0;
-303.5009;0;0;0.07597981;1.703125;9.532352;-368.3073;-371.1629;-0.2449836;0.2179045;0;
-621.9732;0;0;0.07590346;-0.9105545;1.752998;-685.4027;-686.5687;-0.1148027;0.2176855;0;
-300.9468;0;0;0.0758272;-2.115088;1.617271;-369.4974;-370.225;0.01524732;0.08753212;0;
-178.9556;0;0;0.075751;4.785913;-4.010798;-246.3129;-250.538;-0.2446374;0.2823462;0;
-145.9797;0;0;0.07567488;5.518038;-6.685963;-213.3943;-219.052;-0.2443915;0.4119972;0;
440.1224;0;0;0.07559885;3.904903;-4.00005;364.7171;361.0017;-0.439048;0.02177913;0;
746.5884;0;0;0.07552288;3.967353;-5.33569;669.3848;665.1109;-0.1787375;-0.1081774;0;
369.7148;0;0;0.075447;-1.796434;0.4970651;297.7737;293.1917;0.2762135;0.216768;0;
239.4711;0;0;0.07537119;-4.272875;2.104156;166.1655;165.3362;0.08103393;0.1515828;0;
216.0546;0;0;0.07529546;-5.140214;4.714254;143.3224;143.1811;0.1459198;-0.04347152;0;
-311.5849;0;0;0.0752198;-6.273149;7.589783;-374.6863;-376.7639;0.08080589;-0.2383299;0;
-617.9302;0;0;0.07514422;-12.36241;4.969823;-677.9697;-678.7958;-0.04920999;-0.6278944;0;
-307.2151;0;0;0.07506871;-15.16303;6.505436;-373.0039;-372.9547;0.4056109;-0.1724921;0;
-177.3466;0;0;0.07499328;-6.440259;3.283841;-243.6315;-245.7062;0.3402359;0.4123873;0;
-128.3804;0;0;0.07491793;-4.156612;2.476746;-195.9105;-198.2331;-0.1148773;0.02216884;0;
443.8985;0;0;0.07484265;-6.630682;7.430872;366.1289;364.9956;-0.1797292;-0.1727555;0;
741.8026;0;0;0.07476745;-5.016429;7.758321;661.0501;657.8564;-0.04961395;-0.3025165;0;
358.6869;0;0;0.07469232;-3.001657;11.97033;284.7622;280.5098;-0.0495641;-0.2372452;0;
222.1449;0;0;0.07461727;-2.195333;14.36956;148.9817;148.7315;-0.04951429;0.2177645;0;
216.4869;0;0;0.0745423;2.898063;11.34101;144.3342;145.771;0.1454375;-0.04232365;0;
-311.4029;0;0;0.0744674;5.2387;12.46833;-373.8004;-374.8014;0.080324;-0.2371831;0;
-626.3065;0;0;0.07439257;0.009499541;9.91045;-685.6429;-685.5184;0.210178;-0.1070101;0;
-300.0284;0;0;0.07431782;-0.3253027;8.159058;-365.7394;-364.4282;0.3399015;-0.366772;0;
-172.6658;0;0;0.07424314;-0.4596737;15.58572;-238.5607;-241.4361;-0.2451461;-0.2364688;0;
-133.6993;0;0;0.07416855;-1.262519;16.30687;-200.0902;-204.2746;-0.1799325;-0.1062965;0;
440.3965;0;0;0.07409402;0.8148545;12.74051;365.0769;362.8332;0.2100524;0.08871237;0;
728.434;0;0;0.07401957;1.618319;11.92392;651.4409;647.7003;-0.05002805;0.4784273;0;
353.5152;0;0;0.07394519;-1.665837;10.17038;282.6589;278.6096;0.1449242;-0.04179219;0;
232.0333;0;0;0.0738709;-3.137055;9.624296;161.1233;160.2641;0.209746;-0.1716849;0;
204.4389;0;0;0.07379667;5.640007;3.854216;134.2874;134.3035;0.01463318;0.4131937;0;
-325.9375;0;0;0.07372252;7.51035;1.974943;-387.6478;-389.6307;0.3394552;0.08794183;0;
-616.7136;0;0;0.07364845;0.6029512;3.647532;-677.9871;-679.8431;0.4040814;-0.04208123;0;
-303.3137;0;0;0.07357444;-1.406411;2.907054;-371.772;-372.1268;0.2087734;0.08789575;0;
-190.9402;0;0;0.07350051;0.8721783;9.066319;-257.7056;-259.6218;0.5334003;-0.1070946;0;
-139.7115;0;0;0.07342666;-0.2677739;11.73653;-205.7851;-208.5739;0.467897;-0.2369217;0;
439.7002;0;0;0.07335288;-5.960932;10.45206;365.0099;363.3483;0.01265549;-0.1067489;0;
731.549;0;0;0.07327917;-7.361462;12.25009;656.2465;652.8375;0.3374795;-0.04167433;0;
355.2527;0;0;0.07320555;-13.91815;14.11319;287.0224;282.4923;0.467075;-0.3015018;0;
228.3968;0;0;0.07313199;-16.24869;15.03677;159.423;158.3333;0.07680169;-0.4311336;0;
218.5471;0;0;0.0730585;-13.95421;17.36606;149.7051;149.9283;0.01175718;-0.365733;0;
-318.3402;0;0;0.07298509;-14.74447;18.35335;-378.305;-378.4568;0.07671271;-0.3003982;0;
-638.7966;0;0;0.07291175;-6.490633;14.78482;-697.3268;-695.2296;0.07663563;-0.1701616;0;
-303.6979;0;0;0.07283849;-4.005866;13.49741;-369.2282;-367.6329;0.2064933;-0.04005599;0;
-173.2706;0;0;0.07276531;-2.729043;14.62243;-238.7351;-241.3892;0.1413185;0.0249516;0;
-150.5453;0;0;0.07269219;-0.8512663;14.07188;-216.8811;-220.5321;0.2061438;-0.1699755;0;
430.8763;0;0;0.07261915;-2.05586;11.44553;355.2368;352.7765;-0.1189;-0.1048374;0;
744.0981;0;0;0.07254618;-1.517931;10.69721;667.5977;663.5781;-0.2487152;0.09017002;0;
370.0381;0;0;0.07247329;-7.277182;8.610115;301.6105;296.7829;0.2063061;-0.1048226;0;
243.4797;0;0;0.07240047;-8.87746;7.194822;174.6836;173.8588;-0.1837053;0.02521738;0;
217.6854;0;0;0.07232772;-12.61958;10.40265;149.2708;149.8836;-0.248488;-0.2996447;0;
-322.6993;0;0;0.07225505;-15.21887;9.52142;-381.55;-382.9368;0.5963371;-0.4942456;0;
-623.5986;0;0;0.07218244;-13.06013;13.59781;-680.2037;-679.7776;0.4658032;0.1559244;0;
-304.3197;0;0;0.07210991;-14.78832;15.32558;-366.4276;-364.7526;0.07553112;0.02583307;0;
-183.0123;0;0;0.07203745;-7.070297;6.066783;-244.9328;-246.9451;0.07545522;-0.1690949;0;
-126.4817;0;0;0.07196507;-4.786017;4.252148;-189.7768;-193.5987;0.0753794;0.1559117;0;
446.4825;0;0;0.07189276;-9.001742;4.180893;374.3179;371.6868;0.2052383;0.09078772;0;
728.0171;0;0;0.07182052;-7.385108;2.703189;655.1754;651.1727;0.07509743;-0.1042055;0;
359.5954;0;0;0.07174835;-13.33856;3.30332;292.8239;288.0756;-0.0549127;-0.1041008;0;
233.2349;0;0;0.07167626;-14.39688;3.366983;165.6559;163.9733;0.07507715;0.02593845;0;
209.6373;0;0;0.07160424;-8.957408;0.9522146;143.5005;143.6312;0.2699037;-0.1689896;0;
-323.1182;0;0;0.07153229;-7.273468;-1.05823;-381.8172;-381.6866;0.07473052;-0.3637219;0;
-632.2629;0;0;0.07146042;-8.337887;9.793824;-690.1533;-689.1484;-0.2501813;-0.103487;0;
-304.4796;0;0;0.07138862;-8.329509;12.32933;-368.2463;-366.4303;0.2048415;-0.0384157;0;
-179.2989;0;0;0.07131688;2.529851;5.216877;-242.8766;-243.6861;0.07470099;0.1565249;0;
-142.0749;0;0;0.07124522;5.809839;5.747499;-204.964;-208.2089;-0.5750475;0.5461717;0;
438.5886;0;0;0.07117364;3.99534;-1.894086;366.08;364.0877;-0.3146003;0.4156882;0;
732.5624;0;0;0.07110212;6.06743;-5.308313;655.0667;651.5771;0.01055251;0.1554012;0;
353.0792;0;0;0.07103068;1.305912;1.060277;280.7838;274.8615;-0.2493275;0.3501471;0;
230.9731;0;0;0.07095931;1.03618;0.8582633;159.1252;155.77;-0.1191423;0.4797299;0;
207.1904;0;0;0.07088801;-2.447486;-0.147343;136.9763;135.4362;-0.0540552;0.1544112;0;
-327.8115;0;0;0.07081678;-4.58848;0.1877197;-388.8346;-390.8105;-0.1189682;0.2841907;0;
-622.3339;0;0;0.07074562;-0.6991038;-0.75023;-681.1718;-681.334;0.1410207;0.4138398;0;
-306.6794;0;0;0.07067453;-1.971199;-1.218357;-370.5181;-370.0556;0.4007483;0.1535546;0;
-189.6174;0;0;0.07060352;7.475253;2.26598;-252.5174;-255.3037;-0.3792624;-0.0415017;0;
-133.3301;0;0;0.07053258;11.95572;3.33543;-196.6042;-200.1373;-0.5737833;0.153442;0;
441.2651;0;0;0.07046171;-3.327913;-1.222761;368.9342;366.5291;0.336336;0.4131572;0;
723.8669;0;0;0.0703909;-6.607099;-2.025205;648.5478;643.1465;0.4009653;0.02293802;0;
354.8872;0;0;0.07032017;3.648294;-2.826966;284.5787;277.4338;0.1406931;-0.3019217;0;
237.7768;0;0;0.07024952;3.443558;-4.230767;167.414;163.4622;0.01061704;-0.041749;0;
219.9217;0;0;0.07017893;1.497715;-0.810508;152.8156;150.4294;0.07557371;0.2181623;0;
-319.903;0;0;0.07010841;1.964724;0.3290162;-377.0092;-380.2051;0.4653018;0.2829105;0;
-635.2354;0;0;0.07003797;-9.155684;-4.025083;-691.9094;-692.8532;0.3348996;-0.04221053;0;
-309.8229;0;0;0.0699676;-14.0366;-3.887073;-372.1246;-371.6931;0.2046284;-0.2370701;0;
-182.263;0;0;0.06989729;-4.510681;-2.275577;-244.3147;-246.5074;0.3343575;-0.04192991;0;
-140.6007;0;0;0.06982706;-4.306054;-1.938375;-203.4022;-206.6546;0.009184811;0.02307957;0;
437.1877;0;0;0.0697569;-11.80284;2.216392;367.7652;365.5156;-0.1207591;0.02305637;0;
728.4767;0;0;0.0696868;-12.9974;3.486841;658.3744;654.8152;0.2691663;0.08800057;0;
352.3085;0;0;0.06961678;-14.9931;6.631413;286.337;282.8439;0.3338632;0.08791214;0;
230.7029;0;0;0.06954683;-16.92042;8.701098;163.0486;162.4325;-0.1212437;-0.2370129;0;
209.1069;0;0;0.06947695;-13.28707;4.941433;141.6455;141.967;-0.3160239;-0.5616115;0;
-328.2083;0;0;0.06940714;-13.07265;4.869485;-387.2311;-387.472;0.009130363;-0.1712431;0;
-624.4169;0;0;0.0693374;-13.99752;3.926831;-680.5693;-679.061;0.07408853;0.2837003;0;
-300.7019;0;0;0.06926773;-13.71503;2.717315;-360.7959;-358.7268;0.1389814;0.08851327;0;
-182.9588;0;0;0.06919812;-16.44792;3.116482;-242.5551;-243.674;0.3987111;-0.171445;0;
-125.7411;0;0;0.0691286;-17.83791;2.108607;-188.2136;-189.2689;0.2683758;-0.0413381;0;
449.0963;0;0;0.06905913;-14.40374;2.240454;377.004;377.8238;-0.1216979;0.02367078;0;
719.9462;0;0;0.06898975;-13.78605;1.568373;647.0518;645.4969;0.008359086;-0.171255;0;
347.0974;0;0;0.06892043;-18.86339;-0.8445881;280.9603;278.2826;0.07331803;-0.04114827;0;
229.62;0;0;0.06885117;-19.31295;-2.920088;163.8617;164.9973;-0.186625;0.02386042;0;
202.7151;0;0;0.06878199;-19.15982;-0.3049419;137.2728;139.0944;-0.3163722;-0.4959023;0;
-327.4721;0;0;0.06871288;-18.67108;-0.3716184;-385.1026;-385.4692;-0.251087;-0.3654693;0;
-622.8069;0;0;0.06864383;-17.44687;-7.538175;-677.4435;-676.3105;-0.1209;-0.2351674;0;
-300.2805;0;0;0.06857486;-16.29124;-9.071208;-359.7346;-357.4784;-0.2507132;-0.4298331;0;
-177.7277;0;0;0.06850596;-10.84889;-11.20555;-236.8723;-237.9915;-0.575298;0.09033751;0;
-132.9465;0;0;0.06843712;-8.292391;-12.73477;-191.9067;-194.1493;-0.1849158;0.2851488;0;
443.0226;0;0;0.06836835;-5.136227;-10.04278;375.501;373.5105;0.78978;0.1549276;0;
727.4967;0;0;0.06829966;-3.054961;-9.56381;657.4193;652.6822;0.7240192;0.2197392;0;
345.8947;0;0;0.06823103;-0.5062958;-5.803278;280.2604;275.9029;0.1385856;-0.1702856;0;
225.4825;0;0;0.06816247;1.302874;-3.386061;159.227;158.2472;-0.121423;0.1547222;0;
206.7027;0;0;0.06809398;-4.726655;-3.918523;141.3884;140.6595;-0.316203;0.5443708;0;
-326.5495;0;0;0.06802556;-6.396845;-3.244756;-383.6148;-384.9053;0.008951393;0.0890524;0;
-620.9482;0;0;0.06795721;-7.193725;3.054778;-674.8953;-673.9355;0.3987465;0.08896292;0;
-295.6125;0;0;0.06788892;-9.397299;5.663921;-354.0031;-352.1698;0.3333784;0.4137102;0;
-175.8131;0;0;0.06782071;-8.449851;-1.910597;-233.5827;-235.4369;0.1381414;-0.1064442;0;
-122.3507;0;0;0.06775256;-8.576059;-3.315319;-181.4991;-184.2884;-0.2518014;-0.4961413;0;
452.4209;0;0;0.06768449;-14.19352;-2.240261;382.8372;381.6749;-0.4464504;-0.1708061;0;
725.9536;0;0;0.06761648;-16.59016;-3.979566;654.8157;650.7184;0.1387042;-0.2356018;0;
347.8513;0;0;0.06754854;-7.799576;-2.635909;283.594;278.0641;0.5933363;-0.3652997;0;
229.7485;0;0;0.06748066;-5.648285;-2.901192;165.0559;162.4676;-0.05693334;-0.04009597;0;
215.0874;0;0;0.06741285;-10.80017;-6.448372;150.8971;148.6238;-0.1868108;-0.105023;0;
-320.2348;0;0;0.06734512;-9.918665;-7.245566;-375.6774;-378.6356;0.6579522;-0.03995015;0;
-628.1956;0;0;0.06727745;-8.367481;-8.176047;-681.6459;-681.8525;0.3974218;-0.1048774;0;
-305.1014;0;0;0.06720985;-6.617761;-9.239558;-363.9953;-362.765;-0.3176183;-0.5595434;0;
-188.6657;0;0;0.06714232;-7.079626;-6.684923;-245.8763;-247.5832;-0.05742973;-0.0392424;0;
-136.8146;0;0;0.06707485;-6.000786;-7.080104;-193.8427;-195.8603;0.007595321;0.4805358;0;
450.7151;0;0;0.06700745;-1.306683;-5.867419;385.9357;385.232;-0.317249;0.2201836;0;
728.4349;0;0;0.06694012;-0.7021576;-5.928506;661.8465;659.0821;0.007906462;0.09002765;0;
348.706;0;0;0.06687286;7.603943;-6.927171;285.6203;281.2344;0.2677679;0.1549045;0;
232.9761;0;0;0.06680567;10.1419;-6.317486;168.0797;166.3844;-0.1872726;0.08978154;0;
205.7556;0;0;0.06673855;4.639351;-13.41109;140.4871;140.1678;-0.122117;-0.3001128;0;
-334.867;0;0;0.06667148;3.964128;-14.53632;-393.5107;-395.3914;0.5926464;-0.03994182;0;
-624.6972;0;0;0.06660449;-0.3257863;-14.85663;-681.283;-681.1003;0.5270836;0.6747391;0;
-293.923;0;0;0.06653757;-1.799327;-15.98041;-354.8246;-352.9555;-0.05815211;0.08935503;0;
-181.6214;0;0;0.06647071;-12.64851;-9.065232;-240.5254;-241.2193;0.1368084;-0.3655062;0;
-133.1507;0;0;0.06640392;-18.66402;-7.917414;-191.0584;-192.0016;0.07170354;0.2195672;0;
446.6917;0;0;0.0663372;-7.660554;-1.680168;380.6588;380.6536;-0.2532052;0.1543792;0;
717.0443;0;0;0.06627054;-8.054998;1.804511;648.9537;646.7622;-0.3179182;0.02428941;0;
341.9494;0;0;0.06620395;-6.037173;-2.819003;278.1127;275.4861;-0.6424354;-0.04070234;0;
235.3467;0;0;0.06613743;-2.749553;-2.146341;170.5122;170.5119;-0.1870185;-0.1705961;0;
205.8125;0;0;0.06607097;-15.13802;-3.88574;141.0431;141.9174;0.5278102;0.154412;0;
-331.187;0;0;0.06600459;-18.13692;-4.216751;-388.6449;-388.771;0.2674105;0.08928952;0;
-616.773;0;0;0.06593826;-4.186248;-7.628521;-671.4871;-669.5516;-0.1226623;-0.2356369;0;
-302.3735;0;0;0.06587201;-0.6994174;-9.496378;-362.0925;-358.7222;-0.1875064;-0.1704328;0;
-192;0;0;0.06580582;-10.07584;-4.329272;-251.9089;-252.2901;0.2024861;-0.1052942;0;
-126.5274;0;0;0.0657397;-9.931991;-3.990008;-186.5635;-188.3811;0.5271193;-0.04022108;0;
455.7447;0;0;0.06567364;-9.587218;-1.708579;389.2097;389.0805;0.2667203;0.08975404;0;
723.0896;0;0;0.06560765;-12.45797;-0.2333594;656.434;653.9313;-0.05838438;0.0246965;0;
343.4285;0;0;0.06554173;3.563099;-0.166142;282.4621;278.65;0.07160897;-0.1702303;0;
230.9523;0;0;0.06547587;7.780054;1.374632;169.5474;168.3004;0.1365044;-0.494896;0;
206.4824;0;0;0.06541009;-4.28518;-2.444654;146.576;145.1428;0.2013345;-0.559366;0;
-334.8905;0;0;0.06534436;-3.27552;-3.112027;-385.6788;-388.4849;0.2011322;-0.363902;0;
-629.7806;0;0;0.0652787;-12.85042;-1.166517;-678.1441;-678.8859;0.2009301;-0.2336017;0;
-299.4386;0;0;0.06521311;-16.78963;-1.768069;-353.9378;-353.6794;0.1357609;-0.1683996;0;
-180.8222;0;0;0.06514759;-7.663075;1.113852;-236.5785;-239.4437;0.005689801;-0.2981651;0;
-132.6021;0;0;0.06508213;-8.660729;1.782562;-189.8641;-194.663;0.07065143;-0.4278001;0;
449.4886;0;0;0.06501672;-0.5467265;-0.6306151;385.1627;380.9933;0.005613093;-0.1025336;0;
726.6474;0;0;0.0649514;2.735376;-1.098862;662.6985;656.9091;0.0705748;0.1574388;0;
342.6099;0;0;0.06488614;-3.897828;-0.896809;283.9102;278.1891;0.3953406;0.5470847;0;
237.1935;0;0;0.06482094;-3.76019;-1.16384;176.6162;175.0238;0.2000413;0.2866656;0;
216.3405;0;0;0.0647558;-6.904243;-2.971087;156.3863;155.8575;-0.1899637;-0.2333612;0;
-345.2822;0;0;0.06469074;-9.442902;-3.503965;-397.1801;-399.3951;0.1350639;0.02674265;0;
-642.723;0;0;0.06462573;-8.094242;-4.170274;-693.5694;-695.0325;0.3298302;0.2865852;0;
-310.3065;0;0;0.0645608;-9.760073;-4.434015;-368.0358;-369.4974;-0.0603053;0.2213299;0;
-197.3013;0;0;0.06449593;-12.02744;-4.094646;-255.7847;-260.056;0.00472264;-0.03876192;0;
-126.9509;0;0;0.06443112;-12.55122;-4.224497;-185.3754;-190.517;0.1346526;0.09121173;0;
457.0707;0;0;0.06436639;-18.23203;-0.8712276;390.7089;387.3216;0.1345173;0.4159568;0;
714.0446;0;0;0.06430171;-20.02238;0.4693065;646.7499;642.1166;0.3292841;-0.03923257;0;
344.7623;0;0;0.0642371;-14.64362;0.5358179;284.032;278.9662;0.2639859;-0.4939645;0;
234.2838;0;0;0.06417255;-13.42346;2.14287;173.0522;172.6766;0.06881865;-0.5584356;0;
193.5687;0;0;0.06410807;-13.00783;-0.9404982;133.1483;135.4593;0.003782162;-0.3629724;0;
-341.8568;0;0;0.06404366;-12.12411;-1.743226;-394.9701;-394.3481;0.3935824;-0.1027383;0;
-625.3081;0;0;0.06397931;-7.62492;2.545311;-677.9932;-677.6218;0.3931869;0.1572343;0;
-302.5917;0;0;0.06391501;-5.808598;2.676719;-361.7831;-361.2871;0.1978898;0.0271416;0;
-186.8457;0;0;0.06385079;-7.677795;2.138166;-247.3519;-250.1672;0.7174298;-0.232755;0;
-127.5002;0;0;0.06378663;-7.603707;1.73412;-189.5698;-192.5697;0.7167088;0.09231556;0;
455.5849;0;0;0.06372254;-6.925506;0.0578044;386.5812;385.6458;0.06631529;0.1571901;0;
722.4927;0;0;0.06365851;-5.310956;-1.214929;655.7448;651.7493;-0.3235554;0.0270975;0;
334.2741;0;0;0.06359455;-18.83593;-4.093853;275.2143;271.1604;-0.7130343;0.09203763;0;
219.7456;0;0;0.06353065;-24.51043;-6.233193;159.4333;160.0062;-0.4524485;0.2218798;0;
194.7247;0;0;0.06346681;-6.937005;-6.896637;133.4736;135.1703;0.06774484;0.09172221;0;
-344.0752;0;0;0.06340304;-5.255095;-7.827468;-399.3927;-398.0101;0.1326441;-0.1682393;0;
-629.7732;0;0;0.06333933;-10.47473;-11.63751;-683.4734;-680.468;0.4573475;-0.2330376;0;
-308.489;0;0;0.06327569;-9.794618;-12.56358;-365.8835;-362.4437;0.3919207;-0.3627382;0;
-199.0464;0;0;0.06321211;-15.61193;-12.81888;-256.6331;-255.758;0.001722801;-0.1674717;0;
-133.4418;0;0;0.0631486;-18.20821;-13.6098;-192.1575;-191.6581;0.1316558;0.1575333;0;
452.9601;0;0;0.06308514;-16.64967;-7.29985;386.8697;389.1176;0.1964908;-0.03752699;0;
713.6237;0;0;0.06302176;-18.03946;-5.484098;647.4123;647.4716;0.06635869;-0.2973586;0;
336.221;0;0;0.06295843;-20.43223;-3.603065;277.0101;276.1324;0.3261614;-0.2320925;0;
234.4341;0;0;0.06289517;-20.81384;-0.3174032;175.4702;178.4039;0.2608663;0.1579448;0;
192.657;0;0;0.06283197;-23.53959;-8.354792;134.3769;137.62;-0.3241019;0.09281871;0;
-353.8245;0;0;0.06276884;-23.31487;-10.15494;-404.8621;-404.6832;-0.3237762;-0.362046;0;
-621.2094;0;0;0.06270577;-24.29582;-2.106903;-671.3836;-670.8301;0.2612552;-0.4266495;0;
-293.3747;0;0;0.06264276;-25.34314;-1.635905;-348.8708;-347.0685;0.131058;-0.3612535;0;
-189.382;0;0;0.06257982;-10.85033;-2.036159;-243.0108;-243.9589;0.0009916135;-0.2959231;0;
-133.7821;0;0;0.06251694;-5.614519;-0.8955252;-188.294;-191.2401;0.0009906172;-0.2306585;0;
447.2478;0;0;0.06245412;-10.02951;-4.377616;383.1081;381.7891;-0.5187491;-0.100492;0;
720.161;0;0;0.06239136;-6.268384;-3.904337;656.3981;654.4557;-0.6481625;0.02954365;0;
338.1291;0;0;0.06232867;-9.276196;-7.651336;282.0514;278.7366;-0.3226746;-0.1004207;0;
231.093;0;0;0.06226604;-8.329846;-9.98805;174.8842;174.0091;0.002486365;-0.1003198;0;
209.3091;0;0;0.06220348;-5.038947;0.3371133;154.2188;153.407;0.1973859;0.02971567;0;
-350.4325;0;0;0.06214098;-5.971889;1.475484;-397.5339;-400.5938;0.1322202;0.2245878;0;
-636.9987;0;0;0.06207854;6.761113;3.148575;-683.9279;-685.2355;0.002152677;0.0944275;0;
-296.7793;0;0;0.06201616;10.23694;6.025556;-350.8452;-351.152;0.1320852;-0.4254061;0;
-189.6598;0;0;0.06195385;3.863645;-4.094678;-243.6714;-246.2267;0.2618872;-0.295044;0;
-121.8782;0;0;0.0618916;4.797768;-5.430222;-175.8355;-179.3253;-0.12818;-0.2297802;0;
464.762;0;0;0.06182941;-2.842863;-5.156834;402.4256;399.0017;-0.1280512;-0.359484;0;
715.981;0;0;0.06176728;-5.720395;-7.161018;652.4579;646.7886;0.002012111;0.2905506;0;
343.6983;0;0;0.06170522;-3.571193;-2.063242;285.6738;279.1357;-0.1279246;0.160324;0;
241.2168;0;0;0.06164321;-4.974124;-2.128152;182.0012;178.1558;0.002138628;-0.09970646;0;
193.8107;0;0;0.06158128;-3.964748;1.022062;136.3412;133.6865;0.3269732;0.2252305;0;
-347.8619;0;0;0.0615194;-3.960764;2.96354;-395.7784;-399.0551;0.1317426;-0.09983258;0;
-618.3138;0;0;0.06145758;-2.482916;-2.063035;-663.9957;-665.1451;-0.3881285;-0.2296669;0;
-297.4784;0;0;0.06139583;-1.944558;-1.926996;-348.6117;-348.4482;-0.2578038;0.09540054;0;
-189.2338;0;0;0.06133414;0.06615224;-4.939292;-241.0028;-244.0254;0.2621939;0.2252394;0;
-124.4511;0;0;0.06127251;0.8030201;-6.742746;-178.7918;-183.9977;0.06702849;-0.09982368;0;
459.3181;0;0;0.06121094;0.7358403;-3.185998;395.7242;392.0227;-0.3228429;-0.1646907;0;
725.0977;0;0;0.06114944;1.873201;-3.785643;661.0055;656.0584;-0.1925838;0.03037679;0;
336.5016;0;0;0.061088;-4.692765;-1.035661;278.7831;272.0294;0.06747904;-0.4893925;0;
220.3467;0;0;0.06102661;-6.02722;0.7069361;161.4993;157.8758;0.002443891;-0.6188354;0;
195.0754;0;0;0.06096529;-6.557027;-4.786252;136.9118;134.9161;0.1323761;0.2263619;0;
-345.474;0;0;0.06090404;-8.894963;-4.71446;-393.8341;-396.9521;0.1972104;0.4210364;0;
-621.8628;0;0;0.06084284;-0.3795595;-4.374809;-668.1752;-668.2292;0.06707761;-0.1640927;0;
-287.5307;0;0;0.0607817;1.630554;-4.504379;-339.3563;-337.5362;0.1969449;-0.1639278;0;
-188.1041;0;0;0.06072063;-3.327577;0.05486459;-237.8787;-239.6211;0.391649;0.09610626;0;
-128.3201;0;0;0.06065962;-3.592654;1.394468;-178.1695;-180.2225;0.06641878;0.160977;0;
463.449;0;0;0.06059867;-0.7086557;2.933674;404.4667;404.6022;-0.1935173;-0.1640214;0;
714.357;0;0;0.06053778;0.5648541;3.667539;653.8723;651.0091;0.06654649;-0.228824;0;
333.1429;0;0;0.06047695;-5.665004;5.338305;277.2792;273.0446;0.4562837;0.2911447;0;
232.5461;0;0;0.06041618;-6.798388;5.935788;174.6145;174.0698;0.1309885;0.03098278;0;
190.3335;0;0;0.06035547;-4.648103;2.982696;132.9599;133.7276;-0.3888819;-0.2938851;0;
-349.8363;0;0;0.06029483;-5.245669;2.711767;-399.0938;-399.0765;-0.1286217;0.0962143;0;
-618.2247;0;0;0.06023424;-1.556703;-5.730685;-667.1828;-665.6038;0.2613116;0.2260523;0;
-295.0157;0;0;0.06017372;-0.7518314;-10.21266;-349.8591;-348.4691;0.1311143;0.4207272;0;
-189.647;0;0;0.06011326;0.7901416;-3.370262;-242.3739;-245.1082;0.001047872;0.2254024;0;
-125.4886;0;0;0.06005286;2.463311;-4.37162;-178.4124;-182.1435;-0.06392052;-0.2295955;0;
457.1572;0;0;0.05999251;-2.093516;-7.046422;395.2911;393.063;-0.193791;0.2254066;0;
715.4427;0;0;0.05993223;-2.760997;-7.642189;652.3895;648.477;0.06627311;0.09524546;0;
330.2296;0;0;0.05987201;-0.7494671;-10.24684;273.7989;269.3906;-0.2586302;-0.5545236;0;
231.135;0;0;0.05981185;-0.2128506;-10.63845;174.636;173.8553;-0.7781091;-0.03422775;0;
208.8513;0;0;0.05975175;-3.025676;-12.63712;152.0343;153.3158;-0.1276538;0.420578;0;
-348.7034;0;0;0.05969172;-3.692221;-12.82537;-397.3424;-396.9992;0.4571806;0.6150575;0;
-636.2083;0;0;0.05963174;1.871194;-11.27188;-681.6125;-680.9573;-0.1279849;0.6794068;0;
-300.4875;0;0;0.05957182;3.744348;-10.18895;-350.9685;-350.3764;-0.452693;0.09401805;0;
-193.1768;0;0;0.05951196;1.128618;-6.159734;-243.3573;-245.8892;0.2624026;0.02895623;0;
-133.0129;0;0;0.05945216;0.657993;-3.139434;-184.0799;-188.0461;0.1971716;0.09389449;0;
455.3876;0;0;0.05939243;6.418108;-1.394724;395.7512;392.2888;-0.1928305;0.2887022;0;
713.6125;0;0;0.05933275;7.014872;0.8839754;652.5367;645.9543;0.1321999;0.4183468;0;
331.6496;0;0;0.05927313;5.735025;6.576514;275.5703;267.6201;0.4569038;0.3529591;0;
227.9308;0;0;0.05921357;6.265126;9.45005;170.0338;166.7143;0.32651;0.4175718;0;
188.6589;0;0;0.05915407;-3.855226;8.034036;132.0694;131.1271;0.1962472;-0.1675539;0;
-353.5083;0;0;0.05909463;-7.937189;8.025963;-400.5457;-401.8618;0.06611537;-0.4272549;0;
-623.6421;0;0;0.05903526;-4.446589;9.290452;-668.8831;-669.0735;0.001081594;0.1578805;0;
-300.4901;0;0;0.05897594;-6.317155;8.41046;-351.7451;-352.1227;-0.06388684;-0.03718021;0;
-195.6782;0;0;0.05891668;-5.038986;5.722692;-247.9436;-251.0695;-0.2587247;-0.1670775;0;
-125.2668;0;0;0.05885748;-3.291635;4.578232;-180.6032;-183.9758;-0.2584647;0.2878618;0;
462.0014;0;0;0.05879834;-9.317523;-2.593297;398.0375;396.1675;-0.1282703;0.2226052;0;
710.5995;0;0;0.05873926;-8.436529;-5.403975;647.6993;643.8323;-0.1931088;0.09244681;0;
323.6421;0;0;0.05868024;-6.820461;-5.465528;267.9891;263.2513;-0.06298004;0.2222886;0;
222.9299;0;0;0.05862127;-7.484169;-7.804317;165.896;164.5988;0.002050581;0.09213056;0;
189.5975;0;0;0.05856237;8.330834;-1.835116;133.4955;133.6364;-0.3227882;0.02707063;0;
-355.8189;0;0;0.05850353;12.20821;-1.09646;-401.8072;-402.416;-0.3224638;-0.1028913;0;
-628.2618;0;0;0.05844474;14.27204;-0.1577189;-673.5791;-671.9385;0.1326316;-0.2327226;0;
-299.8578;0;0;0.05838602;19.95113;1.717962;-351.6888;-349.1128;0.262433;-0.2324887;0;
-195.4838;0;0;0.05832735;-0.1633081;-1.967704;-246.5131;-248.1251;-0.1926021;-0.1672878;0;
-125.3225;0;0;0.05826874;-4.717495;-0.9611047;-178.7368;-181.1593;0.06746078;-0.1021523;0;
467.0682;0;0;0.05821019;4.463296;-4.577096;404.962;404.8533;0.3922297;0.09285235;0;
719.1594;0;0;0.0581517;2.783872;-5.10836;658.4274;656.3199;0.2619009;0.4825631;0;
330.3194;0;0;0.05809327;4.790807;0.992098;277.0197;274.1022;0.1966704;0.5470456;0;
227.9763;0;0;0.0580349;4.853342;3.402487;173.0435;173.6272;-0.1283639;0.0917245;0;
191.5779;0;0;0.05797659;6.7235;4.068775;135.9507;138.033;0.001699744;-0.03830236;0;
-357.0264;0;0;0.05791833;8.592754;5.136414;-406.7257;-405.2077;0.06666538;-0.1681986;0;
-623.0963;0;0;0.05786014;3.090787;16.51811;-673.7451;-670.7919;-0.06333629;-0.1030622;0;
-294.7599;0;0;0.057802;2.351724;21.12321;-350.2928;-346.2181;0.3265314;0.1569107;0;
-197.8248;0;0;0.05774392;5.497192;15.14063;-250.3659;-249.2314;0.1962686;0.2866878;0;
-123.6007;0;0;0.0576859;5.826461;15.46033;-175.7142;-176.4549;-0.1937326;0.2214323;0;
465.3525;0;0;0.05762793;4.011946;17.25333;404.6707;405.1801;-0.1285706;-0.1036269;0;
712.8853;0;0;0.05757003;2.936188;17.50393;651.015;649.525;-0.1934088;-0.4933268;0;
338.4193;0;0;0.05751218;8.425593;12.93162;282.4833;279.4955;0.001687569;-0.1679944;0;
237.5673;0;0;0.05745439;10.22579;11.98087;181.625;181.2015;0.5214246;0.02707643;0;
195.537;0;0;0.05739666;3.517709;10.36124;140.7755;140.3523;0.4559333;-0.03791812;0;
-354.2581;0;0;0.05733899;2.643518;8.274479;-401.9683;-403.3904;0.3905079;0.157022;0;
-631.8875;0;0;0.05728137;4.047381;17.50957;-678.3002;-677.722;0.1952135;0.0918969;0;
-299.5443;0;0;0.05722382;3.30638;19.76927;-350.1583;-349.3932;-0.06485206;0.09180456;0;
-196.9822;0;0;0.05716632;4.843299;17.20418;-246.2335;-249.4672;-0.0647869;-0.1031897;0;
-132.5041;0;0;0.05710888;4.570989;18.39258;-183.1427;-187.6225;-0.2596238;-0.2979881;0;
465.4536;0;0;0.05705149;6.575152;17.30237;406.3701;402.8943;-0.1943956;0.2220501;0;
719.5454;0;0;0.05699417;7.841343;17.218;659.8342;654.4878;0.1956038;-0.03804239;0;
329.7055;0;0;0.0569369;1.738871;17.13372;275.2391;269.5233;0.3253419;-0.6876776;0;
224.6144;0;0;0.05687969;-0.005164121;16.71461;169.6405;167.741;0.130113;-0.1672479;0;
186.4702;0;0;0.05682254;4.148027;14.75531;133.2383;133.2148;-0.2598218;0.02782221;0;
-363.066;0;0;0.05676544;4.07651;12.99905;-407.249;-409.0216;-0.1296261;-0.4269771;0;
-632.2532;0;0;0.05670841;2.800592;16.0001;-675.0175;-676.0387;0.06540622;-0.3615808;0;
-296.0366;0;0;0.05665142;3.132571;15.58212;-346.3791;-345.9625;-0.06459418;-0.1013481;0;
-194.7274;0;0;0.0565945;0.3827569;12.68632;-246.0188;-249.5382;0.0004380634;-0.1662136;0;
-124.1921;0;0;0.05653764;-0.5556327;11.80279;-176.8063;-181.8838;0.0004376232;-0.03611189;0;
468.6972;0;0;0.05648082;3.397041;7.571133;408.8271;405.8161;-0.3893669;0.2887611;0;
710.9792;0;0;0.05642407;4.599076;5.15214;653.4807;648.3488;-0.5189103;0.09356894;0;
331.5802;0;0;0.05636738;1.312901;5.347911;280.3238;275.0096;-0.3234869;-0.1663945;0;
236.9195;0;0;0.05631074;0.4409259;3.06524;182.8409;182.4047;-0.1282598;-0.03629258;0;
185.5196;0;0;0.05625416;7.406708;4.066782;131.8078;131.9967;0.1317384;-0.2311581;0;
-362.329;0;0;0.05619763;10.27868;3.392989;-407.4287;-408.5518;0.00167137;-0.4258279;0;
-620.5225;0;0;0.05614117;1.293369;-2.973677;-664.6398;-663.0757;-0.128265;-0.1655307;0;
-294.3751;0;0;0.05608476;-0.2481724;-5.783972;-343.508;-341.4457;-0.06316877;-0.2303317;0;
-192.6303;0;0;0.0560284;5.645599;-5.376263;-239.8398;-241.6526;-0.0631053;-0.1001656;0;
-117.7868;0;0;0.0559721;4.836619;-7.648159;-166.0733;-168.5714;-0.1280092;0.2247718;0;
472.2226;0;0;0.05591586;7.511076;-9.449013;414.3644;413.6179;-0.2578153;-0.03532341;0;
720.4356;0;0;0.05585968;7.637251;-11.31504;662.5731;659.1412;-0.3225236;0.09464677;0;
329.9701;0;0;0.05580355;3.54374;-13.447;278.1003;273.0476;-0.1922648;0.2244864;0;
224.0041;0;0;0.05574748;2.736872;-14.37125;170.125;169.0753;-0.06213695;0.1592935;0;
190.9206;0;0;0.05569146;-4.901688;-18.17472;138.1575;138.4833;0.06786017;0.5489374;0;
-354.9345;0;0;0.0556355;-7.978221;-18.96025;-398.1493;-399.3231;0.1977267;0.3534839;0;
-622.5681;0;0;0.0555796;-6.027822;-19.3431;-663.4907;-662.4144;0.3274627;-0.2315774;0;
-279.3648;0;0;0.05552375;-6.155487;-19.99349;-326.3057;-323.8562;0.4570683;0.09349199;0;
-188.1298;0;0;0.05546796;-8.762246;-13.20825;-235.3358;-237.0118;0.06680501;0.6781041;0;
-131.3442;0;0;0.05541223;-8.954513;-11.11863;-180.5643;-183.1131;-0.5829355;0.6124554;0;
485.2279;0;0;0.05535655;-4.72498;-9.633829;425.5001;425.0778;-0.4524151;0.3519706;0;
738.9251;0;0;0.05530093;-5.725587;-7.346729;677.9454;674.5875;-0.1920912;0.2216823;0;
340.6949;0;0;0.05524536;8.614758;-7.741245;285.5861;281.0447;-0.3218328;0.1564922;0;
240.9026;0;0;0.05518985;13.16045;-5.724101;184.1;183.936;-0.6463462;0.09136763;0;
187.8121;0;0;0.0551344;1.09079;-9.67022;133.0031;134.1511;-0.1909253;0.09127583;0;
-361.6006;0;0;0.055079;1.491835;-9.727487;-406.7968;-406.8993;0.2640379;0.02621675;0;
-610.362;0;0;0.05502365;-10.83452;-6.636497;-653.0765;-651.18;-0.2559661;0.1561251;0;
-283.2878;0;0;0.05496836;-16.11492;-6.094087;-329.5826;-326.6884;-0.2557089;-0.1039011;0;
-191.1119;0;0;0.05491313;-9.267203;-1.131349;-237.1727;-237.7797;0.06938472;-0.4286335;0;
-114.4583;0;0;0.05485795;-10.59706;0.4103954;-163.5338;-165.452;0.1992497;-0.2982681;0;
473.2989;0;0;0.05480283;-5.830992;4.428837;415.2147;413.8606;0.2640168;-0.233001;0;
710.6412;0;0;0.05474777;-2.811023;6.835773;652.1157;647.702;0.06884951;-0.2977343;0;
324.1211;0;0;0.05469276;-3.410435;4.149587;271.464;265.9303;0.198715;0.02740161;0;
227.6563;0;0;0.0546378;-0.4602469;4.949212;173.2405;171.5853;0.6532867;0.3522108;0;
193.0698;0;0;0.0545829;3.29126;0.8584023;139.8956;139.6164;0.587663;0.2219222;0;
-356.0983;0;0;0.05452806;6.100992;-0.9509994;-399.0367;-401.0647;0.3272031;-0.1681048;0;
-625.23;0;0;0.05447327;7.501381;2.33212;-665.689;-666.9653;0.456809;-0.03800124;0;
-289.7076;0;0;0.05441853;7.427471;2.195811;-336.0605;-335.399;0.5213174;0.2868737;0;
-188.5297;0;0;0.05436385;14.85475;0.9879115;-234.3362;-235.9243;0.1309895;-0.03825131;0;
-120.6868;0;0;0.05430923;16.38006;1.187868;-168.0715;-171.7819;-0.1290115;0.02675447;0;
470.9497;0;0;0.05425465;7.454996;0.3828788;414.1798;410.848;-0.2588165;0.4165317;0;
711.5428;0;0;0.05420014;5.638844;-0.4213011;653.2682;647.5035;-0.4534585;0.2861784;0;
324.6469;0;0;0.05414568;-3.409152;4.13384;270.9912;264.1702;-0.7778396;-0.03894584;0;
228.4939;0;0;0.05409127;-9.300224;4.598567;173.8301;171.2014;-0.6471233;0.09102799;0;
178.1645;0;0;0.05403692;-4.267038;3.321392;124.805;123.3658;-0.1917017;-0.5587369;0;
-372.1755;0;0;0.05398263;-6.338855;3.184089;-417.6728;-421.0471;0.1333276;-0.8180448;0;
-622.1757;0;0;0.05392838;-9.681389;-1.106018;-666.8152;-667.3749;0.2631283;-0.2974841;0;
-286.1566;0;0;0.0538742;-10.81074;-2.779358;-335.5613;-334.5588;-0.1269401;-0.2322179;0;
-191.4165;0;0;0.05382006;-12.40746;-5.991746;-239.5223;-242.7061;-0.2567472;-0.1670172;0;
-117.5113;0;0;0.05376599;-13.333;-8.330007;-167.4427;-170.6859;-0.1265546;0.09301998;0;
471.4358;0;0;0.05371196;-10.43922;-7.450858;412.3717;412.1303;0.06847462;-0.1669429;0;
706.2814;0;0;0.05365799;-8.753788;-8.046218;646.402;643.9119;0.1333732;-0.3616771;0;
325.1379;0;0;0.05360407;-15.51015;-7.703218;270.9409;267.204;-0.1266302;-0.1664117;0;
231.3582;0;0;0.05355021;-17.63802;-6.690734;176.9033;176.356;-0.06153564;0.4834289;0;
186.773;0;0;0.05349641;-6.836651;-7.018926;133.9345;134.2624;0.1983956;0.6128778;0;
-364.825;0;0;0.05344265;-3.949393;-6.141217;-408.6774;-409.974;0.4580656;0.02755596;0;
-631.2618;0;0;0.05338895;-11.64858;-1.580207;-673.0712;-673.4294;0.1327686;0.157463;0;
-287.0502;0;0;0.05333531;-11.56953;-0.1051167;-334.6271;-333.5483;-0.4520709;0.1573047;0;
-187.1244;0;0;0.05328172;-9.01231;3.177153;-234.591;-235.5747;-0.3216819;-0.2326574;0;
-134.2753;0;0;0.05322818;-8.066225;4.915394;-183.3184;-185.3007;-0.2563914;-0.1674563;0;
470.1184;0;0;0.05317469;-8.928777;3.83885;412.254;412.2103;-0.5809705;0.1575487;0;
724.6428;0;0;0.05312127;-9.321946;5.107547;666.3993;664.9813;0.004319366;0.5471945;0;
327.364;0;0;0.05306789;-2.011562;-0.1891148;274.8012;272.1353;0.3291517;0.3517426;0;
230.0838;0;0;0.05301457;0.3349837;-1.059703;175.0126;176.4098;0.06895164;-0.1033822;0;
180.0027;0;0;0.0529613;-2.009877;-0.7237234;124.9243;128.3191;-0.06105233;0.156591;0;
-372.8379;0;0;0.05290808;-0.7350602;-1.928567;-418.9279;-416.6609;0.133911;0.7411398;0;
-619.8389;0;0;0.05285492;-3.748432;6.245045;-664.2584;-660.3696;0.7184826;0.4155584;0;
-288.4449;0;0;0.05280181;-4.882765;9.118914;-337.9421;-333.9323;0.4578913;-0.0396306;0;
-193.7025;0;0;0.05274875;-1.395234;6.095641;-241.4634;-240.8933;-0.2572096;0.1553113;0;
-111.674;0;0;0.05269575;-1.661276;7.228226;-160.6363;-161.1912;-0.3219185;0.02522051;0;
476.7675;0;0;0.0526428;-2.396541;9.49826;417.7345;418.0547;-0.126693;0.09016252;0;
707.4847;0;0;0.0525899;-2.595204;9.622683;647.0742;644.9578;-0.1265657;0.1550393;0;
327.6519;0;0;0.05253706;-6.276291;13.49802;272.9868;270.4977;-0.1914059;-0.5597573;0;
234.7442;0;0;0.05248427;-8.548137;14.824;178.6972;180.2711;0.06865583;-0.3642928;0;
183.0967;0;0;0.05243154;-5.123296;9.115675;127.9181;129.8652;-0.1263152;0.09084463;0;
-367.0609;0;0;0.05237886;-5.050799;8.369825;-412.9386;-413.1174;-0.3210903;-0.2340834;0;
-619.5649;0;0;0.05232622;-11.34236;5.95003;-662.8978;-661.3898;0.06903639;-0.1688808;0;
-279.4255;0;0;0.05227365;-13.00493;4.470427;-328.2122;-325.8311;0.003999688;-0.1037438;0;
-183.3804;0;0;0.05222112;-9.91138;6.810337;-232.8676;-234.2995;-0.06097167;-0.0386722;0;
-116.792;0;0;0.05216865;-8.226481;6.93746;-168.9157;-170.8459;0.2639263;0.09130135;0;
474.7155;0;0;0.05211623;-14.18006;8.404114;413.5863;413.4072;0.06875908;-0.1686598;0;
710.6198;0;0;0.05206386;-14.76805;9.065376;650.364;646.7493;-0.126212;-0.298425;0;
321.4135;0;0;0.05201155;-4.505433;11.13274;268.2773;263.2294;0.06881681;-0.2331578;0;
228.637;0;0;0.05195929;-1.687867;11.45647;174.1799;173.3849;0.133715;-0.1029888;0;
182.243;0;0;0.05190708;1.931152;13.05255;128.7151;129.8575;0.2635153;0.0920167;0;
-366.8517;0;0;0.05185492;5.01067;13.24038;-413.1419;-411.8757;0.1982832;0.2868263;0;
-622.2921;0;0;0.05180282;5.607872;8.002529;-667.911;-665.0219;-0.1267527;0.4814401;0;
-294.8311;0;0;0.05175077;7.143454;6.252932;-344.0898;-340.8288;-0.5164294;0.09115229;0;
-196.5216;0;0;0.05169877;3.853747;1.156068;-245.0437;-244.9719;-0.06113912;0.156028;0;
-115.5522;0;0;0.05164682;2.242284;-2.060153;-166.3994;-167.2646;0.5236284;0.5456753;0;
471.8937;0;0;0.05159492;2.441102;-3.196793;413.289;414.2987;0.3931676;0.2202903;0;
702.9282;0;0;0.05154308;0.8984077;-5.872898;644.6323;643.9542;0.1329031;-0.1047678;0;
321.0385;0;0;0.05149129;-3.858893;-4.326389;268.5482;267.746;0.06780225;0.02527219;0;
242.9425;0;0;0.05143955;-6.333262;-5.19282;188.8808;192.3272;0.1327015;-0.03972055;0;
199.2202;0;0;0.05138787;-7.130206;-4.316824;146.025;149.8427;0.06760079;-0.1696153;0;
-371.2558;0;0;0.05133623;-8.79798;-3.70964;-416.0893;-413.2749;0.1974675;-0.4942816;0;
-630.1899;0;0;0.05128465;-7.247923;-5.581435;-674.3536;-669.4806;0.0023671;-0.5587522;0;
-290.6021;0;0;0.05123312;-6.571055;-4.437117;-339.594;-334.476;-0.5823414;-0.1683868;0;
-200.1054;0;0;0.05118164;-9.377491;-8.85341;-247.9237;-245.4345;-0.3868542;0.6763579;0;
-123.2554;0;0;0.05113021;-9.569139;-9.715292;-174.0241;-171.5999;-0.1265961;0.5457436;0;
475.0677;0;0;0.05107883;-5.742107;-3.878137;415.542;418.651;-0.4513056;0.1553912;0;
705.7867;0;0;0.05102751;-5.200474;-2.869496;646.5706;647.4901;-0.5158195;0.6749737;0;
310.9007;0;0;0.05097624;-3.386588;2.090002;258.6156;258.5346;-0.1904645;0.3494588;0;
220.5085;0;0;0.05092502;-2.779972;5.369944;168.6509;171.506;-0.1253058;0.08923832;0;
179.495;0;0;0.05087385;-3.916255;2.149489;128.564;132.9779;-0.1251798;0.4789527;0;
-373.595;0;0;0.05082273;-4.046041;3.353022;-416.2914;-412.3192;0.3297173;0.2186021;0;
-626.5297;0;0;0.05077166;-7.458228;5.760917;-666.8719;-661.7792;0.3943534;-0.1064543;0;
-291.006;0;0;0.05072065;-8.254041;7.094787;-336.9923;-331.6549;-0.06081427;-0.1713147;0;
-196.511;0;0;0.05066968;-13.80545;7.556539;-241.3891;-239.5553;0.004214176;-0.04120785;0;
-114.9794;0;0;0.05061877;-16.73932;8.419724;-159.5001;-159.1049;0.2640793;0.3486376;0;
477.151;0;0;0.05056791;-10.15744;10.55459;423.6171;425.5112;-0.06102275;0.28332;0;
704.0573;0;0;0.0505171;-9.210203;11.48175;648.8281;649.3459;-0.2558635;-0.1717361;0;
316.7942;0;0;0.05046634;-9.669463;12.87686;267.6174;266.8229;0.004263001;-0.1715636;0;
222.1483;0;0;0.05041563;-7.784713;13.19883;172.5836;173.9763;0.1341934;0.3483476;0;
169.7638;0;0;0.05036497;-7.10633;13.58747;121.061;123.8891;0.2639932;0.2830302;0;
-377.007;0;0;0.05031436;-4.955736;12.97097;-417.3525;-414.1525;0.1337933;-0.0420909;0;
-623.8165;0;0;0.05026381;-6.826766;13.02492;-662.3098;-657.3014;-0.1911778;0.02291873;0;
-295.9167;0;0;0.0502133;-8.360148;12.87786;-339.119;-335.0526;-0.1260184;0.08786306;0;
-205.3522;0;0;0.05016285;5.780797;5.697873;-248.1363;-247.7596;0.06901024;0.02280742;0;
-123.312;0;0;0.05011244;9.794453;3.481833;-168.4269;-169.1751;-0.3208632;-0.1721175;0;
474.1991;0;0;0.05006209;-2.339178;1.669795;419.0097;418.3871;-0.3205408;-0.04200989;0;
707.2303;0;0;0.05001179;-3.743347;-0.8102514;650.8469;648.2885;-0.0603493;-0.2368697;0;
312.7801;0;0;0.04996153;-2.333066;3.611314;262.0755;259.4572;-0.320158;-0.6914031;0;
219.1377;0;0;0.04991133;-2.531793;3.808634;167.9219;168.617;-0.5147383;-0.3009043;0;
176.8136;0;0;0.04986118;-9.629195;4.206705;126.7737;128.2803;-0.4492538;-0.1056999;0;
-382.5204;0;0;0.04981108;-12.96842;5.408171;-424.2642;-423.6962;0.07093634;-0.04062639;0;
-637.0704;0;0;0.04976103;-2.239099;2.45561;-677.3979;-675.1439;0.3307344;-0.04058557;0;
-292.0409;0;0;0.04971103;-1.097773;1.448398;-338.2;-335.5733;0.1355001;-0.2354468;0;
-202.105;0;0;0.04966108;0.9130619;5.934678;-247.718;-248.7796;0.4602006;-0.04030821;0;
-134.3734;0;0;0.04961118;4.663188;7.134407;-181.1274;-182.188;0.3298036;0.02469963;0;
465.5226;0;0;0.04956133;-6.259837;-0.6426598;410.0075;411.4468;-0.1252992;-0.1052599;0;
701.1862;0;0;0.04951153;-8.598072;-2.919312;645.6019;644.7908;-0.1251733;-0.1051541;0;
317.1118;0;0;0.04946178;-0.1493388;0.7005779;266.9557;265.4583;-0.6447863;0.2197883;0;
237.7079;0;0;0.04941208;-0.6186793;0.09702759;184.6662;187.3557;-0.5791711;0.1546001;0;
179.6856;0;0;0.04936243;1.124231;-1.51066;127.2594;131.7578;0.1360517;-0.365294;0;
-384.1491;0;0;0.04931283;2.261201;-2.446781;-427.4647;-423.9703;0.2008823;-0.4298943;0;
-623.6425;0;0;0.04926328;-3.769291;-2.109408;-666.7272;-661.1124;0.1357131;-0.4944296;0;
-291.3701;0;0;0.04921379;-3.564433;-2.844101;-339.7837;-332.6129;0.07060939;-0.2990308;0;
-206.6198;0;0;0.04916433;-9.991213;-3.645038;-252.2361;-248.1335;0.1355058;-0.1038283;0;
-117.5818;0;0;0.04911494;-12.72686;-4.043273;-162.965;-160.1782;0.6551083;-0.1686914;0;
479.1115;0;0;0.04906558;-1.39457;-7.05332;425.5281;428.4994;0.1996787;-0.1685219;0;
695.8959;0;0;0.04901628;1.218799;-7.850029;642.1789;642.586;-0.6450974;0.2214515;0;
307.1417;0;0;0.04896703;-0.7911813;-8.779902;259.788;260.0698;-0.5794818;0.6110331;0;
225.0617;0;0;0.04891783;0.1466427;-9.105994;177.3183;180.2859;-0.3190302;0.4155171;0;
174.111;0;0;0.04886867;5.907271;-8.560982;128.3521;131.3793;-0.1238076;0.2201975;0;
-381.8471;0;0;0.04881957;7.441577;-8.35143;-419.8763;-417.352;0.006251479;-0.0398931;0;
-628.5267;0;0;0.04877052;6.094929;-5.060997;-666.4553;-661.1849;-0.3185915;-0.1697877;0;
-286.8166;0;0;0.04872151;6.691041;-4.252117;-329.8295;-323.8147;-0.253304;0.1552196;0;
-192.888;0;0;0.04867256;1.125589;-0.362956;-234.3584;-232.5975;-0.0581475;-0.1048057;0;
-121.9797;0;0;0.04862365;0.1864529;1.780862;-163.2835;-163.3985;-0.1880238;-0.2996024;0;
472.719;0;0;0.04857479;-6.244096;-0.163432;424.7726;425.2824;-0.1228675;-0.03943203;0;
701.6912;0;0;0.04852599;-9.988866;1.913203;653.7929;651.9908;0.07215799;0.02557494;0;
307.2465;0;0;0.04847723;-0.265938;-5.054822;262.9571;259.7826;0.007118148;0.2204513;0;
224.1044;0;0;0.04842852;0.5376364;-6.523367;176.2988;174.939;0.007110996;0.1552624;0;
175.9034;0;0;0.04837985;2.278408;0.516273;129.3951;128.3491;0.1370385;-0.3646323;0;
-381.7432;0;0;0.04833124;4.889063;0.8506689;-418.8969;-420.5665;0.07193349;-0.1043966;0;
-620.8642;0;0;0.04828268;-1.81463;7.079105;-656.6062;-657.2123;0.2017959;0.220545;0;
-289.2817;0;0;0.04823416;-3.888912;9.684204;-330.1727;-331.028;0.3964952;-0.1694806;0;
-209.1562;0;0;0.0481857;3.416013;7.933039;-249.7562;-253.5467;0.2011947;-0.2342777;0;
-113.8063;0;0;0.04813728;3.881095;9.063656;-156.9268;-161.4006;0.006090547;-0.1041076;0;
492.1285;0;0;0.04808891;-1.41409;7.313114;438.1818;434.2122;-0.05888291;-0.1689703;0;
698.5925;0;0;0.04804059;-1.412669;7.305766;643.3257;636.9863;0.07111093;0.02610148;0;
301.1525;0;0;0.04799232;-10.11879;2.408793;253.0002;247.1669;0.006072141;0.2209773;0;
223.3888;0;0;0.0479441;-13.3238;-0.4738933;175.4723;173.2056;-0.0589013;-0.1040815;0;
172.065;0;0;0.04789592;-6.344187;4.349232;125.3836;123.8688;-0.4486462;-0.4288136;0;
-386.7021;0;0;0.0478478;-6.070369;3.206274;-424.7784;-427.1038;-0.6430974;-0.5583174;0;
-627.3799;0;0;0.04779972;-3.183882;5.279401;-664.356;-665.3047;-0.4475492;-0.492789;0;
-283.2971;0;0;0.04775169;-0.8361576;7.015653;-327.1701;-327.2433;-0.1872301;-0.6222286;0;
-207.8627;0;0;0.04770371;0.7722729;-4.244285;-251.6292;-254.4509;-0.0571073;-0.751538;0;
-142.1868;0;0;0.04765578;3.852956;-7.522062;-187.7208;-191.6642;-0.1220173;-0.1660768;0;
478.1444;0;0;0.04760789;0.3654839;0.8581185;421.6616;418.7217;0.008040027;0.6136982;0;
716.7313;0;0;0.04756005;-0.03702496;1.795017;659.3057;653.4952;-0.05693539;0.4831468;0;
313.9007;0;0;0.04751227;6.460723;-0.9530866;263.1546;256.2879;-0.05687818;0.09285732;0;
226.6915;0;0;0.04746453;6.922745;0.7224444;175.1218;173.2595;0.07311365;0.09276401;0;
175.8017;0;0;0.04741683;6.714719;-3.431101;126.5326;127.1085;-0.1218618;0.0926708;0;
-379.5959;0;0;0.04736919;6.57425;-4.767313;-418.5081;-419.8693;0.2030973;0.2225124;0;
-616.97;0;0;0.04732159;3.08502;6.088469;-652.9695;-654.0795;0.5277299;0.2222888;0;
-284.3919;0;0;0.04727404;2.478707;7.756925;-326.852;-328.1483;0.397265;-0.03780395;0;
-201.5226;0;0;0.04722654;-7.034628;8.552925;-247.3134;-251.4819;0.3968658;-0.1677006;0;
-112.4898;0;0;0.04717909;-11.91768;9.816885;-162.1701;-165.5223;0.201565;0.09233724;0;
480.5127;0;0;0.04713168;-3.198167;4.381526;422.8864;420.9743;0.006460473;0.0272771;0;
688.4251;0;0;0.04708432;-2.860161;2.970603;633.0431;627.8221;0.1363887;-0.492489;0;
302.0522;0;0;0.04703701;-7.210567;-3.730553;255.0342;248.6316;0.006316937;-0.2321248;0;
218.728;0;0;0.04698975;-6.86853;-8.147555;172.1945;169.9837;-0.3834935;0.02797779;0;
162.4114;0;0;0.04694254;-7.196421;-4.45543;116.6743;116.0899;-0.1882061;-0.296887;0;
-379.0422;0;0;0.04689537;-6.988119;-4.785868;-418.9238;-420.3822;0.3966891;-0.3615561;0;
-613.0435;0;0;0.04684824;-4.972342;-12.55083;-652.7601;-653.4674;0.4612578;-0.3611928;0;
-280.7817;0;0;0.04680117;-5.302138;-14.07883;-325.8932;-326.6622;-0.1888791;0.02897421;0;
-194.9801;0;0;0.04675415;-0.005524721;-10.11281;-240.6709;-243.6256;-0.2536566;0.0289451;0;
-115.1992;0;0;0.04670717;1.334628;-10.23662;-162.8431;-166.6694;0.3313043;-0.360888;0;
479.5552;0;0;0.04666024;-3.824277;-1.250863;424.7128;422.2647;0.2010368;-0.100656;0;
694.1527;0;0;0.04661335;-4.088854;2.568421;640.3024;636.42;-0.1889693;-0.1655222;0;
304.6506;0;0;0.04656652;-6.764063;0.6233348;256.6016;250.974;-0.2537467;-0.4252253;0;
229.9444;0;0;0.04651972;-5.952983;4.105699;182.381;179.3202;0.07134491;-0.03499398;0;
174.4287;0;0;0.04647298;-14.2524;-3.467254;129.6616;127.3535;0.3311426;-0.09992616;0;
-382.7791;0;0;0.04642629;-17.25219;-5.339292;-420.6296;-424.5596;0.3308099;-0.1647931;0;
-618.6508;0;0;0.04637964;-0.5567113;4.51232;-656.5881;-658.6401;0.6553141;0.2251766;0;
-286.8831;0;0;0.04633303;2.725402;5.51253;-329.3426;-331.2675;0.5896884;-0.09988642;0;
-201.6375;0;0;0.04628648;5.937844;7.382513;-242.6176;-248.2262;0.004389768;-0.2946881;0;
-111.9799;0;0;0.04623997;9.750271;9.987308;-153.7309;-159.7087;-0.3204513;0.03044473;0;
477.4614;0;0;0.04619351;7.730742;4.149879;427.3191;422.3468;-0.3850967;-0.1644879;0;
685.377;0;0;0.04614709;8.727352;4.279675;634.2855;627.4441;-0.4496771;-0.09935527;0;
305.5663;0;0;0.04610072;7.110992;6.619778;260.2733;252.8141;-0.4492252;0.2905486;0;
232.4209;0;0;0.0460544;7.505989;7.015024;185.6117;181.2834;-0.1889045;0.160322;0;
170.6558;0;0;0.04600812;-1.878676;11.62967;124.3309;120.8191;0.2010894;0.09519356;0;
-385.7986;0;0;0.04596189;-5.494111;13.62748;-425.3303;-429.963;0.330822;0.09509791;0;
-615.7951;0;0;0.04591571;-0.5984701;14.81936;-656.5989;-659.353;-0.1242818;-0.2298344;0;
-280.5945;0;0;0.04586958;-2.67495;16.34507;-326.7921;-329.0436;-0.513961;-0.09966874;0;
-203.2888;0;0;0.04582348;6.504766;17.33339;-247.8783;-253.5008;-0.3185425;-0.09956859;0;
-119.2517;0;0;0.04577744;9.71341;17.78486;-165.2956;-171.9745;-0.2532551;-0.2943706;0;
484.5022;0;0;0.04573144;2.536355;18.77173;430.2587;424.0863;-0.317968;-0.1641401;0;
699.657;0;0;0.04568549;3.270741;18.88671;645.3431;636.8655;-0.1227465;-0.09900783;0;
305.5892;0;0;0.04563959;-0.8183828;16.18854;256.2649;247.7334;-0.1875905;-0.1638757;0;
235.005;0;0;0.04559373;-3.697949;15.70339;184.7307;180.6431;-0.3173367;-0.358613;0;
186.668;0;0;0.04554792;4.27637;10.99893;139.6926;137.7955;-0.4469525;-0.228318;0;
-386.4191;0;0;0.04550215;4.807937;8.844425;-423.1024;-426.3719;-0.05669934;-0.293056;0;
-629.4084;0;0;0.04545643;1.186759;13.39038;-665.6177;-668.1968;0.203227;-0.2277942;0;
-281.3882;0;0;0.04541076;2.457388;14.1806;-324.6824;-327.5712;0.07308811;0.4221082;0;
-197.8348;0;0;0.04536512;-6.788481;13.76445;-240.8981;-248.4067;0.137982;0.4866514;0;
-109.1804;0;0;0.04531954;-9.862144;15.09028;-156.136;-163.4497;-0.1869933;0.03139098;0;
492.377;0;0;0.045274;-1.278418;15.74494;434.7864;430.7909;-0.5766095;-0.3584446;0;
695.0301;0;0;0.04522851;-1.947695;16.13102;638.4344;632.1941;-0.4460954;-0.5529864;0;
305.0274;0;0;0.04518307;4.886765;22.14315;255.5476;249.1886;-0.3157125;-0.2925615;0;
230.0085;0;0;0.04513767;8.298106;24.19725;181.5154;180.0353;-0.1854606;-0.2273002;0;
167.0589;0;0;0.04509231;-4.570955;21.2928;121.4256;120.7591;0.3994318;0.09776496;0;
-388.6422;0;0;0.045047;-7.513123;21.6733;-428.3576;-430.1479;0.8538018;0.03269937;0;
-615.5125;0;0;0.04500174;-1.008839;18.23551;-656.6247;-656.6016;0.2032705;-0.3571375;0;
-281.3117;0;0;0.04495652;-0.8741035;16.54262;-327.4426;-327.8568;-0.4466071;-0.2918113;0;
-204.4425;0;0;0.04491135;-8.039545;17.86565;-250.0898;-254.4391;-0.2512563;-0.6813222;0;
-110.8466;0;0;0.04486622;-9.371614;17.17787;-158.8217;-164.2911;-0.1210692;-0.5507029;0;
492.5865;0;0;0.04482114;-11.50565;15.28509;436.6636;431.637;-0.0559802;0.03455652;0;
696.7387;0;0;0.0447761;-14.77564;14.06404;642.1213;635.1633;0.07401073;-0.2253476;0;
305.9847;0;0;0.04473111;-2.235842;16.05939;258.6061;251.2802;-0.185933;-0.03021911;0;
232.8389;0;0;0.04468617;0.915212;15.97628;185.258;181.5627;-0.2507135;0.1647133;0;
173.1348;0;0;0.04464127;-8.061665;15.15643;127.7257;124.8461;0.00940777;0.2944825;0;
-389.6938;0;0;0.04459641;-7.58505;15.27516;-424.9999;-429.8131;0.139333;0.2292192;0;
-623.0598;0;0;0.0445516;-9.050321;14.32205;-656.2064;-659.8279;-0.05570903;-0.2257825;0;
