Fp1;Fp2;O1;O2;POLY3;POLY4;A1;A2;Video;Audio;event;
525.1919;0;493.1589;32.6301;-13.24701;17.1005;508.6555;500.4121;-0.2186801;0.03586197;0;12:45:41 Глаза закрыты;
192.7685;0;187.5042;31.59781;-11.9609;20.6333;177.9353;171.5118;-0.5432971;0.3606626;0;
203.1945;0;190.2518;34.25221;-11.81516;21.01446;185.0654;182.5839;0.1069223;-0.02950381;0;
-118.4107;0;-105.3533;20.03743;-20.44348;21.46222;-130.4621;-132.2539;0.1068148;-0.2893435;0;
-629.972;0;-591.1907;-115.2897;-23.90654;22.64635;-634.8899;-635.9303;0.04174017;0.03578392;0;
-514.3343;0;-506.389;-140.9109;-8.609918;16.59525;-522.4956;-522.4106;0.4964696;-0.3540561;0;
-208.346;0;-219.5241;12.27874;-4.783849;15.77479;-218.873;-221.3492;0.3660361;-0.4186677;0;
-204.1387;0;-207.6219;45.31229;-11.81164;14.48626;-213.2807;-218.6281;0.2357336;-0.02844295;0;
154.0115;0;120.8592;26.77606;-12.93885;13.60092;138.257;132.915;0.3004641;0.231455;0;
689.7124;0;623.7974;35.05748;-0.6683363;14.65899;667.477;661.1409;0.2351948;0.2961898;0;
524.3522;0;485.8022;32.77338;2.145374;13.7065;506.0121;498.3081;0.4298605;-0.02894455;0;
186.9946;0;176.9065;31.42861;-8.171909;22.46737;170.6095;166.0991;0.2345266;0.1010192;0;
200.9246;0;185.9117;35.02021;-8.699561;24.92304;182.6195;181.5494;-0.1555131;0.2308524;0;
-123.1145;0;-115.8736;16.24444;-18.67115;22.55371;-134.2174;-135.4738;-0.2203242;0.1656531;0;
-640.5432;0;-609.6339;-125.9504;-23.40782;23.8036;-643.7014;-643.6447;0.1047339;-0.09438272;0;
-522.8959;0;-514.4438;-148.1252;-17.02128;19.42592;-529.0494;-526.7438;0.2345633;-0.3541572;0;
-220.0224;0;-226.6963;11.44355;-17.67377;18.26769;-228.5435;-229.1139;-0.02554172;0.03600266;0;
-212.3051;0;-211.4136;45.29004;-15.37883;15.90505;-219.8182;-223.3865;-0.0904834;0.2308685;0;
155.6609;0;127.7535;26.81629;-13.55472;13.34372;140.4717;137.5942;-0.2852945;0.1007019;0;
687.2997;0;625.3749;35.16014;-12.67044;18.42089;665.8789;661.4425;-0.09010582;0.03563332;0;
521.1297;0;486.0662;32.62607;-11.38491;20.07696;504.3531;498.0472;0.6895928;-0.1593045;0;
193.8953;0;186.4157;31.65625;-6.349631;12.82275;177.8228;174.709;0.4939979;0.2306596;0;
205.0073;0;191.3508;34.37307;-4.066075;12.27412;186.0149;186.34;-0.1561719;0.1004932;0;
-123.5336;0;-111.1895;20.4705;-6.607584;18.29001;-136.51;-135.9978;-0.2859496;-0.2894119;0;
-629.8425;0;-586.1514;-111.1714;-5.529218;19.41034;-635.7468;-634.0482;-0.09076031;0.100683;0;
-508.083;0;-490.2979;-136.3595;-11.75295;23.00779;-515.5432;-512.4719;0.2341676;0.03561448;0;
-215.2194;0;-221.7525;12.39032;-14.21939;24.12339;-223.2343;-223.4145;0.03903028;-0.2242907;0;
-210.9427;0;-209.9105;44.86155;-7.105156;27.44829;-216.6382;-219.5043;-0.155911;-0.159098;0;
161.0199;0;135.5644;27.07539;-5.75787;28.89421;148.0213;145.9701;0.3639844;-0.2239054;0;
693.0281;0;633.9276;34.79429;-8.163958;23.30572;672.6088;669.1229;0.2986513;-0.1587131;0;
527.6021;0;495.235;32.76033;-6.614537;22.54561;511.3262;505.8448;0.0384819;0.03634838;0;
194.8639;0;189.7657;31.47804;-8.550274;15.7578;180.1037;177.6887;0.1683779;0.2961812;0;
202.8515;0;191.0118;34.81972;-9.881829;12.79472;185.0451;185.881;0.2981434;-0.02895309;0;
-117.3165;0;-103.9695;17.16858;2.050818;12.58092;-129.1705;-129.2725;0.6226805;-0.4836954;0;
-631.1902;0;-590.308;-121.2166;3.79007;10.02305;-635.7235;-635.2007;0.5570875;-0.09340532;0;
-516.1136;0;-503.758;-142.3341;1.911227;14.96959;-522.8911;-520.3699;0.2316911;0.2964926;0;
-212.8721;0;-218.9572;13.23075;2.847312;14.88757;-221.8917;-221.497;0.1015236;-0.09360939;0;
-209.2849;0;-206.3685;45.07645;-8.00654;17.68577;-217.171;-220.025;-0.1584478;-0.3533847;0;
157.616;0;130.7321;26.97773;-11.54847;19.54352;143.6784;140.0777;-0.02835392;-0.2880623;0;
690.1274;0;630.2245;35.13401;-13.94874;14.70123;670.1443;664.7981;0.1016093;0.03706389;0;
517.3954;0;485.4763;32.84983;-17.1499;15.35629;501.6803;494.4029;-0.1583622;0.491798;0;
186.4791;0;182.0157;31.56746;-17.19904;8.709672;171.9042;167.0704;-0.2231704;0.8811079;0;
199.785;0;188.6419;34.65916;-17.71762;5.619827;182.9134;181.3952;-0.0930115;0.8152553;0;
-127.4389;0;-114.2705;19.94422;-16.56172;12.84809;-137.7968;-139.2509;-0.0279507;0.2946973;0;
-633.8062;0;-592.5402;-115.5702;-15.60708;12.43329;-638.1567;-637.9852;-0.09288996;-0.09540282;0;
-512.605;0;-498.6792;-139.2546;-7.888236;12.48778;-519.8247;-517.7793;-0.2876987;-0.4201437;0;
-220.2366;0;-226.8145;13.12128;-3.7281;11.93949;-228.3236;-229.9659;-0.2224422;-0.2897868;0;
-215.7675;0;-212.4062;44.96708;-5.130873;11.99447;-221.1602;-225.9868;0.03765066;0.2302431;0;
158.7612;0;131.8842;26.99341;-4.120364;12.0494;146.6273;142.6801;0.2974822;0.03510971;0;
692.7707;0;629.5015;35.02473;3.519587;5.272142;673.3401;668.5223;0.1022813;-0.4846643;0;
520.7856;0;485.7534;32.6782;6.06067;3.927186;505.9348;499.7476;-0.2226582;0.03556143;0;
190.3657;0;182.1677;31.64587;-1.782301;-2.038119;177.7787;173.4093;0.03743487;0.3603624;0;
209.6646;0;191.8547;34.79997;-3.18703;-5.519062;194.4666;192.5378;-0.02757009;-0.09477108;0;
-114.3833;0;-106.8755;16.52417;-5.528352;1.586553;-123.819;-124.8087;-0.4173464;-0.2895779;0;
-635.2565;0;-594.2106;-121.673;-8.001043;1.785907;-637.4363;-637.1132;-0.09209038;-0.4192216;0;
-519.426;0;-504.5333;-142.915;-9.533246;3.59253;-524.04;-522.4054;-0.2219325;-0.2238983;0;
-218.3677;0;-226.7282;12.52556;-12.13563;5.330476;-225.2883;-225.6544;-0.2866769;0.1011634;0;
-221.4591;0;-222.0027;45.24652;-7.50174;4.18641;-227.4982;-230.8624;0.1034152;-0.1588077;0;
146.0788;0;114.8637;27.14763;-6.356103;4.985999;132.0497;128.8139;-0.02662336;-0.2236154;0;
685.4733;0;618.4326;34.92893;-12.78008;5.44987;664.7742;659.9174;-0.09156395;-0.09345607;0;
519.1178;0;480.0679;33.01978;-13.83799;6.51612;503.3121;496.8984;0.03846274;0.1665072;0;
194.9464;0;183.9841;31.29995;-6.992556;2.490597;180.156;177.8093;-0.09151059;0.2962746;0;
203.4336;0;187.4224;34.95414;-3.97142;1.550456;185.5972;186.5636;-0.351288;-0.02885983;0;
-135.4755;0;-123.9845;18.42731;-9.326064;6.773444;-146.4225;-146.1442;-0.09106567;0.2310386;0;
-644.0837;0;-603.3688;-123.0201;-8.244966;8.642038;-647.8983;-646.6207;0.5586993;0.2957737;0;
-524.1215;0;-510.4965;-145.4477;-5.356293;5.753211;-531.6179;-528.1552;0.7530398;-0.09432751;0;
-235.4897;0;-241.2436;12.55663;-5.484633;5.546481;-244.7276;-244.0171;0.5573812;0.03570195;0;
-227.1946;0;-224.3846;45.21509;5.840384;12.90879;-233.7371;-236.4006;0.03708242;0.4254701;0;
150.2816;0;123.2913;26.92883;8.647554;14.43642;136.9365;134.4007;-0.2228242;0.2951079;0;
681.6759;0;620.9172;35.27256;7.901931;14.95778;661.2853;656.6906;-0.352535;-0.09499265;0;
515.7615;0;481.1133;32.86331;11.0428;16.34939;499.5768;493.1751;-0.4821154;0.1649722;0;
186.0337;0;178.2193;31.58092;-4.508337;10.90747;171.8018;168.3426;-0.02685963;0.6845452;0;
194.8423;0;183.7874;35.23483;-9.527649;9.824782;178.6881;177.856;0.2980041;0.61889;0;
-128.0663;0;-119.8073;15.64676;1.668684;8.274303;-137.4576;-138.4763;-0.09209942;0.03356203;0;
-640.3676;0;-610.6276;-122.2372;2.068173;6.792487;-642.8154;-642.7711;-0.3518762;-0.2913084;0;
-519.6594;0;-507.3157;-138.6685;-4.028498;7.388386;-525.9154;-523.8721;-0.3515227;-0.03114633;0;
-211.4794;0;-214.1405;15.39345;-4.560314;6.979064;-220.0405;-220.373;-0.0913001;-0.1610497;0;
-212.0166;0;-209.9899;44.55082;-3.417632;9.048523;-219.1947;-222.338;-0.09120836;-0.4207573;0;
153.0756;0;126.4271;27.20225;-4.552298;10.17814;138.8457;136.3927;-0.2210514;-0.09549777;0;
694.7744;0;635.6066;35.04596;5.431635;11.17266;675.1241;670.8619;-0.0908946;0.09950022;0;
526.9728;0;493.9763;32.88681;9.378293;12.30002;512.8394;506.5826;-0.1557706;-0.03053446;0;
197.5461;0;188.6957;31.66686;-0.141975;14.4981;185.5509;183.3608;-0.09064675;0.09943093;0;
207.2176;0;192.7539;34.63354;0.0592385;15.42129;192.4859;193.4838;-0.2204904;0.2292657;0;
-128.2596;0;-113.9107;20.23096;-1.88418;15.53976;-137.042;-136.7322;-0.09033412;0.03413329;0;
-634.3137;0;-585.809;-109.4117;-4.159462;15.45716;-635.6536;-633.7199;0.169626;0.03409899;0;
-508.052;0;-483.6464;-128.1673;5.021745;14.83879;-512.389;-508.7706;-0.2853158;0.2289668;0;
-215.126;0;-218.1062;17.20098;6.55694;14.62293;-221.8949;-220.7789;-0.3499965;0.1637694;0;
-207.3512;0;-206.2679;44.0452;3.267822;8.378942;-212.3642;-214.1853;-0.02480808;0.03367011;0;
166.8567;0;141.5771;27.25936;3.800402;5.825294;155.9142;153.7826;-0.0897505;0.09860364;0;
686.4902;0;629.1897;35.04054;0.3813078;7.761824;669.6243;666.8076;-0.1546277;0.09850456;0;
517.8849;0;486.0042;32.81893;-1.762529;7.017212;504.4716;500.6583;0.04042974;0.1633729;0;
196.9006;0;191.6635;31.59905;3.932669;6.876195;184.5003;183.6268;0.1703238;0.03327406;0;
205.5733;0;195.1566;35.12801;5.066817;7.204201;191.0615;193.4373;0.1051853;-0.2266287;0;
-121.5315;0;-106.7628;16.10226;-2.707806;6.19234;-129.4695;-128.0956;-0.2197571;0.163403;0;
-636.6504;0;-588.4759;-120.5952;-3.374671;5.382323;-637.459;-636.2114;-0.1545689;0.2282062;0;
-515.3213;0;-492.1827;-137.1532;-6.452738;10.66844;-519.1276;-516.6944;-0.08944628;-0.4216965;0;
-210.9563;0;-213.9527;15.47051;-9.661435;10.99264;-216.1955;-215.8262;-0.4141931;-0.4212728;0;
-217.1161;0;-212.6133;44.50286;0.4623291;10.11082;-218.2896;-220.7942;-0.2188749;-0.09601281;0;
149.418;0;126.8673;27.34175;0.5965625;10.10066;141.8738;139.6216;-0.02375295;0.09898571;0;
689.3088;0;632.3607;34.99791;2.337275;4.062165;673.5889;670.3395;0.04123826;-0.1609831;0;
523.3243;0;491.9205;32.96375;4.879546;2.785408;512.4927;506.9352;0.1711315;-0.1608214;0;
196.0877;0;191.577;31.49385;-7.985104;-5.255099;187.7033;184.775;-0.4137465;0.2291443;0;
204.3239;0;195.8822;35.02291;-9.785742;-9.737553;193.824;194.4594;-0.08849408;-0.2258574;0;
-129.2138;0;-111.4103;18.80836;-9.775908;-2.35989;-133.2065;-132.0095;0.4963009;-0.5504671;0;
-636.1416;0;-587.8713;-114.1437;-10.10088;-2.759416;-633.7584;-631.0634;-0.2188385;-0.355012;0;
-507.9415;0;-484.7071;-130.2084;-11.63195;-3.493456;-508.4968;-504.2428;-0.1536513;-0.5495573;0;
-213.204;0;-211.7321;18.03549;-13.76274;-3.690773;-214.8832;-213.8193;0.2363071;-0.2241684;0;
-211.678;0;-202.9611;43.75443;6.479206;-0.4050224;-211.294;-214.2916;-0.2187017;0.1658609;0;
161.2849;0;140.5078;27.46863;12.63464;1.671733;154.5471;151.5524;-0.413384;-0.02920779;0;
685.9839;0;631.4323;34.99973;6.593722;-7.506364;672.194;668.3903;-0.3480012;-0.02917844;0;
517.8164;0;490.6807;32.9031;9.668555;-9.173273;507.8508;502.6766;-0.4775863;-0.09411646;0;
198.5813;0;199.209;31.7456;4.099135;-6.417877;190.3749;187.5797;-0.217237;-0.2239566;0;
209.8135;0;203.8813;34.52479;2.353704;-7.014275;198.242;198.3857;0.1727853;-0.09379686;0;
-121.5434;0;-102.1073;20.05985;5.901312;-4.528859;-127.7309;-127.1502;0.237579;-0.2236373;0;
-641.2225;0;-592.3832;-116.4542;5.425892;-3.117788;-639.2828;-637.8906;0.3023077;-0.2883799;0;
-520.0137;0;-502.5204;-137.8889;-0.3393598;-4.387209;-520.325;-517.3724;0.04213453;-0.2231228;0;
-209.7095;0;-215.9092;15.67258;-3.085685;-3.91392;-211.3947;-211.4436;-0.6725485;-0.482768;0;
-209.8111;0;-204.448;44.95461;1.740187;-0.2930314;-209.4956;-212.9802;-0.5419381;-0.2873809;0;
153.0924;0;132.6506;26.98095;1.604716;0.3101094;146.1612;143.3048;-0.02165482;0.03774459;0;
686.9202;0;633.4531;35.44957;-0.5403501;2.654078;673.874;668.959;-0.2165351;0.03770666;0;
517.8771;0;491.8249;32.7278;-0.9419488;3.455207;509.0919;501.4957;-0.5411542;0.2975382;0;
189.459;0;189.2326;31.57048;-2.481244;-1.705829;180.6202;176.3425;-0.2807411;0.3622065;0;
202.0747;0;195.0394;34.91206;-3.818897;-4.048395;189.9964;189.4086;0.109345;0.03700586;0;
-129.1494;0;-111.9398;18.19787;-1.403186;-4.848123;-133.9692;-134.3066;0.4990392;0.101936;0;
-640.2002;0;-597.5208;-113.0045;-0.3300495;-7.254637;-637.8313;-636.7315;0.3036357;0.4916376;0;
-512.7457;0;-492.223;-129.1328;-11.31443;-11.53413;-514.1897;-511.3419;-0.4113101;0.361209;0;
-216.1918;0;-211.9315;17.7982;-15.92476;-13.59901;-219.5084;-218.8499;-0.5408315;-0.09392538;0;
-211.7267;0;-204.4097;44.01712;-1.507797;-16.86739;-213.7282;-216.1313;-0.4753207;-0.4186677;0;
164.672;0;140.7473;27.48119;1.775272;-17.85519;155.4886;152.5257;-0.2799411;-0.2883123;0;
687.1188;0;630.4221;35.07474;-10.61774;-17.90423;672.1976;667.9258;-0.1497251;0.1017814;0;
513.0781;0;485.5487;32.91557;-10.67442;-17.68529;502.8569;497.0277;-0.08460733;0.1016791;0;
196.9087;0;196.2685;31.63312;-11.9365;-11.84013;188.2595;185.4972;0.2403144;-0.2232597;0;
208.2675;0;198.6325;34.91217;-14.87126;-9.55081;197.4407;198.3042;-0.01979645;-0.2230354;0;
-131.3961;0;-114.6597;18.26044;1.353305;-3.512872;-135.8403;-134.9776;0.04519079;-0.09287662;0;
-643.7565;0;-601.05;-115.878;4.901918;0.04063167;-641.3246;-638.3389;0.4349494;-0.41762;0;
-515.1115;0;-503.5573;-133.1278;-2.738817;-0.09337502;-516.2428;-510.324;-0.1501937;-0.157331;0;
-213.7451;0;-219.1315;16.74318;-2.602344;1.983068;-217.1866;-213.5227;-0.2150101;0.2326311;0;
-226.7737;0;-221.1602;44.15007;-3.938899;-0.9660519;-228.65;-227.7384;0.04507529;-0.1574067;0;
136.5841;0;112.2696;27.36412;-3.868569;-1.032064;127.5258;128.9363;-0.149872;-0.2871832;0;
686.6703;0;628.2723;35.08273;-12.83966;-3.576257;670.5621;670.2846;0.1751153;0.03794207;0;
518.8768;0;488.0237;32.92355;-16.5778;-5.046288;506.9702;504.0693;0.2399067;-0.1569981;0;
182.0245;0;180.1878;31.76603;-7.452445;-1.826158;172.2538;171.917;-0.1501384;0.1679964;0;
197.2714;0;188.44;34.7326;-6.037461;-1.623375;186.1987;188.7357;-0.2799223;0.5576317;0;
-127.0139;0;-111.786;18.206;-9.849788;0.1198128;-131.4539;-129.4191;0.04519571;0.1022999;0;
-640.6906;0;-595.493;-118.4311;-10.24203;1.459351;-639.0666;-635.722;0.1101176;-0.09270488;0;
-519.0451;0;-501.5041;-137.6149;0.4181792;0.2521919;-520.7961;-515.8307;-0.4097317;0.1672577;0;
-217.4874;0;-219.5166;15.8213;4.570945;-0.4178908;-219.6114;-217.5245;-0.5392547;0.2970243;0;
-218.2683;0;-210.0507;44.8533;-5.949846;6.2807;-216.892;-218.3679;-0.3438109;0.1667911;0;
153.4517;0;130.989;27.12962;-8.689558;8.015823;148.33;146.5432;-0.2135307;-0.1582132;0;
684.5305;0;627.6702;35.28574;1.768023;2.314342;673.3545;669.508;0.1115206;0.03684781;0;
509.9926;0;480.2383;32.81401;2.636902;2.914863;503.388;496.8592;0.3063105;0.1017781;0;
189.8283;0;186.1533;31.59414;-5.60477;-3.585166;183.7301;179.894;0.04613337;-0.1581935;0;
203.8804;0;194.0872;34.81076;-6.135002;-5.725018;194.7274;194.3309;0.04608702;-0.2230019;0;
-129.5944;0;-113.5158;18.84629;-13.36251;-1.43248;-132.8038;-133.3872;0.5657794;-0.1578105;0;
-635.5223;0;-587.9132;-114.8555;-15.42518;-2.703716;-632.3567;-631.8151;0.5002436;-0.09268457;0;
-509.6967;0;-486.0609;-133.1058;-12.79772;4.934933;-507.9085;-505.306;0.1099369;-0.02762409;0;
-216.9564;0;-216.7701;17.07751;-13.25337;6.470582;-215.6698;-215.4437;0.1747938;0.3622077;0;
-214.1772;0;-208.244;44.4216;-0.7151006;8.540429;-211.4551;-214.79;-0.08525122;0.1019744;0;
163.5982;0;141.2897;27.1981;5.247465;12.88562;159.446;156.3019;-0.3450349;-0.2879321;0;
691.4185;0;635.0245;35.35415;3.433531;-1.796227;679.8992;676.071;-0.1497862;-0.02777343;0;
513.8751;0;485.5237;32.75742;7.181125;-3.134081;506.1779;500.4796;-0.01970102;-0.2226475;0;
189.0842;0;188.6223;31.84994;11.39347;0.8880439;182.8941;180.5123;-0.08464856;0.1024129;0;
205.1985;0;197.6157;34.8789;13.12333;0.08335637;196.0161;197.4474;-0.2144982;0.6870161;0;
-122.6554;0;-102.8694;19.16423;20.67958;10.66633;-124.9571;-124.2145;-0.08434798;0.1016197;0;
-635.9616;0;-586.6478;-110.165;24.3425;13.20084;-630.3899;-628.6485;-0.01929588;0.03655021;0;
-514.3834;0;-494.6668;-128.1702;15.6105;19.55084;-512.9402;-508.7018;-0.1492112;0.2314155;0;
-213.8298;0;-212.8737;17.01065;15.66217;23.75099;-214.1997;-212.7767;-0.2140286;-0.2885558;0;
-211.3037;0;-197.7298;44.04247;9.417138;19.37336;-207.4253;-209.6268;-0.08387885;-0.4182005;0;
163.158;0;146.9832;27.5065;4.383834;20.22467;160.036;158.2115;-0.01882723;-0.09294358;0;
689.1047;0;638.5259;35.10003;16.77066;15.11377;678.7394;675.9172;-0.2786777;0.2319865;0;
511.2513;0;489.209;32.87836;15.34729;12.75418;505.769;501.7628;-0.08349563;0.3616881;0;
194.0218;0;198.3634;31.90829;20.08729;11.20088;189.0448;188.7282;0.436327;0.1014553;0;
205.321;0;201.6624;34.37498;23.75178;8.10841;197.2256;200.2826;0.4358886;-0.158516;0;
-132.528;0;-110.3211;21.09709;0.7531338;9.975784;-133.6189;-130.8773;0.1106139;-0.2882914;0;
-638.5155;0;-591.968;-105.4855;-3.936672;8.961017;-632.921;-628.558;-0.01943195;-0.3529691;0;
-515.6853;0;-502.8552;-126.3689;-1.387121;7.612354;-513.5947;-507.1747;0.04555492;-0.1577124;0;
-220.2529;0;-221.866;16.68619;-4.399837;7.135825;-219.3513;-216.0611;0.1104765;-0.09258657;0;
-209.2245;0;-195.3437;44.34301;-0.9791648;6.659896;-206.8871;-206.7236;0.3052675;0.03744114;0;
166.1097;0;147.8676;27.36946;-2.117257;6.787048;160.6362;160.737;-0.08484328;-0.02756382;0;
689.2422;0;635.1616;35.0256;9.740239;6.244487;677.0276;675.2543;-0.4745621;-0.1574708;0;
514.3872;0;488.0345;33.11635;15.22281;7.108869;506.3703;502.5998;-0.1492485;0.2324915;0;
192.2195;0;191.6928;31.39642;3.485866;4.824428;185.2101;184.6293;0.1107708;0.5570946;0;
207.2687;0;201.6826;35.36287;2.880127;4.283717;197.8301;200.873;0.1756268;0.1017634;0;
-130.9571;0;-110.9256;16.96156;10.04355;9.905857;-133.2024;-130.4748;0.2404177;0.1666285;0;
-648.9401;0;-608.0017;-118.6123;11.84212;10.6997;-644.3115;-640.3374;0.2401761;0.4912978;0;
-519.2904;0;-504.9423;-132.5486;4.462832;13.30116;-518.5396;-512.8203;0.1100001;-0.1588693;0;
-218.4821;0;-215.8924;18.25885;2.649687;14.96237;-219.8559;-216.4537;-0.2149471;-0.223677;0;
-219.8867;0;-207.1798;43.9151;8.139381;10.19167;-219.2602;-218.485;-0.08479644;0.1013845;0;
152.897;0;136.5432;27.37926;7.862783;9.176682;147.1511;147.6131;-0.2146459;-0.0286521;0;
683.539;0;632.844;35.16033;8.659165;8.631598;672.3641;670.5768;-0.2144302;-0.158558;0;
509.1895;0;484.6573;32.81366;8.717813;7.283267;503.1483;499.4262;0.3055239;-0.1583987;0;
187.5268;0;188.8188;31.84366;7.436256;4.127873;183.5531;182.3335;0.1752823;0.2315646;0;
201.1439;0;195.1882;34.68522;6.959294;1.44453;195.0503;197.0178;-0.2796652;0.5561686;0;
-137.3257;0;-120.7242;18.90828;5.210989;5.528915;-136.7915;-133.764;-0.1494496;0.1008383;0;
-645.3698;0;-609.2323;-113.3567;5.675243;6.126206;-638.2144;-633.5658;0.1755373;-0.5489364;0;
-523.2198;0;-509.42;-131.4212;-1.832548;-1.649848;-519.3201;-513.864;-0.01954108;-0.6783195;0;
-236.6504;0;-231.4851;17.13624;-3.639368;-3.724539;-234.1913;-231.6143;-0.1494561;-0.09293187;0;
-228.1043;0;-215.198;44.29287;2.659953;1.302802;-223.8361;-223.8229;0.04559607;0.2319982;0;
156.3068;0;138.528;27.38184;3.461563;1.703268;153.3868;152.6504;0.1754849;0.2967325;0;
681.0109;0;629.7043;35.10043;7.946064;0.09408832;671.2848;668.8;0.2402759;0.3614016;0;
504.9773;0;478.3973;32.94123;9.27725;0.3619255;499.5713;495.9021;0.1750672;-0.02876555;0;
191.7521;0;192.0603;31.53382;12.8179;-0.04033574;187.4759;186.4341;0.1748913;-0.09370399;0;
203.366;0;199.551;34.87544;13.00609;-0.1742611;196.0956;197.9284;0.1097482;0.1012922;0;
-138.9164;0;-116.7406;18.97337;13.66261;0.4957433;-139.3079;-137.6019;0.04467058;-0.2886136;0;
-649.5826;0;-594.5706;-118.2892;13.9173;0.3612794;-642.3525;-639.2739;0.109593;-0.2233563;0;
-524.5549;0;-491.2748;-137.1608;0.7078014;1.164711;-518.7689;-513.6319;0.3693523;0.2966069;0;
-220.7428;0;-211.7339;16.71224;-2.039576;1.498334;-215.5873;-213.1416;0.5638832;0.4262435;0;
-218.522;0;-203.9;44.74385;-16.10272;-1.450299;-211.4976;-212.4277;0.2384799;0.5557499;0;
143.016;0;131.1991;27.08274;-24.79408;-2.520568;144.0363;143.357;0.1732729;0.4902242;0;
675.1672;0;629.9415;35.42632;-6.014921;-1.647258;669.3774;666.9497;0.1081315;0.03496017;0;
504.2619;0;486.3179;32.82951;-4.869802;-2.516381;502.351;497.8642;-0.02191187;-0.2249443;0;
177.919;0;186.917;31.73456;-6.740919;-1.10721;178.5087;176.5252;-0.08685719;-0.2896856;0;
195.6687;0;195.9745;35.07598;-4.389621;-0.3692856;193.1969;194.0265;-0.4116066;-0.2244272;0;
-141.9208;0;-117.1276;17.92434;-6.997178;-6.129325;-138.3307;-136.6898;-0.4761604;-0.02929969;0;
-655.9573;0;-598.7678;-118.3377;-6.18684;-7.663774;-645.874;-642.3608;-0.1508452;0.0356971;0;
-530.0486;0;-497.2169;-135.6475;-7.386073;-4.909772;-524.7856;-518.902;-0.215661;0.360498;0;
-236.9756;0;-227.2902;16.84969;-7.311302;-5.775617;-233.8417;-230.6503;-0.4753137;0.4251031;0;
-225.4306;0;-209.758;44.38141;-6.90279;-1.951909;-220.2385;-220.1737;-0.279934;0.1648065;0;
157.6035;0;143.088;27.28289;-5.220915;-0.4763231;156.2312;156.8582;0.1751186;0.2945756;0;
674.3103;0;624.3273;35.3764;-8.096057;-6.236255;667.0674;666.007;0.3048773;0.359247;0;
493.2234;0;469.9647;32.84211;-7.149917;-6.899818;490.4855;487.4273;0.04470164;-0.0958854;0;
182.8836;0;186.8845;31.74714;-1.717725;-6.624953;181.8351;182.0283;-0.1502453;0.09911299;0;
193.8817;0;192.5063;34.7762;-1.381206;-7.288126;190.3979;193.527;-0.02015965;0.03404605;0;
-150.5776;0;-126.9641;20.18607;16.16995;-6.209075;-148.1233;-144.6851;0.23973;-0.4857269;0;
-646.8643;0;-595.1636;-109.3316;22.91886;-6.202837;-638.2905;-632.7318;0.1745217;-0.3553042;0;
-516.6544;0;-488.4939;-126.9004;11.03949;-5.325826;-510.3381;-503.7855;-0.1504903;-0.03011043;0;
-225.3439;0;-216.7644;18.5291;10.8283;-4.784611;-219.034;-215.9238;-0.08537177;0.2297892;0;
-217.4963;0;-202.6161;43.87273;10.75007;-6.253428;-209.4436;-209.2725;0.1745834;0.4244603;0;
155.0351;0;139.4156;27.39941;9.199026;-7.385854;155.7708;156.3791;-0.2153961;0.1641645;0;
684.9879;0;634.5266;35.30539;6.576839;-2.421818;678.7888;678.7718;-0.7998857;0.03406482;0;
506.6389;0;484.3392;32.64623;5.900645;-1.079726;504.0693;502.2406;-0.6691473;0.2939;0;
174.1716;0;179.568;32.05121;-3.147614;-8.580607;172.6666;173.2761;-0.2786709;0.09870263;0;
196.9851;0;195.0672;34.39281;-8.503085;-9.576608;193.1078;197.0899;-0.1484562;-0.09629858;0;
-131.6728;0;-106.1025;20.17788;11.39878;-9.700951;-127.1754;-124.0093;-0.08333971;0.09870022;0;
-644.72;0;-588.8782;-105.2793;15.74158;-10.22707;-631.6689;-627.6315;0.1116461;0.2935031;0;
-519.135;0;-493.4592;-124.2265;9.026984;-6.867766;-509.4703;-503.313;-0.01840081;-0.03162857;0;
-226.3852;0;-220.6627;17.51466;12.97003;-4.650428;-217.8548;-214.5772;-0.08334966;-0.09656413;0;
-219.786;0;-204.7614;43.98375;4.45053;-6.186363;-209.0777;-209.0517;0.3065381;0.09843494;0;
159.9941;0;144.5189;27.57278;2.905817;-5.577301;163.8201;163.5336;0.1762954;-0.4863701;0;
680.9464;0;632.9406;35.16624;14.62454;4.810414;678.7715;675.2995;-0.08375106;-0.6807833;0;
497.2916;0;476.8828;33.13192;15.94902;7.886673;499.3044;493.2746;-0.01869957;-0.3552626;0;
177.8898;0;183.8631;31.78678;21.15791;8.950476;180.4627;177.5624;-0.1486155;-0.1600036;0;
192.641;0;193.0487;34.6284;24.21713;11.28588;191.7756;191.8767;-0.08349879;0.4898306;0;
-146.3822;0;-119.4258;20.91298;19.43737;5.380169;-141.8745;-140.9614;0.3063892;0.6842404;0;
-648.0454;0;-590.5689;-108.7928;19.75264;3.633207;-636.5457;-633.6345;0.5659507;0.03387947;0;
-520.5206;0;-490.8379;-128.1113;15.7143;3.562573;-511.2813;-506.6863;0.2405453;-0.2260239;0;
-228.5815;0;-222.4793;17.75671;12.48333;2.152352;-220.7883;-218.8841;-0.08453312;-0.03089481;0;
-218.9815;0;-204.952;44.22555;15.35118;-2.605477;-208.8223;-209.9811;0.2403885;0.03410358;0;
158.6113;0;144.391;27.18965;13.05857;-4.880157;162.5135;161.5433;0.1102123;-0.09586538;0;
684.4376;0;636.2486;35.34572;12.24117;-1.392263;681.1519;679.1832;-0.01983313;-0.1607364;0;
499.3425;0;478.8756;32.81146;12.29622;-0.05120518;500.9952;496.9045;-0.1497479;0.03432714;0;
172.0675;0;179.6695;31.77899;-1.045374;-3.66811;175.655;174.7544;-0.6043688;0.3591294;0;
196.1324;0;196.418;34.93296;-6.135514;-3.865373;196.5929;198.8791;-0.4088595;0.1638665;0;
-137.0847;0;-110.3128;18.09381;2.846607;4.176219;-130.0655;-128.4063;0.04632271;0.0987345;0;
-648.0651;0;-589.586;-110.2973;2.508955;5.377715;-633.9315;-630.7747;0.2411782;0.22857;0;
-516.6046;0;-485.6705;-125.8037;0.965216;10.12798;-505.6711;-500.4561;0.1759685;-0.2913984;0;
-218.4227;0;-209.0713;18.00052;1.70118;12.19415;-209.3118;-207.5377;-0.08407767;-0.4860077;0;
-213.8929;0;-196.3675;43.59455;0.2929515;6.354626;-202.9171;-204.8304;0.1109088;-0.1606826;0;
161.3835;0;151.3427;27.62126;1.565455;6.013326;166.4138;165.0645;0.2407321;-0.4203905;0;
680.8976;0;638.4457;34.9648;-1.517577;-1.293733;679.6135;677.7034;-0.01937918;-0.7448048;0;
498.3674;0;481.1954;32.80574;-1.917218;-3.636714;500.2704;496.6132;0.110575;-0.09438303;0;
183.3372;0;193.4188;31.83574;4.380373;-7.183156;185.8631;184.7082;0.1754312;0.6203526;0;
199.2074;0;203.969;34.36497;5.782491;-10.52496;199.0446;201.5765;0.1102876;0.09999052;0;
-143.3831;0;-113.7013;22.77374;11.87225;-2.007798;-136.9241;-133.7076;0.3700461;-0.09501199;0;
-647.6105;0;-587.9736;-101.6866;17.01788;-1.402935;-633.5993;-629.2616;0.304707;0.09998551;0;
-521.2105;0;-489.1198;-122.0741;5.948722;3.153193;-509.7121;-504.1294;0.2394335;-0.3548864;0;
-235.5801;0;-224.4486;18.41549;4.669947;5.963307;-225.9049;-223.0764;0.3041602;-0.2895624;0;
-223.3494;0;-203.6084;43.75924;14.10973;2.072305;-212.3096;-212.295;-0.1509168;0.4903366;0;
161.9939;0;150.106;27.3485;13.02382;2.941001;165.5889;165.6035;-0.6705039;0.3599093;0;
683.8812;0;638.5221;35.12959;24.79973;-2.286501;681.1633;679.4911;-0.6698301;-0.4850278;0;
503.0346;0;486.0818;32.78296;29.99973;-4.829432;504.8171;500.8354;0.04548365;-0.4195731;0;
174.3191;0;183.9325;31.81298;7.664387;-3.150129;177.2243;175.308;0.5651767;0.3604566;0;
188.949;0;191.0565;34.46717;2.901263;-5.223312;189.7898;190.9364;0.4346741;0.100225;0;
-135.2654;0;-108.6099;20.50204;9.663503;-6.490739;-127.4915;-126.2836;0.3043027;-0.2247124;0;
-642.9993;0;-585.3861;-106.8296;7.777782;-8.493706;-628.6115;-626.3428;0.2390296;0.3602195;0;
-518.4155;0;-488.3464;-126.15;4.956928;-7.815342;-507.4779;-503.5248;-0.02107999;0.2299228;0;
-219.3571;0;-211.8694;17.59211;3.210635;-7.539557;-210.1172;-209.0417;-0.1509935;-0.09514491;0;
-215.0762;0;-199.2253;44.06112;5.819377;-13.9621;-204.034;-206.9576;-0.08587443;0.1648201;0;
160.0764;0;144.927;27.46266;5.747157;-14.08204;164.5483;162.0025;-0.2806902;0.09968711;0;
682.9027;0;632.9735;35.11871;4.86975;-18.15384;680.2487;677.9553;-0.4103428;0.1645543;0;
498.1215;0;475.3539;32.89702;4.195272;-20.68083;499.0309;494.5535;-0.2150285;0.2943236;0;
179.1561;0;182.1484;31.802;4.525849;-6.727969;182.0636;180.5266;-0.1498451;0.03415851;0;
196.3423;0;194.1468;34.39372;3.851716;-3.840943;196.7482;199.0233;-0.1496945;-0.2907125;0;
-143.3718;0;-122.1394;22.5526;2.240256;-2.966427;-136.5946;-134.6965;-0.2145114;-0.3553877;0;
-646.5997;0;-602.9;-102.907;3.309731;0.05078554;-631.8958;-628.6253;-0.2792632;-0.1601286;0;
-517.4521;0;-498.5338;-123.4807;-8.883756;-5.039846;-505.6365;-500.4952;-0.1490479;0.164869;0;
-225.5161;0;-221.7343;18.0098;-12.15736;-5.704612;-215.8988;-213.7612;-0.0189635;0.294638;0;
-214.1701;0;-201.8963;43.8537;-2.768021;-7.038538;-202.7509;-203.5515;0.1109902;-0.09546211;0;
165.292;0;148.5055;27.3804;-2.229376;-9.24178;169.2659;169.2783;-0.5387947;-0.6151049;0;
681.5538;0;630.5514;35.09899;3.399918;-8.964562;678.5273;677.1653;-0.3433513;-0.2896501;0;
498.5231;0;476.7448;32.81485;5.606329;-9.960299;500.872;497.0751;0.6964712;0.2303796;0;
179.0575;0;185.8492;31.59498;9.753881;-12.29469;182.9657;182.3585;0.241;0.1002135;0;
193.4953;0;191.7844;34.68666;12.95926;-11.88044;194.8383;196.8554;-0.0840789;-0.02982192;0;
-141.3434;0;-116.5659;19.65935;6.314807;-15.35149;-132.3806;-131.365;-0.01902707;0.2950447;0;
-647.5095;0;-596.9572;-110.7948;6.107392;-15.93892;-632.3712;-629.1702;0.1758941;0.09984628;0;
-521.1095;0;-502.5296;-128.6745;3.288216;-8.28709;-510.6091;-505.2875;0.5655214;-0.09515609;0;
-226.7336;0;-224.4766;17.81875;2.481605;-6.872122;-217.0559;-215.3627;0.1751491;0.1648089;0;
-223.1325;0;-207.9468;43.97519;-3.349014;0.3688178;-210.5284;-212.1478;0.04503842;0.4245127;0;
156.0262;0;143.8979;27.31435;-7.900001;3.784455;161.2463;160.3157;-0.01997418;0.3591188;0;
686.2279;0;640.3787;35.28289;8.518634;2.374011;684.6337;681.58;-0.1498888;0.2288232;0;
505.0041;0;486.2499;32.74869;11.05469;5.117925;507.8467;502.6723;-0.08477084;0.03369129;0;
181.5965;0;191.2219;31.96616;4.614201;-5.001396;186.4977;184.5143;-0.2146204;-0.3561466;0;
195.7193;0;197.7763;34.37032;4.743286;-7.608705;197.6171;198.072;-0.08447001;-0.6156581;0;
-146.0556;0;-119.1382;21.21738;2.595066;-2.108581;-139.0998;-139.0201;0.2404516;-0.1602681;0;
-650.8426;0;-598.465;-104.6157;2.592459;-2.910258;-637.1471;-635.4434;0.1752426;0.3596317;0;
-521.5657;0;-499.1633;-124.3756;-8.261137;0.2408644;-510.7576;-507.1815;0.3050012;0.2293356;0;
-233.3113;0;-226.486;17.7405;-12.80816;1.78123;-223.451;-222.065;0.04482539;0.09917051;0;
-224.0814;0;-206.206;43.95949;-4.891064;2.315181;-210.9827;-212.1592;-0.02018699;0.2290055;0;
158.7639;0;147.3236;27.36114;-5.489362;4.657258;165.3528;164.9895;-0.08513405;-0.09606128;0;
682.1537;0;638.8659;35.01728;-4.813285;2.375159;681.8644;680.5645;-0.3449179;-0.4208015;0;
502.3708;0;486.2379;32.85817;-3.736722;2.774669;506.4546;502.8447;0.1751674;-0.0305746;0;
181.4646;0;192.4592;31.70071;-5.005764;7.527548;188.5428;187.6851;0.2399588;-0.1604786;0;
194.4007;0;200.0744;34.54242;-4.665942;8.390762;199.5977;202.2391;0.04481563;-0.3552193;0;
-146.5609;0;-114.781;21.70164;-4.728603;10.25785;-135.9343;-133.7329;-0.02019674;-0.0300257;0;
-648.5987;0;-587.3655;-102.8825;-5.594508;10.64944;-631.1113;-628.2249;-0.3450131;0.09993917;0;
-514.1392;0;-480.3289;-120.8326;-3.177013;10.10288;-499.2931;-494.9103;-0.1497645;0.1648061;0;
-226.0797;0;-214.1048;19.03107;-2.637957;9.891779;-212.3104;-210.3058;-0.01967929;-0.03026155;0;
-223.1664;0;-205.2065;43.43717;-7.525426;5.327123;-207.162;-208.2829;0.04530782;-0.09519848;0;
158.3662;0;146.2606;27.5265;-7.04935;3.915128;167.1706;164.9888;0.1102296;0.2947012;0;
683.8179;0;638.6161;35.05754;-9.453164;-1.71525;684.9297;681.6882;-0.0198158;0.2294378;0;
502.2217;0;483.8019;32.83592;-8.037147;-5.129534;506.5808;502.468;-0.3446326;0.0343052;0;
179.3791;0;186.465;31.49108;-6.889995;-1.038543;185.0457;183.3108;-0.474221;0.09923808;0;
191.4427;0;194.0237;34.89521;-5.744972;-2.310175;195.6044;197.2445;0.04599424;0.4239751;0;
-152.7642;0;-124.5737;17.74376;6.85408;-0.03043414;-141.2355;-139.0347;0.24085;0.3585817;0;
-659.8558;0;-611.9535;-113.8954;9.325439;0.7733916;-642.2167;-638.5814;0.1106734;0.2932541;0;
-522.3865;0;-505.3918;-128.2112;23.58234;-2.643515;-508.6382;-503.4448;0.04559481;0.4228941;0;
-222.8869;0;-221.0892;18.71882;29.65421;-2.238961;-210.7141;-209.5864;0.1105163;0.03266511;0;
-216.541;0;-203.7506;43.56252;17.76904;-5.786685;-203.0686;-205.3154;0.1753726;-0.03233505;0;
164.4852;0;149.0269;27.40184;18.42077;-6.91958;170.7601;169.5776;-0.279575;0.2925341;0;
685.6828;0;636.8818;35.05795;2.728503;-4.166327;685.9545;682.9615;-0.4741961;-0.03259651;0;
496.3387;0;474.3233;32.83632;-3.838322;-4.162141;500.9829;496.1814;-0.08391556;0.03240359;0;
176.7504;0;182.1808;31.80383;-0.08342119;-3.95701;183.4513;182.5902;-0.1487986;0.09733839;0;
190.8156;0;190.8683;34.45802;-3.633311;-4.890795;195.7607;197.8365;-0.2785838;-0.3575308;0;
-151.3917;0;-125.602;20.99265;-2.02207;-0.06323155;-140.5795;-139.1306;-0.01843446;-0.4871062;0;
-649.3642;0;-596.7389;-106.8392;-4.02977;0.6066613;-633.0032;-629.6191;0.1764861;-0.1617801;0;
-518.4022;0;-493.4409;-125.5349;7.361134;-4.350563;-506.3055;-500.6135;-0.148528;-0.2265849;0;
-228.2144;0;-223.1432;18.14408;11.03743;-4.614123;-218.0664;-215.7534;-0.01844403;-0.2913246;0;
-217.2405;0;-204.6782;43.73798;2.318805;-10.90576;-204.7913;-205.979;0.3064112;-0.1610972;0;
160.538;0;145.4766;27.32726;2.182753;-11.89955;166.2281;165.9162;-0.1486681;-0.29087;0;
683.801;0;636.4585;35.17084;-2.44114;-16.44231;682.8013;681.3653;-0.213486;-0.355545;0;
504.0789;0;482.8959;32.7617;-5.452797;-19.17196;507.6404;503.7696;0.4364019;-0.1602858;0;
173.4884;0;179.8752;31.66681;-7.054909;-8.502658;178.8578;178.3642;0.5009307;-0.09515736;0;
187.0571;0;188.5026;34.69595;-9.860859;-8.159322;189.4852;193.1774;0.04565602;0.1648076;0;
-144.2144;0;-116.2837;19.29382;-9.9183;1.025416;-135.9792;-132.603;-0.08432454;0.03470734;0;
-653.9382;0;-596.5504;-111.9721;-9.707263;4.574359;-639.1521;-634.8422;0.1756296;0.1646072;0;
-522.6592;0;-492.628;-129.1634;-13.11376;-1.659528;-511.5737;-505.8314;0.0455184;0.5542458;0;
-222.0349;0;-211.9613;18.20488;-11.96151;-0.05026965;-212.0224;-209.7217;-0.01949468;0.2288522;0;
-219.5005;0;-201.0037;43.98612;-9.403893;-14.3842;-207.0618;-207.6369;-0.1494098;-0.3560838;0;
158.6551;0;146.2113;27.20034;-8.122623;-18.99145;163.8349;163.4478;-0.2791943;-0.3557261;0;
684.1064;0;637.1926;35.23146;3.741884;-14.55161;682.7844;679.9614;0.04592291;-0.4203359;0;
497.7624;0;477.5072;32.75978;7.35447;-16.34553;499.5026;495.1832;-0.2139926;-0.3549463;0;
176.1112;0;182.8628;31.72737;10.69696;-15.12341;179.099;178.2821;-0.4736469;0.03521444;0;
189.8647;0;192.799;34.38164;12.76232;-16.04598;192.0374;193.8451;-0.4082037;0.3600158;0;
-154.7155;0;-124.5478;22.35312;13.82122;-4.643002;-145.1736;-143.9925;-0.2128915;0.4895887;0;
-651.8101;0;-592.4999;-101.1698;16.62037;0.1843128;-635.0939;-632.7271;0.1771265;0.2292274;0;
-513.5368;0;-479.7734;-119.8087;-3.490722;-6.714993;-499.8984;-495.41;0.1119812;0.1640297;0;
-230.6003;0;-217.8602;19.30433;-9.04692;-4.229877;-218.2874;-216.3022;-0.08303339;0.1638649;0;
-222.3726;0;-205.46;43.33535;-6.291163;-9.785088;-208.3854;-209.5257;0.1119521;-0.4210058;0;
164.2816;0;149.7555;27.36231;-11.64348;-11.65078;170.6335;169.4944;0.1118396;-0.3556154;0;
679.4825;0;631.4254;35.14339;4.444127;-3.132483;679.6436;677.0689;-0.3430442;-0.09538876;0;
495.2046;0;474.432;32.6718;9.127735;-2.79442;499.8008;495.6045;-0.5376015;-0.03032557;0;
172.5564;0;180.4153;31.70194;9.453356;0.08865342;179.147;177.8909;-0.0173226;0.2945416;0;
185.6264;0;188.7298;34.79352;21.90244;1.160291;190.2738;192.892;0.1775968;0.09934364;0;
-149.7667;0;-121.9288;18.07944;-5.916144;-2.658902;-139.002;-135.9491;-0.1474183;0.03427647;0;
-658.6728;0;-603.1268;-110.4991;-8.254725;-3.861801;-641.1098;-636.9356;-0.2772049;0.09920938;0;
-521.1423;0;-492.6385;-126.0677;26.65107;-6.939136;-507.5324;-501.5508;-0.08202433;-0.225727;0;
-218.0832;0;-208.8484;17.92417;27.56132;-9.477392;-206.2362;-203.0092;0.1129601;0.1643039;0;
-221.2998;0;-204.0784;43.64322;74.15277;-12.81702;-207.0909;-207.3029;0.4376833;0.1641387;0;
155.2334;0;142.4526;27.42;92.83348;-15.08144;162.8688;163.0318;0.4372435;-0.1608629;0;
684.3114;0;638.7474;35.01362;53.28835;-20.15686;686.1296;684.9806;-0.0179672;0.09916812;0;
502.4648;0;484.6827;32.79203;54.90877;-22.88291;508.4041;505.3198;-0.08291649;-0.03086622;0;
184.557;0;192.7172;31.63465;27.65926;-20.51551;191.7397;191.9693;-0.01786583;-0.09580255;0;
192.3675;0;194.5226;34.35148;12.62729;-21.43266;197.4191;201.0842;0.2420215;0.0342284;0;
-156.4005;0;-125.5746;22.01065;30.03065;-18.53086;-144.4201;-141.2584;0.371713;-0.09574068;0;
-648.6209;0;-591.2767;-100.3875;23.16798;-18.37827;-629.3436;-625.1232;-0.1483992;0.1642249;0;
-511.7876;0;-488.6089;-117.9027;27.23053;-16.28346;-496.028;-489.9377;0.1765866;0.09909255;0;
-229.7898;0;-226.8118;19.52172;26.53359;-15.0614;-215.3579;-212.5221;0.5662132;-0.6806151;0;
-222.6874;0;-207.7184;43.11524;25.36785;-21.74444;-206.146;-206.8738;0.2408075;-0.3550946;0;
156.0336;0;142.3145;27.45477;28.82596;-22.72733;164.6249;164.7099;0.2405656;-0.09486837;0;
674.9909;0;627.7399;34.98588;10.31019;-27.86206;677.2017;675.8499;0.1753565;-0.1597404;0;
497.2142;0;476.8722;32.63939;5.142271;-31.11611;504.5452;500.0089;-0.01972171;0.1652568;0;
176.3131;0;182.2283;31.48216;19.2023;-25.25745;184.6363;182.6033;0.04526545;0.03515609;0;
195.0015;0;194.3516;34.69889;19.11663;-24.36129;199.943;201.9724;0.1751547;-0.1597813;0;
-142.275;0;-116.1253;18.42219;16.61918;-27.88691;-130.342;-128.1272;0.239946;0.165216;0;
-652.9378;0;-594.7679;-109.0947;15.99927;-27.52397;-633.5206;-630.6208;0.04480287;0.1000827;0;
-513.9763;0;-481.5394;-123.9151;14.30923;-23.27639;-498.3891;-493.6807;-0.2151115;-0.0299526;0;
-215.8594;0;-205.694;18.57534;13.35684;-21.57855;-202.3493;-199.6446;-0.34483;0.2949142;0;
-220.64;0;-202.9261;43.23177;7.984788;-20.75308;-205.5818;-205.3161;-0.2795162;0.3595852;0;
156.892;0;146.4773;27.57118;6.101731;-20.12938;165.3134;166.4534;0.04560135;0.2292892;0;
685.3437;0;640.4567;34.91478;3.215212;-16.69314;687.2599;687.0244;0.2404575;0.2940262;0;
502.4966;0;482.5797;32.69329;2.407698;-15.60464;508.0341;504.1757;0.1752486;0.2287634;0;
179.7787;0;186.1811;31.84835;-2.886007;-18.93799;186.4975;184.8918;-0.1497642;0.2935009;0;
186.7195;0;186.5562;34.12769;-6.433081;-18.78499;190.4955;193.2018;-0.2795484;-0.2915001;0;
-157.7951;0;-131.5339;22.47424;9.783009;-24.39256;-147.5261;-145.3223;0.3704059;-0.2262399;0;
-649.7017;0;-594.2941;-99.7994;12.58622;-26.17659;-632.0718;-628.6208;0.3700337;0.3586935;0;
-512.0552;0;-486.7507;-120.0014;5.071483;-24.40873;-497.4415;-491.4952;0.0448252;-0.1614056;0;
-229.1202;0;-223.9559;18.04983;2.454419;-25.188;-216.2078;-213.1411;0.2396822;-0.4211128;0;
-218.0829;0;-204.9279;43.45642;5.398714;-19.3353;-204.4963;-204.681;-0.02042801;0.09904908;0;
172.1277;0;154.4725;27.23339;3.048764;-17.10556;177.9545;178.2697;-0.2802769;0.03398219;0;
686.9459;0;639.4484;34.82719;-4.590109;-17.89204;686.395;685.7729;-0.02012586;-0.355856;0;
501.2861;0;480.8228;32.7932;-3.781214;-16.93643;504.4839;501.9259;0.109829;-0.2255637;0;
183.2545;0;185.7378;31.51088;-38.00533;-12.6325;188.0109;187.3295;-0.3450527;0.2944016;0;
189.6921;0;187.8;34.66511;-50.29102;-10.61044;193.2567;195.3246;-0.2797387;-0.0307309;0;
-153.2637;0;-127.2304;18.82573;-19.49618;-14.81958;-142.2689;-140.0782;0.3702158;-0.4854714;0;
-655.7946;0;-598.678;-110.0659;-17.33313;-14.73771;-637.7518;-634.6262;0.4997785;-0.1601469;0;
-516.2054;0;-485.0708;-126.447;-10.55056;-15.45971;-502.5536;-497.3698;0.5642437;0.0998834;0;
-217.6491;0;-210.9085;17.92002;-3.172572;-15.24323;-206.7596;-204.2671;0.4987094;-0.3549884;0;
-223.115;0;-209.0724;43.63908;-5.245489;-17.10344;-209.7378;-210.8084;0.2383389;-0.2896643;0;
156.481;0;142.7735;27.22846;-1.087033;-18.22484;163.473;162.9656;-0.02176992;0.1004308;0;
687.2444;0;638.7556;35.07214;-0.01421352;-10.6377;687.2953;685.789;-0.6064541;0.2302646;0;
500.7097;0;478.8188;32.6631;1.458693;-9.488299;504.8836;501.2548;-0.281008;0.4249352;0;
181.4294;0;184.4854;31.63078;-2.694982;-7.134484;187.0358;185.6595;0.239013;0.4245082;0;
198.6758;0;194.0452;34.53502;-5.506289;-5.720674;201.1532;203.0267;-0.02109648;0.294147;0;
-145.6009;0;-123.1779;20.38242;-1.950783;-8.929985;-137.5663;-135.1325;0.04389206;0.1639168;0;
-647.6396;0;-599.877;-103.1385;-2.75213;-9.121961;-633.1789;-628.7485;-0.4109235;0.03381736;0;
-506.8094;0;-491.7033;-119.589;-8.108;-15.677;-495.8614;-489.8112;-0.5404452;0.2936528;0;
-218.4448;0;-222.5943;18.96155;-8.769438;-18.54139;-208.4448;-205.8366;0.434608;-0.03147903;0;
-217.9754;0;-211.1263;43.11784;-13.04753;-20.3313;-205.112;-205.0675;0.4341712;-0.3562841;0;
170.6733;0;148.7801;27.3949;-14.37359;-23.52593;176.2151;176.8841;0.04393094;-0.09605674;0;
689.366;0;634.324;34.86361;-10.60908;-18.88059;686.8438;686.0129;0.1738215;-0.03099288;0;
500.4554;0;473.7045;32.64217;-11.67015;-18.32576;502.3085;499.542;0.3035815;0.0340056;0;
189.6086;0;190.4332;31.60988;1.60444;-21.18761;194.3958;194.6306;0.1083744;0.1639061;0;
200.475;0;197.8005;34.45167;6.559321;-20.22856;203.8831;206.9287;-0.1516038;0.2936761;0;
-148.9884;0;-124.174;20.04928;-2.288529;-20.40918;-138.6497;-135.7321;0.1084179;0.09847901;0;
-647.463;0;-603.3083;-102.7841;-0.5449169;-19.45091;-631.3251;-627.2236;0.1083089;-0.09652198;0;
-509.2566;0;-497.5674;-118.3605;-5.903004;-16.08234;-496.9455;-492.7231;-0.08670191;-0.03145766;0;
-217.6412;0;-218.1452;19.31431;-7.705734;-14.12368;-206.8417;-205.6221;0.2382219;-0.09639339;0;
-215.8608;0;-204.4328;42.9705;-3.478432;-11.49728;-203.6354;-204.3535;0.1080479;-0.09629653;0;
162.0412;0;142.5358;27.56005;-4.746759;-9.476234;167.1329;166.603;-0.1519301;-0.03123243;0;
685.1779;0;633.021;34.77871;3.027543;-5.849757;684.33;682.3013;-0.08681007;-0.3560378;0;
504.2675;0;481.3358;32.61983;5.636469;-3.36551;507.9806;504.0799;0.04321184;-0.4856147;0;
185.046;0;187.9369;31.40016;0.1384491;-6.175412;189.5675;188.5443;0.3680051;-0.16029;0;
198.2284;0;194.5572;34.74191;0.7415224;-6.571105;199.6843;202.0979;0.1727333;-0.03019429;0;
-146.6726;0;-125.9148;18.09035;-1.536398;-3.215355;-138.6588;-136.1852;0.1075924;-0.03016395;0;
-654.5823;0;-611.6066;-109.9885;-2.67393;-3.078158;-639.2678;-636.172;0.3673537;-0.03013365;0;
-514.0574;0;-493.0514;-124.1208;0.07542256;-5.486451;-501.0071;-496.6651;-0.1527542;-0.1600381;0;
-217.3772;0;-207.6991;18.55728;0.007997809;-6.150767;-205.7144;-203.688;-0.41247;-0.0949099;0;
-214.0354;0;-198.5574;43.21373;0.3427824;-8.622833;-201.5722;-201.9841;-0.1521862;-0.02984719;0;
170.549;0;154.4648;27.36576;1.012023;-9.953828;175.3785;174.6546;-0.2170006;-0.2896866;0;
688.1799;0;639.6281;34.77202;-1.600962;-9.407963;686.5702;683.2858;-0.2167826;-0.02952613;0;
503.5808;0;482.1892;32.73809;-2.603731;-9.867391;506.0333;500.5658;-0.1515974;0.03547088;0;
189.9822;0;194.9738;31.39335;3.560827;-9.522561;193.9939;192.2176;-0.1514451;-0.2894015;0;
194.1641;0;194.0908;34.73511;5.633354;-9.44601;196.5476;198.8335;0.3684458;-0.2891107;0;
-158.7287;0;-132.4402;18.45838;-0.7353193;-8.967638;-149.2887;-147.0675;0.7578796;0.03601654;0;
-658.3181;0;-601.3839;-108.9336;-1.404166;-9.159575;-642.5157;-639.1099;0.367314;0.2308824;0;
-515.4155;0;-483.4636;-121.9426;0.6733501;-6.605143;-503.6271;-498.4131;-0.2827284;0.2306504;0;
-221.7325;0;-213.4882;19.67131;-0.1306337;-5.794711;-211.9549;-209.4323;-0.3474117;0.295386;0;
-218.0115;0;-204.5281;42.95233;1.811881;-9.338861;-206.557;-207.3478;0.1726761;-0.09471489;0;
166.0771;0;148.1252;27.5419;1.407918;-9.999308;170.0863;169.3588;0.1725026;-0.3544891;0;
685.649;0;632.4828;35.01046;1.673947;-11.12797;683.5947;681.0563;0.04239459;-0.1592309;0;
497.7417;0;474.489;32.66394;1.940685;-11.78662;500.2497;495.9023;0.1722867;-0.02913619;0;
182.5247;0;185.5322;31.38175;-5.429631;-12.84638;185.3425;184.8101;-0.0877558;0.1008278;0;
196.7716;0;190.2183;34.78599;-7.968795;-13.03442;196.713;199.5544;-0.2825696;0.1656938;0;
-152.3133;0;-132.1234;16.44773;-10.64011;-10.94497;-145.4378;-142.9741;0.04255099;-0.3542114;0;
-655.5947;0;-609.6255;-113.3161;-15.9207;-9.527335;-642.1044;-638.1439;0.1724429;-0.3538555;0;
-510.4461;0;-499.9428;-124.8214;-5.589575;-9.986642;-500.7799;-495.0118;0.237237;0.1662388;0;
-213.6446;0;-222.1424;19.29417;-4.312137;-9.641693;-206.4869;-203.6606;0.3669333;0.2310391;0;
-212.1806;0;-207.9262;42.95038;-20.65115;-1.259382;-203.6558;-203.3935;0.2366299;0.1008723;0;
168.7788;0;142.4192;27.47748;-24.44782;1.622149;171.4854;172.5595;0.1714248;-0.02916379;0;
685.4744;0;628.7191;34.7587;-23.95474;0.3478434;683.2433;682.942;0.2362199;-0.5488732;0;
497.2549;0;471.1663;32.59984;-25.8057;2.557931;499.2114;497.2237;0.3659172;-0.3534197;0;
179.3523;0;178.8395;31.56759;-29.39709;-2.803152;183.4932;183.569;0.3005822;0.03673948;0;
188.7922;0;182.4704;34.40942;-31.30994;-4.139994;191.6172;194.1292;0.1703455;-0.09323212;0;
-154.7249;0;-137.0524;19.25745;-23.77639;-0.04999739;-145.4685;-143.1465;0.3650764;0.03679624;0;
-653.1313;0;-611.5511;-108.885;-21.07318;-0.1169301;-637.2001;-633.7559;0.3647095;0.1017266;0;
-514.8568;0;-500.9919;-125.2048;-21.18671;-0.1837955;-502.6896;-497.3124;0.3643431;0.03665705;0;
-223.4231;0;-224.6896;18.22394;-18.08396;-0.2505938;-212.5801;-209.4572;0.2340423;0.1665549;0;
-216.2646;0;-206.5978;43.318;-15.45382;0.4864703;-203.3085;-203.2497;-0.09102958;-0.1584492;0;
166.323;0;145.308;27.22005;-12.02204;0.5529644;171.395;171.5787;-0.09093812;-0.4181593;0;
677.8986;0;625.0457;34.81387;-13.68392;1.49017;676.2814;675.7778;-0.1558141;-0.1578698;0;
495.059;0;472.0568;32.59248;-14.54083;2.627382;497.9412;495.9388;0.0392445;-0.09274381;0;
182.6559;0;186.4758;31.56024;1.95085;-1.996958;187.4092;187.7827;-0.02576227;-0.02768328;0;
193.0295;0;191.7232;34.33961;8.244553;-2.329866;195.0294;199.1507;-0.4805078;-0.0926228;0;
-148.6803;0;-123.1863;19.12524;-7.772286;-0.4521249;-141.1227;-137.0056;-0.09022091;-0.2224644;0;
-656.2132;0;-603.5085;-110.3289;-8.232991;-0.116756;-642.2289;-637.991;0.2996738;-0.0923062;0;
-520.809;0;-495.8309;-128.5214;-5.076887;3.433335;-510.2746;-504.2918;-0.1553987;-0.4170502;0;
-217.0007;0;-212.1001;16.97221;-6.076163;4.568595;-208.4758;-204.9978;-0.09027522;-0.5465658;0;
-211.6602;0;-199.2683;43.81666;1.967894;8.716824;-201.7071;-201.6059;0.2346522;-0.02627787;0;
168.3616;0;151.6931;26.96858;3.573507;10.78454;171.7454;171.6591;-0.02545295;0.3635526;0;
688.9306;0;640.3575;34.99993;6.382956;9.568007;686.8139;685.7281;-0.4152314;0.4281546;0;
502.082;0;481.8559;32.46601;8.787439;10.83107;504.59;501.9437;-0.3498469;-0.02704697;0;
185.5488;0;190.9552;31.49636;4.692773;6.600383;188.7415;188.1593;-0.1545933;0.1029149;0;
196.1694;0;196.0732;34.33827;4.353265;5.65599;196.4229;198.8397;-0.08947063;0.3626809;0;
-153.2896;0;-125.8996;19.62365;3.611956;6.052204;-146.2898;-143.6255;-0.08938073;0.1674144;0;
-654.8209;0;-607.5309;-103.0219;2.603949;4.84043;-641.3314;-636.9832;0.04064376;0.2971809;0;
-509.6731;0;-497.538;-119.2227;0.2568081;9.792181;-500.3825;-494.1646;-0.4141685;-0.2228565;0;
-217.4951;0;-220.1147;18.45293;-1.552111;11.45692;-210.2128;-207.7492;-0.543687;-0.8073386;0;
-213.7158;0;-204.2764;43.04702;-2.28651;7.359567;-204.7542;-205.4166;0.1065327;-0.09188665;0;
175.241;0;153.0618;27.44909;-4.897157;6.749325;177.3845;177.3475;-0.023509;0.4929118;0;
684.5588;0;629.4185;34.66786;-0.8063991;11.23028;680.7032;678.7922;-0.2183874;0.4274491;0;
496.9025;0;469.9909;32.75897;-1.140381;11.35296;496.6114;493.5154;0.1066687;0.2321176;0;
193.8678;0;192.283;31.22681;-4.420789;10.47077;194.0143;194.4821;0.3664309;-0.027985;0;
198.2957;0;191.2777;34.88108;-3.746762;10.19232;196.1307;199.659;0.5609648;0.3618472;0;
-158.2245;0;-137.9991;17.91704;-13.85705;6.163226;-153.6407;-149.6161;0.4304664;0.6863203;0;
-654.9407;0;-615.6203;-109.5369;-15.71914;4.750391;-643.6149;-637.658;-0.1546722;-0.2239121;0;
-508.8558;0;-503.6202;-121.6707;-15.03278;0.8607304;-500.5398;-493.0896;-0.2844515;-0.4835565;0;
-213.4302;0;-219.4442;19.6306;-17.09476;-1.618503;-206.8093;-202.6149;0.1056384;0.2315702;0;
-211.9664;0;-205.4182;42.78672;-3.278855;-0.4111839;-203.603;-202.911;0.3004343;0.4912069;0;
163.558;0;137.0537;27.56386;0.3407856;-1.750429;164.9165;166.17;0.2351651;0.1009092;0;
679.0719;0;619.7982;34.72005;0.4077921;0.7966809;673.8698;673.6228;-0.08990794;-0.2889962;0;
492.483;0;462.6292;32.62371;3.957356;1.733641;491.659;489.9754;-0.02485026;0.03613087;0;
172.3363;0;167.0002;31.34155;-2.208562;-1.148367;173.0124;174.6414;-0.08979263;0.1660293;0;
191.5284;0;179.0762;34.55843;-3.27807;-1.214196;190.4547;195.0181;-0.4145391;-0.02903961;0;
-148.2433;0;-136.6326;18.15693;-0.9976006;1.935222;-142.0072;-137.0736;-0.08928587;-0.1589451;0;
-653.153;0;-621.7514;-110.3592;-1.800881;4.009626;-640.6138;-634.873;0.1706732;-0.1587854;0;
-508.694;0;-502.8736;-123.5541;-3.875177;-1.084983;-499.4782;-492.6813;-0.2193023;-0.02869117;0;
-215.5175;0;-221.0098;19.43569;-4.273425;-1.552773;-206.9981;-202.6443;-0.0891473;-0.2885317;0;
-213.9266;0;-211.9796;42.84188;-8.556038;6.285668;-203.6042;-203.0029;0.235779;-0.3532091;0;
170.7826;0;142.6178;27.43156;-10.42247;9.02553;173.0986;174.1366;-0.349164;0.03694982;0;
679.855;0;622.2333;34.71283;-2.977263;9.351376;676.1093;676.0843;-0.6086825;0.1668474;0;
491.0165;0;460.8139;32.67895;-1.299332;12.15526;492.7717;489.8107;-0.2832342;0.3615818;0;
182.303;0;176.4311;31.39674;-2.905617;13.34874;185.3059;185.2839;0.2367891;0.6860552;0;
187.2423;0;179.3148;34.48862;-2.501532;14.87581;187.6184;191.532;0.4314532;0.4254964;0;
-163.7695;0;-146.0145;20.89828;0.5160676;19.81748;-155.7726;-152.6126;-0.0237517;-0.1596372;0;
-657.6066;0;-620.0044;-107.4957;1.318856;21.40516;-642.6213;-638.34;-0.3485645;-0.3543788;0;
-512.3311;0;-498.6921;-124.2542;-0.4237812;22.99124;-501.0464;-495.0828;-0.1533123;-0.4189901;0;
-217.7141;0;-215.0209;19.17362;-0.08856277;23.97276;-207.4403;-204.9809;0.2366458;0.03620233;0;
-216.4334;0;-205.372;43.26723;-5.112316;20.59965;-203.4212;-204.2127;0.3013754;0.42597;0;
164.0929;0;145.0957;27.04439;-6.64742;19.30628;170.5328;170.2419;-0.1536988;0.1656726;0;
681.0431;0;630.9557;35.07567;-1.81797;16.27277;681.2297;680.002;-0.3484464;0.03557146;0;
489.1424;0;468.653;32.41674;0.5947545;13.44313;493.7016;490.9134;-0.08822694;0.1005031;0;
172.9971;0;179.702;31.44714;-6.103648;14.76928;178.7386;178.6394;-0.02317094;0.1004021;0;
192.3759;0;192.8273;34.66391;-7.169242;14.48651;196.3625;199.137;-0.1530823;0.2302359;0;
-152.9564;0;-126.1437;18.13737;7.372648;7.037094;-141.9149;-139.0807;-0.08796118;-0.02986483;0;
-654.8004;0;-597.53;-104.3193;10.84884;4.886569;-636.8359;-633.0676;0.04206188;-0.09480216;0;
-509.0903;0;-478.614;-116.0835;14.58801;8.297667;-493.5802;-489.0036;0.1719543;0.03522778;0;
-219.2242;0;-209.893;20.3396;19.73091;7.217724;-204.9791;-203.4055;0.1068142;0.1001597;0;
-212.6322;0;-195.0644;42.37058;8.190511;13.9755;-197.0895;-197.8913;-0.08819517;0.2299938;0;
175.8863;0;162.8268;27.71035;5.570313;16.23888;184.8542;184.4279;-0.02313921;-0.0301067;0;
678.2695;0;631.4276;34.55406;15.14291;11.66785;680.9814;678.869;-0.0880833;-0.4198805;0;
488.0582;0;467.0629;32.58281;15.39611;12.45992;494.4531;491.2808;-0.3478642;-0.02965455;0;
184.72;0;187.9836;31.36317;8.882933;7.222851;192.3579;192.812;-0.08764526;0.03534259;0;
189.5319;0;187.8572;34.45508;6.998973;4.670242;194.351;198.2404;-0.02258985;-0.2895296;0;
-165.0429;0;-141.4786;19.92775;6.121284;9.75613;-153.2321;-149.2842;-0.4123712;0.03559799;0;
-658.0042;0;-610.7255;-103.905;4.507543;9.679344;-639.5212;-634.4528;-0.08712015;-0.02940512;0;
-515.1645;0;-495.1071;-118.2309;3.565009;6.722492;-500.5731;-493.4483;0.04290208;-0.3542123;0;
-224.1054;0;-220.3725;19.31884;2.891841;6.313839;-210.5906;-205.7843;-0.2819777;-0.02901966;0;
-216.3215;0;-205.4709;42.66268;1.548789;4.36499;-201.1337;-200.0803;-0.2816944;0.2308789;0;
165.2666;0;144.872;27.56488;0.9449964;2.953963;173.5052;174.0578;-0.3463787;0.1656796;0;
681.9033;0;628.983;34.59613;1.948425;6.702039;684.5114;683.8765;-0.08616129;-0.224291;0;
493.3751;0;468.369;32.81225;1.142184;7.4991;500.2284;498.2198;-0.02110737;-0.2240656;0;
169.9791;0;170.7977;31.03016;9.045266;4.544315;177.7001;178.6296;-0.2159882;-0.1588731;0;
189.6733;0;182.5575;35.12191;13.52416;5.075613;194.3257;197.8154;0.1090655;-0.6134849;0;
-153.22;0;-133.1548;16.47098;-1.560959;2.927059;-142.7628;-139.1516;0.2388906;-0.2230644;0;
-666.9952;0;-614.5289;-115.2919;-3.836566;2.589325;-650.1767;-644.8825;0.3685853;0.2319311;0;
-522.5848;0;-496.1582;-124.8586;3.937797;4.663072;-508.3444;-501.8061;0.4981496;-0.2880407;0;
-225.2089;0;-220.9852;20.50632;2.459972;4.256489;-212.3571;-209.3237;0.107845;-0.4176859;0;
-219.6728;0;-211.3929;42.59959;9.624796;10.21357;-205.2097;-205.6776;-0.02219803;-0.09242951;0;
175.9117;0;151.5123;27.25198;10.55215;11.67693;184.0509;183.8959;-0.02217573;-0.157304;0;
686.3533;0;631.3063;34.97071;9.20238;10.05761;688.6747;687.1456;-0.2170555;-0.54695;0;
487.0135;0;462.6938;32.31189;11.47031;10.91828;494.58;491.2407;0.043032;-0.286531;0;
180.6779;0;180.558;31.65473;-5.487776;5.213884;189.7985;188.8988;0.5627275;0.2334956;0;
192.4279;0;189.1847;34.24661;-9.76917;3.935969;199.3529;201.4526;0.172358;0.3631957;0;
-164.3987;0;-141.8391;20.84392;-6.677895;0.5829898;-150.3593;-147.512;-0.5424559;0.2978634;0;
-656.3611;0;-613.4595;-97.67996;-10.68967;-2.900586;-635.7766;-631.4954;-0.08713948;-0.1572073;0;
-510.9619;0;-489.5301;-112.8242;1.644952;5.340985;-494.0837;-488.6823;0.3027521;-0.8067227;0;
-228.965;0;-222.2973;19.59771;4.457314;6.139413;-214.415;-212.4549;0.1725132;-0.5460427;0;
-219.4271;0;-210.7671;42.44152;-1.307941;3.052029;-204.392;-205.8072;0.6920786;-0.1556901;0;
171.1597;0;151.5127;27.65629;0.300964;4.187673;178.6834;178.2067;0.3665465;-0.1555336;0;
682.2307;0;633.4307;34.50005;-5.191695;-1.978843;683.8748;682.3367;-0.2185279;0.03952468;0;
488.3298;0;467.5647;32.65379;-7.329932;-3.986221;494.5325;490.8719;0.4313651;0.1044523;0;
166.9379;0;173.6799;31.12173;-1.361696;2.180093;174.5712;173.9128;0.3659644;-0.2204894;0;
187.6347;0;188.4979;34.96352;-0.9581861;2.445834;193.0114;195.602;-0.02420742;-0.09033312;0;
-151.5709;0;-124.4093;16.9999;-4.507197;2.30941;-139.7654;-137.4272;0.2356863;0.2345944;0;
-663.3488;0;-604.7928;-111.5151;-4.837461;3.177746;-644.5586;-640.8485;0.3653841;0.104424;0;
-524.939;0;-490.9295;-122.2726;-5.101019;-1.112233;-507.7919;-501.8366;0.4949517;-0.2205177;0;
-229.2474;0;-215.4495;20.02881;-5.363338;-2.718584;-211.8676;-208.4796;0.234585;0.03957326;0;
-223.8946;0;-202.302;42.49738;-3.214495;1.771883;-203.9086;-203.8973;-0.2853895;0.2994029;0;
164.6976;0;156.1587;27.46222;-2.206887;2.439931;177.6046;177.9283;-0.5449721;-0.09070203;0;
675.2754;0;634.0115;34.68098;-2.673184;-0.7777009;681.7351;680.4343;-0.1546204;-0.1555782;0;
482.2561;0;469.7067;32.45973;-1.933564;-0.1070902;492.4574;488.909;0.235339;-0.02548722;0;
173.5514;0;186.6268;31.49009;2.89115;-4.393768;184.1173;184.5705;0.1051678;-0.09042896;0;
181.6854;0;188.1884;33.95719;6.504591;-6.130909;190.7414;194.2551;-0.02487253;0.2344986;0;
-169.0085;0;-135.8379;22.11651;-2.343203;2.114029;-152.4029;-149.5799;0.0401198;0.1043283;0;
-658.9673;0;-601.8421;-98.22024;-4.751746;2.848596;-636.3814;-631.7496;-0.02488785;-0.02571121;0;
-516.1266;0;-493.2916;-115.2379;11.12689;6.998675;-498.1861;-491.6225;-0.2197649;0.429086;0;
-228.0026;0;-223.5563;19.87249;13.52758;10.13972;-211.7043;-208.1457;-0.1545767;0.5585896;0;
-216.0919;0;-199.1563;42.71603;10.90104;1.020095;-197.6235;-196.8797;-0.0244867;0.6229956;0;
171.6804;0;159.7385;27.1809;12.7661;-0.1196395;183.7585;184.3766;-0.3492988;0.5574023;0;
682.1263;0;639.0245;34.83722;2.304421;-0.05253637;689.1322;687.4384;0.04085622;0.4918749;0;
487.226;0;471.4038;32.49088;-0.9804239;-2.597713;498.6602;495.2814;-0.08911952;0.4264133;0;
168.0216;0;176.3907;31.27133;0.9629443;3.165185;179.6317;180.5042;-0.2189647;0.4259848;0;
184.0946;0;187.5203;34.61321;-1.315199;3.898817;193.2568;197.5017;0.4958961;0.4905241;0;
-160.0424;0;-130.0086;17.52451;-1.381226;-1.664562;-143.4558;-141.0891;0.1705611;-0.09467482;0;
-661.8168;0;-607.8877;-106.1809;-2.451566;-2.332718;-639.3123;-636.2609;-0.2194143;-0.4194164;0;
-519.2856;0;-495.1458;-117.6934;-2.046961;-3.602928;-500.9267;-495.5045;0.1056429;-0.2240929;0;
-225.9735;0;-217.9123;20.04318;-2.112253;-4.671035;-208.1952;-205.777;-0.1543326;-0.3538024;0;
-219.3747;0;-201.7014;42.1994;-1.506918;-4.800307;-200.5523;-200.8226;0.2356265;-0.02861024;0;
166.7767;0;153.8851;27.53934;-0.232606;-6.604023;177.3969;178.1888;0.5602264;0.03638585;0;
682.1;0;637.175;34.44569;-5.055143;-2.243619;686.9624;685.7545;-0.2199446;-0.5483568;0;
488.1993;0;470.8055;32.53702;-6.456583;-2.241364;497.7419;493.7241;-0.02482155;-0.2229691;0;
169.2438;0;176.4177;31.37989;-0.01973444;-6.659864;180.526;179.3858;0.2350728;-0.09281036;0;
182.6919;0;181.9251;34.03451;0.8509415;-7.724777;191.9637;194.8227;-0.2849022;-0.2226518;0;
-164.6921;0;-136.0355;21.94387;-0.02056964;-13.41044;-148.3707;-144.9524;-0.08971388;-0.09249339;0;
-662.0266;0;-606.7871;-100.1418;1.1849;-16.0093;-638.6001;-633.1238;0.04031095;-0.09240045;0;
-518.8705;0;-500.4805;-116.8453;-3.639062;-17.73465;-499.4031;-491.9333;0.1702051;0.1675618;0;
-226.5583;0;-225.4906;19.95345;-5.242996;-19.7933;-209.4218;-205.895;0.3649361;0.1024261;0;
-215.586;0;-198.8398;42.6095;-1.620405;-19.10358;-195.7806;-195.943;-0.02523461;-0.02761155;0;
172.748;0;158.8678;27.32435;-2.288362;-19.95517;185.7869;185.8121;-0.2201113;0.2972529;0;
682.8179;0;635.4685;34.60572;-1.550105;-17.05497;688.2226;687.2482;-0.2848575;0.1670196;0;
484.3563;0;466.6021;32.38455;-1.413849;-15.96611;493.691;492.6552;0.04026548;0.2318191;0;
168.0283;0;175.5918;31.29004;-7.507998;-17.08877;178.6655;180.6292;0.1701597;0.2965535;0;
183.1018;0;184.6607;34.19463;-10.51456;-16.6697;190.8548;194.5656;-0.154848;-0.02858122;0;
-163.7204;0;-137.4256;20.79199;-4.6095;-15.78218;-149.1037;-145.7089;0.105177;0.03641484;0;
-661.9304;0;-612.7985;-103.0417;-3.466769;-14.82856;-640.4568;-635.4413;-0.08983073;0.1013456;0;
-516.0258;0;-492.0556;-118.6802;-14.71544;-17.62682;-498.7592;-492.3119;-0.2196752;0.1662111;0;
-219.1563;0;-209.8903;19.61957;-16.84411;-17.3413;-204.843;-201.0884;0.3002843;-0.02885793;0;
-215.6877;0;-199.1847;42.5883;-16.42602;-17.05594;-199.8896;-199.637;0.1700479;-0.09379628;0;
169.523;0;155.3374;27.36564;-19.69107;-16.56992;178.4962;178.3737;-0.08999233;0.03623265;0;
686.5927;0;639.6877;34.5845;-6.475766;-13.73999;688.9976;687.8758;-0.02493456;-0.2886405;0;
484.5041;0;467.3188;32.42582;-2.986635;-13.12334;491.7166;488.9718;0.04005783;-0.1584157;0;
163.4284;0;173.934;31.14386;-11.28903;-6.814001;172.2579;172.4518;-0.0899171;0.1665802;0;
185.6279;0;190.1885;34.236;-9.335303;-4.730683;191.6375;195.3294;-0.4146635;-0.09345661;0;
-160.947;0;-134.2771;20.95826;-15.42149;-4.190066;-147.6346;-144.3212;-0.3492795;-0.0933627;0;
-664.2822;0;-615.4628;-102.5632;-16.2093;-2.310334;-643.8618;-639.8021;0.1708102;-0.1582362;0;
-516.3762;0;-488.283;-116.8904;-10.43322;-10.07791;-499.9119;-494.357;0.3655406;-0.2230446;0;
-219.5063;0;-206.3713;21.03277;-9.61845;-12.74698;-205.4323;-202.3818;-0.02463072;-0.09288578;0;
-211.3523;0;-195.6068;42.18849;-3.915358;-9.117215;-196.2304;-196.2439;-0.1545407;-0.09279245;0;
178.2894;0;163.6593;27.40351;-3.108117;-9.978832;186.9617;187.0732;-0.08941803;0.2321375;0;
684.1683;0;638.1937;34.55986;8.014418;-13.65274;687.6471;686.3217;-0.2192629;0.3618389;0;
482.332;0;464.2646;32.15133;13.02923;-14.71075;489.8053;486.7321;-0.1540752;0.03663864;0;
175.9386;0;183.8138;31.55681;-1.987062;-13.49028;184.2165;184.3322;-0.08895306;-0.02836552;0;
189.0676;0;190.938;33.46162;-4.262241;-12.60595;195.5256;198.7647;-0.153831;-0.02833701;0;
-166.9435;0;-137.7138;23.80784;-5.731827;-13.19613;-153.8079;-150.3846;0.2361276;0.3614955;0;
-658.0912;0;-599.5932;-95.1563;-9.276041;-12.2451;-638.5346;-634.0529;0.4957597;0.2311976;0;
-516.6258;0;-483.4238;-114.9257;-8.529786;-7.879033;-499.4626;-494.3606;-0.1544119;-0.1588388;0;
-230.3129;0;-219.2581;19.37233;-9.526569;-5.995716;-213.7291;-211.8182;-0.3491587;0.2311249;0;
-217.9001;0;-203.733;42.59119;-11.39203;-1.702905;-200.0211;-200.2985;0.1709308;-0.09394406;0;
169.6867;0;153.6672;27.18111;-10.77737;0.9111403;180.3013;180.7113;0.04082441;-0.4836537;0;
682.1335;0;634.3336;34.40016;-11.10231;1.379105;686.4906;685.8383;-0.08915129;-0.2232984;0;
481.5486;0;462.5947;32.42907;-11.09116;3.521051;490.2741;488.498;0.1058403;-0.223074;0;
154.9162;0;162.3431;31.14711;0.3741918;-1.372119;164.8823;166.6686;0.1707013;-0.02794782;0;
173.7509;0;171.6127;34.05184;4.12486;-2.911225;181.3957;186.0538;0.2354971;0.296917;0;
-160.8805;0;-139.4659;21.14909;1.709818;1.311503;-146.6218;-142.6555;0.3002279;-0.02821809;0;
-660.4052;0;-607.4655;-105.8084;2.645129;0.5733725;-640.3512;-635.2645;0.4298609;-0.1581244;0;
-521.1238;0;-493.4746;-122.6935;2.776193;1.510557;-505.088;-498.7569;0.3644616;-0.09299819;0;
-231.9952;0;-226.9874;19.42091;2.438611;2.379818;-217.0999;-213.2115;0.1691933;-0.1578721;0;
-229.2634;0;-217.8264;42.82713;-3.859503;-3.918847;-212.3216;-210.7484;0.03908866;-0.02777877;0;
175.6386;0;155.0802;26.79213;-6.736013;-5.053619;185.1921;186.2639;-0.1558526;-0.0927182;0;
701.6976;0;646.6772;34.82366;-12.69109;-4.579661;704.5573;704.0038;-0.2206634;-0.2225597;0;
491.5353;0;465.0559;32.10252;-18.37177;-6.048684;498.8899;496.4005;-0.285409;-0.1573687;0;
166.517;0;166.6134;31.32064;-9.108931;-1.085991;174.8637;175.3128;-0.4150569;-0.2871453;0;
179.0308;0;174.1296;33.97532;-7.894329;-0.950934;184.7455;189.0672;-0.2197378;-0.4167915;0;
-167.2876;0;-144.8851;22.13461;-18.60367;1.394424;-154.5822;-150.5772;-0.02461501;-0.2214707;0;
-653.1252;0;-598.6364;-92.82985;-18.65232;3.536355;-632.9988;-628.0608;0.1053444;0.03862125;0;
-506.2299;0;-473.7224;-107.6666;-21.78141;-6.313446;-488.1852;-481.8779;0.04027122;-0.0263849;0;
-221.4891;0;-210.3785;21.12693;-23.63456;-8.517417;-204.3996;-201.4719;-0.08970393;0.1685437;0;
-213.458;0;-197.9857;41.65787;-9.81306;-6.90139;-194.1992;-194.5853;0.04032088;0.5581784;0;
178.3721;0;162.0948;27.56058;-6.119504;-9.238736;190.6775;190.4793;0.04028037;0.4276828;0;
687.8742;0;638.5674;34.40443;-4.103623;-5.411548;692.9209;691.411;-0.02472745;0.1024164;0;
481.0991;0;462.5764;32.12099;0.4548515;-5.138178;490.0138;487.0061;-0.284572;-0.1575559;0;
159.7145;0;167.0099;31.21415;-4.903264;-9.218852;168.4953;169.3637;-0.284286;-0.02746293;0;
178.4195;0;178.6487;33.86894;-4.898337;-9.611486;184.5678;188.8712;0.4306404;0.3623687;0;
-165.2121;0;-136.1227;20.77897;-1.075998;-10.13769;-150.9491;-147.2748;0.495175;0.1671026;0;
-660.3596;0;-600.1276;-96.74535;-2.012922;-9.658626;-639.4893;-634.7567;0.03990607;-0.2878367;0;
-513.4571;0;-481.3965;-111.828;2.276008;-12.26113;-495.981;-489.7539;-0.02510137;-0.4824495;0;
-219.7136;0;-211.4233;19.7183;4.082382;-12.51674;-203.0047;-199.9697;0.3647279;-0.2220954;0;
-214.3079;0;-198.5297;42.06224;-7.911787;-7.413587;-195.8042;-195.2711;0.5592635;0.1679318;0;
172.6505;0;157.7408;27.27739;-10.8506;-5.932635;183.0772;183.8597;0.1688974;0.0378284;0;
686.5312;0;638.3406;34.24646;-4.877848;-0.03229802;689.7634;688.4212;-0.09114163;-0.0921443;0;
488.0033;0;470.4083;32.33799;-4.06964;4.053571;497.2293;494.0768;-0.02608271;0.1028503;0;
173.8581;0;182.6426;31.05613;-8.888322;-1.710912;185.636;185.6727;-0.09102384;0.102747;0;
184.9277;0;189.7054;34.27329;-10.68805;-2.311917;193.508;196.7929;-0.1558997;-0.09225829;0;
-176.2016;0;-146.5663;20.74563;-0.02739203;3.919574;-160.5711;-157.3519;-0.09077573;-0.2870676;0;
-667.0278;0;-612.9969;-95.2794;1.513853;3.111963;-644.4789;-639.7013;0.1691848;-0.3517465;0;
-513.1221;0;-478.8232;-106.5529;-1.90392;5.118202;-493.9692;-487.822;0.3639169;0.03841098;0;
-230.1235;0;-211.851;22.23943;-3.710668;5.447974;-212.6765;-209.7214;0.1686492;0.3632091;0;
-215.3371;0;-194.4593;41.0826;1.249554;-3.867884;-196.1585;-196.0799;0.03854504;0.1029748;0;
181.9297;0;171.4898;27.54811;4.128686;-4.801758;195.217;194.9207;0.1034737;-0.09203073;0;
685.6187;0;644.0173;34.20456;-21.86435;-17.65729;693.3953;691.4127;-0.026565;-0.09193825;0;
483.406;0;470.6446;32.10873;-28.13805;-23.93582;495.3603;492.505;0.03842903;0.03808881;0;
161.5193;0;174.0705;31.26438;-19.60331;-9.510807;174.2737;175.107;0.03839042;0.2979199;0;
180.7848;0;185.8896;33.85664;-21.92813;-9.367285;190.2155;194.2963;-0.0266155;0.2976206;0;
-159.226;0;-126.9526;20.142;-8.174721;-3.32953;-143.558;-139.5437;-0.1565234;0.2973215;0;
-662.9378;0;-598.338;-99.38067;-1.937216;1.764396;-639.9141;-634.5921;-0.4812029;0.03715339;0;
-515.8453;0;-476.7976;-113.5861;-6.691668;-7.949658;-495.5934;-488.4026;-0.3507847;-0.54759;0;
-216.4772;0;-201.8315;19.89847;-3.469764;-6.602133;-197.1826;-192.7478;0.2342739;-0.6120071;0;
-215.51;0;-197.2558;41.99236;7.920578;-7.131241;-193.986;-192.9914;0.5588752;-0.09165346;0;
166.3897;0;154.0159;27.20758;14.20926;-8.061836;181.4578;182.2016;0.5583136;-0.02659402;0;
686.1486;0;641.1162;34.23919;9.707003;1.32363;695.0797;694.136;0.1679486;-0.4813387;0;
487.3088;0;471.307;32.20579;12.71136;3.398771;500.0414;498.3492;-0.2220242;-0.1560183;0;
163.4817;0;174.9822;30.92406;10.15397;4.266012;177.3884;180.1331;-0.09186646;0.2339425;0;
178.997;0;184.0517;34.07889;7.263376;6.271214;190.6409;196.2564;0.03816054;-0.09112929;0;
-177.5037;0;-144.2808;20.36402;25.8766;4.121459;-158.1254;-152.7654;-0.09181249;0.03889696;0;
-668.8283;0;-604.1545;-98.78407;29.13313;4.251283;-642.9727;-635.4942;0.1031818;0.1687926;0;
-514.546;0;-478.1106;-110.8037;19.05617;3.175407;-492.402;-483.8691;-0.09182391;-0.09124641;0;
-235.2316;0;-222.2585;21.55365;18.03265;2.301438;-213.2348;-209.6455;-0.2216663;0.1037473;0;
-217.9413;0;-198.6095;41.52195;9.508061;2.165159;-194.6548;-194.13;0.2333278;0.1686104;0;
185.45;0;173.5281;27.29985;4.206246;1.560138;201.0919;202.8031;0.2980607;-0.1563957;0;
683.4507;0;638.4325;34.26891;6.546544;1.491587;693.5797;693.5401;-0.09204286;-0.09127124;0;
473.6816;0;458.8185;32.11054;5.93773;1.691037;487.6735;485.3225;-0.4817544;0.2986245;0;
155.7402;0;166.6291;30.95384;-2.843123;-0.05221836;170.2178;171.305;-0.2863683;0.3632918;0;
169.2019;0;172.9584;34.23357;-2.706544;-1.05691;181.2911;186.5001;0.1686908;-0.09184463;0;
-180.0426;0;-147.1171;18.14474;1.784154;5.776289;-161.219;-155.453;0.03858662;-0.221687;0;
-673.676;0;-613.1724;-104.4994;5.599778;7.913939;-647.6874;-640.9277;-0.2213215;-0.09152959;0;
-519.2014;0;-487.9315;-115.5762;11.02013;2.145577;-496.1125;-488.2351;0.03877023;-0.2213723;0;
-218.7055;0;-205.5204;20.59651;11.61227;1.540575;-197.5138;-192.8303;0.168666;-0.02624785;0;
-208.928;0;-187.3229;41.6902;46.36341;3.146617;-185.8836;-185.2652;-0.1563402;0.1037132;0;
175.1514;0;167.6869;27.21807;58.70805;2.473626;191.6135;192.3562;0.03871889;-0.1562604;0;
686.5933;0;649.1514;34.24967;39.02416;3.743694;696.2922;695.8472;0.1686147;-0.2210707;0;
483.5676;0;476.4605;32.02885;41.93171;4.409762;497.5671;495.2485;-0.4812282;0.1689555;0;
153.6223;0;171.1975;31.24705;26.35051;-0.9531817;170.0441;170.7263;-0.2858426;0.1038184;0;
166.0241;0;176.8975;33.65193;20.16112;-2.358744;181.18;185.1099;0.55902;-0.02622063;0;
-177.9699;0;-137.997;22.24883;23.15497;-2.289391;-156.0201;-151.9068;0.4285237;0.2336751;0;
-667.4199;0;-606.1854;-91.84119;17.63935;-5.368305;-639.3704;-634.6364;0.1032564;0.363375;0;
-513.5139;0;-484.4497;-106.8663;29.74541;5.019199;-489.2405;-483.9491;0.2330873;-0.0267942;0;
-222.7063;0;-205.7903;20.92689;32.06005;7.291576;-199.8941;-198.0438;-0.2219183;-0.09173462;0;
-212.3001;0;-184.9689;41.45803;22.11485;-4.370537;-187.6993;-188.7244;-0.546532;0.4280963;0;
180.341;0;177.4099;27.29847;19.01117;-5.236924;198.4203;197.9584;0.1036906;0.3626988;0;
685.031;0;651.056;34.14259;35.60286;-12.93445;697.0952;694.3849;0.1035864;0.03749765;0;
481.632;0;473.9905;31.98435;40.92572;-17.47618;497.3073;492.6632;-0.0264524;0.3622967;0;
166.5562;0;184.0347;31.07765;21.19234;-9.085993;183.0278;182.3864;0.1684762;0.4269;0;
176.6337;0;188.7224;33.60764;21.1037;-9.746693;191.1522;194.0097;-0.02659511;-0.0932677;0;
-177.4908;0;-137.9906;21.7673;9.15978;-9.201035;-156.4277;-153.5107;0.233301;-0.1581413;0;
-666.5041;0;-596.4965;-92.63457;0.6441091;-8.789892;-639.715;-635.1143;0.3630012;-0.02804774;0;
-510.6624;0;-468.2113;-107.7214;29.84753;-9.115975;-488.0856;-481.6154;-0.3520043;0.1019151;0;
-220.5448;0;-201.812;20.4475;32.83165;-7.499225;-199.3651;-195.8374;-0.5465526;0.1667801;0;
-220.3857;0;-196.4868;41.54134;31.79428;-14.85969;-196.666;-196.2028;-0.286134;-0.09325689;0;
169.5773;0;161.9056;27.25676;37.05362;-15.78252;186.3392;186.3646;-0.1559118;-0.2880652;0;
690.2701;0;647.2489;33.91351;16.85465;-14.36002;700.5809;698.6073;0.1690815;0.1020283;0;
485.9914;0;470.2497;32.13031;12.75188;-15.14939;500.727;497.5685;0.233879;0.2318605;0;
155.6064;0;165.4301;30.78619;14.81615;-6.49361;171.2642;172.2318;0.1037093;0.03672545;0;
171.0047;0;173.0725;33.94115;10.24593;-3.271904;184.0856;188.7379;0.1036051;0.03668856;0;
-179.3036;0;-148.5648;18.47731;14.52254;-5.479053;-158.2399;-154.092;0.03853362;-0.1582503;0;
-680.4965;0;-624.6137;-107.1656;12.76664;-3.999924;-652.27;-647.1893;0.1034622;-0.5478954;0;
-525.0779;0;-503.3592;-121.0509;12.95488;0.6927786;-500.8154;-494.2405;0.1033583;-0.6123122;0;
-229.0739;0;-222.2445;19.12533;13.34401;3.170451;-206.3974;-202.9526;-0.02668025;-0.4817622;0;
-220.5354;0;-202.531;42.28197;6.832888;-0.7177447;-196.6948;-196.3768;-0.09162078;-0.09147412;0;
176.2369;0;160.6776;26.87221;5.955366;-0.9179723;192.245;193.4371;-0.2864307;-0.1563496;0;
684.3668;0;637.8387;34.27897;3.068994;1.427353;694.2369;694.116;-0.2211756;-0.02625777;0;
480.5937;0;464.4096;31.93319;1.45832;1.291953;495.8886;493.8314;-0.2209534;0.1686707;0;
163.1451;0;173.9013;30.9016;5.074176;0.6878081;181.0484;182.1791;-0.2207313;0.1035338;0;
165.0427;0;171.915;33.61917;5.604941;-0.4515929;182.1783;185.4943;-0.1555422;0.2333645;0;
-188.2582;0;-153.9066;21.40401;8.880863;3.433871;-163.7684;-161.143;-0.2203533;0.1031953;0;
-671.2012;0;-605.7747;-97.12043;11.35116;4.702974;-640.8015;-636.3671;-0.1551645;-0.09181041;0;
-516.6041;0;-475.2314;-112.5151;12.34413;-3.875323;-489.9207;-484.4912;-0.09004126;0.2331186;0;
-220.4211;0;-201.4537;20.15637;15.27849;-6.014883;-194.5141;-192.2135;-0.02498344;0.167917;0;
-207.0812;0;-183.3853;41.81272;10.90986;-3.664436;-178.0768;-178.902;-0.02495834;-0.02715378;0;
182.2437;0;174.6816;26.96565;8.755444;-5.134378;204.4724;203.8979;-0.1548679;0.03784084;0;
690.4301;0;650.7667;34.18491;23.21398;-2.650851;705.9523;704.3789;-0.08974499;0.1027702;0;
480.9663;0;471.765;31.90169;26.47319;-1.777409;500.9706;496.9001;-0.4144915;0.2975689;0;
154.7093;0;173.4406;30.68274;15.32815;-5.660634;176.6925;176.0618;-0.4790424;0.2323026;0;
169.6087;0;185.1354;33.90027;14.24102;-5.587963;188.8837;193.2511;-0.4135937;-0.0278002;0;
-182.8221;0;-139.2627;18.99868;13.42243;-6.587092;-157.3821;-152.6443;-0.4781455;-0.02777227;0;
-674.7036;0;-601.6403;-96.96213;13.47629;-7.317163;-642.6675;-636.8724;-0.1528283;-0.09271171;0;
-507.4843;0;-461.5433;-106.7972;2.879205;-3.424923;-479.6034;-472.1899;-0.02274006;-0.2875206;0;
-208.7493;0;-185.9054;21.99542;-3.151908;-3.354499;-182.4581;-178.0506;-0.08768455;-0.2222643;0;
-202.4801;0;-172.7876;40.83883;18.2858;0.2658283;-173.9664;-172.8117;0.04233824;0.1027957;0;
186.0906;0;184.8938;27.24211;21.01311;2.342032;207.7041;208.9826;-0.02267165;-0.02724226;0;
685.4025;0;650.0366;34.02382;15.96816;-4.224526;700.4351;700.4005;-0.3474856;-0.4819863;0;
481.2536;0;474.4089;31.8657;18.36399;-4.756145;500.0817;498.4854;-0.4121038;-0.1566653;0;
165.616;0;183.6407;31.02159;7.226123;-7.095647;184.7375;187.2032;0.2379837;0.1683289;0;
167.8858;0;182.9564;33.67657;4.875314;-9.633868;184.9267;190.5758;0.497614;-0.2216443;0;
-188.6662;0;-148.0612;21.08654;6.276935;-3.997744;-163.834;-160.0645;0.2372446;-0.09148694;0;
-669.11;0;-612.179;-90.81591;5.533693;-4.462607;-638.9929;-634.1028;0.1720389;0.1684744;0;
-506.7065;0;-477.069;-103.0934;5.661855;-3.654328;-481.867;-474.6705;-0.02303601;0.03837039;0;
-219.5914;0;-200.2285;21.51007;6.259378;-2.110049;-195.9013;-192.9599;0.04195448;0.3631686;0;
-205.8151;0;-180.4122;40.79125;11.61075;-11.95418;-180.1498;-181.3967;-0.02305502;0.427771;0;
195.8774;0;188.6461;27.31951;13.87723;-14.42053;213.4585;213.2123;-0.4128359;-0.02743025;0;
694.3674;0;657.096;33.7888;21.36538;-12.12862;705.684;704.2511;-0.2824864;-0.09237003;0;
480.0896;0;470.8416;32.00573;25.56347;-14.66179;495.5801;492.3996;-0.08730053;0.03765747;0;
157.2692;0;172.2058;30.66173;23.93019;-8.685697;173.3064;173.2525;-0.2821148;-0.02734771;0;
166.3565;0;172.7824;33.94175;24.91052;-7.940157;179.754;182.6361;-0.216864;0.1026145;0;
-183.8222;0;-149.1045;18.2905;23.07683;-12.28595;-164.5662;-161.7494;-0.08671144;0.037544;0;
-673.8286;0;-613.0964;-101.7301;20.10688;-11.33596;-648.3451;-643.657;0.04331038;-0.09242841;0;
-509.7337;0;-483.6076;-111.5603;13.65632;-18.29055;-486.837;-481.3416;0.04326686;-0.1573029;0;
-209.4972;0;-200.0764;21.23505;4.198125;-19.07597;-187.3106;-186.1935;0.2381254;-0.02721014;0;
-205.9133;0;-188.2562;41.1412;11.76334;-17.38223;-181.0005;-183.1329;0.1079515;0.03778455;0;
187.0961;0;169.5032;27.10689;8.066854;-17.49873;204.8625;202.9821;-0.2819611;0.03774658;0;
695.9023;0;648.6544;33.88873;-12.9063;-9.510422;707.9037;704.1512;-0.02180838;0.2326107;0;
485.2461;0;467.8432;31.98063;-15.03679;-7.558361;502.4203;497.4846;0.1081482;0.03747493;0;
160.7339;0;168.3984;30.51171;-54.87567;1.089788;178.5156;178.1451;0.04307221;-0.3523668;0;
165.6948;0;167.2922;34.04176;-72.16825;6.045308;180.9599;184.4628;-0.1518731;-0.222078;0;
-188.4813;0;-160.3363;18.51535;-27.41898;-1.261784;-166.8597;-163.6727;-0.2166878;0.1679492;0;
-673.7979;0;-614.2595;-103.6294;-22.43493;-0.8586184;-646.076;-642.0801;0.2383013;-0.286991;0;
-508.2037;0;-475.774;-113.5827;-22.14495;-2.130309;-483.5083;-478.8292;-0.1517422;-0.4166373;0;
-213.7158;0;-203.8699;21.33868;-13.41516;-3.467827;-189.7324;-187.994;-0.5413938;0.1684874;0;
-204.3182;0;-187.3608;41.18225;-14.8082;-3.531326;-178.7347;-179.3094;-0.08607841;-0.09155125;0;
193.6247;0;180.7675;27.02297;-8.831471;-4.666487;212.0611;212.1116;-0.1509593;-0.2863613;0;
694.3033;0;651.5367;34.11724;-10.22912;-5.130679;706.7242;705.5253;-0.08584023;-0.1561389;0;
487.4593;0;475.2203;31.83409;-9.013391;-5.996302;503.9282;500.9814;0.1741154;-0.2209493;0;
169.754;0;183.6391;30.74013;-5.119567;-3.712857;187.0184;188.5098;0.1739404;-0.02582528;0;
170.8328;0;181.643;33.89514;-5.784009;-3.374212;186.893;192.9431;0.1087983;-0.09076668;0;
-184.4729;0;-143.2513;18.68122;0.1163014;-2.700992;-160.9951;-155.0135;0.4335257;-0.3505448;0;
-671.605;0;-599.5654;-98.21631;2.192289;-1.626551;-643.1534;-636.6156;0.4330901;-0.2202579;0;
-506.1381;0;-463.0938;-107.1756;-6.31638;-4.4382;-482.4001;-475.0568;-0.2170185;0.2347348;0;
-206.3424;0;-189.016;22.11719;-6.578453;-4.567706;-183.3155;-179.6652;0.04306894;0.2994663;0;
-204.7608;0;-179.7056;40.71061;-8.446877;-4.161219;-178.3837;-178.4852;0.1729603;-0.02567135;0;
186.4984;0;183.355;27.23895;-9.510117;-4.42497;206.1024;206.5008;-0.2819848;0.03932178;0;
698.8034;0;660.6183;33.83326;-2.601685;-4.688455;711.7661;711.1645;0.2380372;0.1042496;0;
488.7065;0;478.5457;31.86273;-1.125202;-6.090385;506.0289;504.1161;0.3027654;-0.2206918;0;
159.0059;0;176.3415;30.58135;7.047603;-2.06529;176.8732;178.7729;-0.2822449;-0.1555028;0;
163.2814;0;173.9155;33.92392;12.19808;-2.130198;178.0073;183.2159;-0.1520266;0.1045229;0;
-193.0161;0;-154.157;18.70996;7.094637;-5.678153;-171.3086;-165.7928;0.1079955;-0.2204189;0;
-679.2027;0;-607.2117;-98.43746;8.092862;-6.275294;-651.2701;-644.0732;-0.02204769;-0.6100014;0;
-510.7921;0;-465.7974;-106.397;13.24229;-13.77083;-487.6976;-480.2581;0.3028112;-0.4144865;0;
-218.0507;0;-196.7144;22.6451;14.0323;-16.63714;-195.2918;-191.9202;0.7572783;-0.3491026;0;
-204.9631;0;-179.0255;40.36343;12.61168;-17.35723;-179.3535;-179.546;0.2367786;-0.08888251;0;
197.4157;0;191.4058;27.3294;11.4609;-19.88515;215.6283;215.4359;-0.283198;0.4309455;0;
691.7188;0;654.7305;33.79868;11.78418;-17.05188;704.3533;703.2866;0.1068906;0.3655452;0;
483.628;0;476.7867;31.64078;11.57127;-17.50363;501.4348;498.8074;0.4316199;0.4301452;0;
172.1734;0;191.4508;30.73443;1.780379;-16.41444;190.5869;191.398;0.3012515;0.2997783;0;
166.0658;0;181.5758;33.20229;-2.374596;-15.72811;181.5249;186.2706;0.2359815;-0.1552943;0;
-196.4189;0;-153.7507;21.61224;3.120146;-17.72168;-173.7915;-169.2379;0.3656791;-0.2850729;0;
-677.5421;0;-608.6175;-92.60208;1.911562;-17.63689;-647.5037;-642.5799;0.2353769;-0.08988447;0;
-510.4449;0;-468.3886;-106.7519;0.2356784;-20.6334;-483.0604;-477.267;0.3001078;0.3000099;0;
-208.5835;0;-186.372;20.6664;-0.3677709;-21.9522;-182.2885;-179.5618;0.1698715;0.3646758;0;
-201.8147;0;-174.4407;41.13533;-0.1663305;-21.3944;-173.8595;-174.134;-0.02520117;0.03947265;0;
186.5055;0;182.3679;26.91363;0.8382146;-22.10959;208.2482;207.5367;-0.09014319;0.1044003;0;
691.9389;0;656.1339;33.75813;-3.851677;-19.67612;708.6624;706.015;-0.4148893;-0.02563926;0;
481.2867;0;473.2537;31.78769;-3.847807;-17.37893;500.9294;497.4101;-0.2845378;-0.2854829;0;
158.6525;0;175.1778;30.50637;-3.575521;-23.45679;178.3379;179.0076;0.3004542;0.1046081;0;
173.2357;0;182.9353;34.0989;-4.711004;-23.83512;191.1522;195.0071;0.04028296;0.3643723;0;
-181.885;0;-145.4586;18.07267;4.53713;-16.91204;-157.1149;-153.6387;-0.02472485;0.2990389;0;
-679.7019;0;-614.0143;-98.13708;6.00644;-16.29221;-648.7723;-643.9878;0.170202;0.2987384;0;
-511.5406;0;-473.8425;-105.2848;9.617727;-8.104161;-484.5152;-478.0488;-0.08983837;-0.02639852;0;
-211.7395;0;-195.8809;22.56925;13.96134;-4.947942;-186.4279;-183.3414;-0.3496175;-0.1563067;0;
-206.217;0;-184.6896;40.28765;-2.396032;-8.091046;-178.8068;-179.409;-0.4142335;0.2336544;0;
195.6633;0;183.1237;27.19123;-5.675178;-6.073429;215.4872;215.198;-0.2838826;0.298387;0;
696.1526;0;650.4547;33.59818;0.2250222;-14.84197;709.5847;707.9839;-0.08869533;-0.02674954;0;
482.1853;0;467.5178;31.75283;-2.053356;-16.70246;499.9143;497.4406;0.1062958;-0.1566573;0;
171.7941;0;183.1282;30.47155;6.255079;-15.882;190.0674;191.7191;-0.02374568;-0.02656525;0;
169.9972;0;175.1356;33.81424;9.195555;-18.14334;186.1908;190.527;-0.1536565;-0.1564732;0;
-198.426;0;-163.2454;19.10014;1.684227;-7.676014;-175.5645;-171.2952;0.3012693;-0.2862507;0;
-677.2983;0;-616.7908;-99.48445;2.419469;-4.051345;-649.5873;-642.8234;0.3659339;-0.3509304;0;
-511.7631;0;-485.1744;-109.3795;1.077867;-9.003889;-487.7031;-479.6967;-0.2191399;-0.4805125;0;
-215.3351;0;-205.2648;21.28981;-0.5308062;-7.387252;-192.3613;-188.236;-0.283887;0.03970907;0;
-202.1877;0;-180.1336;40.75862;6.97084;-4.231753;-177.0506;-176.74;0.1062023;0.1696039;0;
185.1958;0;176.8056;27.03704;7.098533;-3.624655;203.686;204.3086;0.1710629;-0.6101747;0;
692.817;0;653.7631;33.69402;8.095778;2.139397;704.1047;704.1645;0.04095636;-0.3496922;0;
486.4117;0;478.8813;31.72363;9.15937;4.079752;501.8735;500.9962;0.0409152;0.6901367;0;
150.4041;0;170.9296;30.31745;0.6437008;0.7265067;168.2242;170.9085;0.1058414;0.6244759;0;
157.8117;0;170.3831;33.78523;-0.9645364;1.328623;173.1776;178.8577;0.3006371;-0.02582504;0;
-189.6098;0;-152.6259;16.63488;-6.18848;-2.758549;-167.6377;-162.9628;-0.02450168;-0.3506358;0;
-685.2326;0;-621.0494;-104.9457;-9.732235;-3.358623;-657.1606;-651.1161;-0.2843464;-0.1553815;0;
-517.503;0;-483.9315;-113.0861;-4.095402;-5.230771;-494.4567;-486.4193;0.43058;0.1046441;0;
-207.8259;0;-194.1532;21.08511;-4.359706;-7.301864;-186.3645;-181.7085;0.36518;-0.02539578;0;
-198.6841;0;-175.0301;40.86647;-3.953184;1.948874;-174.9329;-173.9672;-0.2848603;-0.02537027;0;
194.2556;0;187.5261;26.95738;-3.81549;3.554506;210.924;211.264;-0.08967204;-0.02534478;0;
695.5583;0;657.6013;33.6769;0.8773929;4.019815;706.7752;704.8036;-0.2195166;-0.2202213;0;
481.0294;0;473.7201;31.70654;3.890621;6.159108;497.295;493.8885;-0.4141981;-0.4149021;0;
157.521;0;177.143;30.48778;-4.754452;0.6604405;175.207;175.1772;-0.3488145;-0.08964848;0;
155.801;0;170.968;33.58057;-5.285539;-0.5459158;171.2203;174.5014;-0.153562;0.04037629;0;
-201.9883;0;-160.1;20.61583;-4.878086;0.5933425;-180.2126;-176.8099;0.4312983;-0.08959897;0;
-676.7966;0;-607.2767;-93.65996;-6.815567;-0.4119976;-648.7335;-644.3347;0.2359629;-0.1544763;0;
-504.8901;0;-462.3016;-103.6858;2.167238;-3.291728;-479.8537;-474.3348;-0.1540782;0.04058097;0;
-206.4076;0;-186.1632;22.605;4.508609;-5.364891;-181.5212;-179.3812;0.1709133;-0.08939449;0;
-193.3941;0;-169.4219;40.13596;1.624666;-2.546217;-166.7837;-167.7692;0.3006763;-0.349174;0;
198.7907;0;191.1297;27.03969;4.167654;-2.275727;217.5033;217.3933;-0.0894299;-0.1539212;0;
697.5276;0;658.3901;33.6342;-2.534339;-5.823536;710.2245;708.4904;-0.4791441;-0.2187338;0;
481.9973;0;473.4462;31.53894;-3.87194;-5.415787;499.0542;495.9475;-0.08885859;-0.2185141;0;
153.053;0;171.8718;30.57022;4.840464;-8.424455;171.5296;172.9238;0.3010347;-0.02339247;0;
161.6449;0;173.5732;33.47552;5.638907;-9.621683;178.5411;183.3072;-0.2190065;-0.02336896;0;
-187.2173;0;-151.1256;18.44942;8.379908;-1.574185;-163.0292;-158.5177;-0.02388439;0.1065892;0;
-674.9089;0;-613.4288;-98.26046;8.772654;0.4367628;-644.7482;-638.4921;0.6258129;-0.08841992;0;
-508.0018;0;-474.4445;-108.1567;7.826809;1.106153;-483.1812;-475.4947;0.1704128;-0.2832331;0;
-206.83;0;-193.4837;21.0121;6.211355;3.382462;-184.0958;-179.4155;-0.2195625;0.1068556;0;
-197.6267;0;-178.7341;40.48119;4.530174;3.245097;-172.5415;-171.1143;0.1054949;0.3666176;0;
196.0616;0;183.1387;27.00977;3.92241;5.318185;214.6248;215.8008;0.3002909;0.04141245;0;
693.3645;0;647.0964;33.41689;-13.22819;0.2892434;706.5368;706.2748;0.3649565;-0.3484332;0;
482.8358;0;465.662;31.69666;-19.04204;-1.854379;500.4926;499.0439;0.4295571;-0.2831158;0;
169.8202;0;179.6501;30.35297;-16.74574;8.395629;187.7716;190.0725;0.03932145;0.2369075;0;
169.3997;0;174.2223;33.4459;-19.81037;9.257971;184.4595;190.4438;-0.1556201;0.1717021;0;
-194.4627;0;-162.8459;20.4813;-11.68516;7.306163;-172.6089;-166.0685;-0.09049638;-0.1533072;0;
-675.2131;0;-619.7026;-96.85531;-8.659309;7.70072;-646.822;-638.9763;-0.1553728;-0.2830878;0;
-506.4316;0;-479.4001;-108.2522;-11.79942;3.004299;-480.6928;-472.8549;-0.2851513;-0.217836;0;
-208.5097;0;-195.6858;21.79125;-11.31807;2.398434;-183.2965;-179.7144;-0.1549301;-0.08768246;0;
-195.6816;0;-173.5002;40.5724;-0.05454066;-5.909616;-168.1824;-167.9772;0.2350296;-0.02262701;0;
199.1292;0;186.1809;26.78854;3.429115;-10.45852;219.5418;219.9967;0.2347934;0.2372651;0;
698.1157;0;650.8851;33.63317;-1.464451;-1.271469;712.136;710.9037;-0.09027921;0.301994;0;
483.022;0;467.1982;31.47544;0.07823796;-1.605106;501.0887;498.2335;-0.1551558;0.4965926;0;
158.512;0;170.7525;30.38185;-6.21848;-0.3979222;177.1228;177.8936;-0.02506525;0.366159;0;
170.4717;0;175.8283;33.53722;-6.011161;2.214812;185.8154;189.8963;-0.09000741;-0.08898037;0;
-180.5858;0;-147.8108;18.51106;-13.70828;-6.093053;-159.1356;-155.3711;-0.02494963;0.1060111;0;
-677.467;0;-616.1143;-100.1979;-18.11514;-6.220897;-649.2917;-644.4066;0.04004278;-0.4138342;0;
-513.8681;0;-482.0623;-110.0922;0.6582875;-4.607177;-488.7821;-482.4027;-0.3498015;-0.6083204;0;
-208.1927;0;-194.7846;21.32744;2.465311;-5.071429;-184.0689;-180.9443;-0.4144174;0.1069316;0;
-198.4883;0;-176.1606;40.54634;11.37144;1.497872;-172.2648;-172.6415;-0.2840663;-0.02311052;0;
199.0115;0;188.7705;26.82497;18.59466;2.23318;217.8373;217.336;-0.3487482;-0.08805463;0;
703.183;0;661.843;33.48216;0.4903409;7.053585;715.4931;713.2432;-0.08852839;0.3018379;0;
483.399;0;473.8346;31.44952;-0.3134589;9.122969;499.5699;496.1978;-0.02347209;0.1715999;0;
158.8262;0;175.2583;30.48089;-1.719664;1.544852;175.1057;176.1723;-0.3482852;-0.02347453;0;
166.6626;0;177.456;33.19888;-5.267909;-0.2652392;180.7394;185.2407;-0.1530332;-0.1533856;0;
-192.3869;0;-158.8033;20.42193;2.909058;-4.551758;-170.4533;-167.0185;0.2369246;0.1066379;0;
-681.4477;0;-629.657;-97.22697;1.700686;-8.432073;-654.2263;-649.3582;-0.08815018;0.3664001;0;
-511.0358;0;-485.2841;-110.4976;8.865297;-9.830242;-488.5269;-481.7271;-0.2829636;-0.2186742;0;
-204.3012;0;-189.9447;20.54766;12.33999;-12.63353;-182.627;-179.957;-0.1527446;-0.3483891;0;
-188.7911;0;-166.3906;41.01672;-1.136345;-16.70667;-165.6394;-166.5953;-0.08762381;-0.2830717;0;
208.2616;0;199.1555;26.60773;-3.278657;-19.23523;224.3935;223.8134;0.04239892;-0.3477546;0;
705.8646;0;664.9086;33.57747;0.7441012;-18.01021;716.1083;713.6547;-0.02261103;-0.08753583;0;
485.3908;0;473.5864;31.60721;1.546661;-18.52798;499.1849;495.1096;0.1073464;0.04248681;0;
165.5011;0;178.7585;30.0762;-6.626567;-14.69146;178.8441;179.1457;0.2371732;-0.08749057;0;
172.0814;0;177.8917;33.91904;-9.231877;-11.26056;183.0372;186.7118;0.3019022;-0.02243531;0;
-192.8456;0;-158.4306;17.45571;1.35997;-18.21535;-174.2797;-171.2959;0.2366315;0.1724893;0;
-681.4062;0;-622.1008;-103.2512;1.961816;-17.86214;-655.9249;-651.8197;-0.0234756;0.367218;0;
-507.6835;0;-483.3576;-110.8935;7.251131;-9.672514;-484.9764;-479.3761;-0.218354;0.561751;0;
-210.51;0;-202.4504;21.5264;9.85679;-7.854256;-188.3255;-185.9167;0.2366368;0.3662845;0;
-205.0511;0;-184.9431;40.37029;5.62635;-2.085954;-181.1398;-182.7314;0.431301;-0.0888549;0;
204.949;0;190.9288;26.89897;7.362985;0.4613715;221.465;220.1873;0.04106358;-0.2187003;0;
719.2969;0;672.1825;33.49362;-6.644212;0.7958226;729.1121;727.0237;-0.3487817;-0.2834479;0;
492.7501;0;476.4801;31.5859;-12.19627;2.134681;507.1782;502.718;-0.4133986;-0.4130978;0;
160.6717;0;170.1551;30.05492;-1.868883;-2.422181;176.0223;175.3147;-0.08814652;-0.3477153;0;
170.88;0;172.9826;33.96024;-3.274501;-3.223542;182.4046;186.0081;0.1068441;-0.2174313;0;
-188.7985;0;-163.1473;16.18504;-1.998413;-6.703294;-171.2885;-168.3757;-0.2830673;-0.02231077;0;
-677.5505;0;-630.6234;-107.7065;-0.8573288;-7.500353;-655.1855;-651.0264;0.1070211;-0.02228836;0;
-507.6422;0;-488.061;-113.9076;-8.090136;-11.98055;-490.1098;-483.5811;0.756587;-0.4770373;0;
-210.8436;0;-205.7123;21.76375;-9.488526;-14.71481;-192.7041;-189.1179;0.1711207;-0.1517213;0;
-195.5143;0;-186.0779;40.48246;-8.0061;-3.514122;-174.8319;-174.1853;-0.2188553;0.1732679;0;
207.9169;0;183.9857;26.8861;-8.600291;-2.706796;219.9579;220.0416;-0.153668;-0.2167103;0;
706.5823;0;651.3158;33.48076;-6.783965;4.730785;711.7396;709.387;-0.02357892;-0.02159053;0;
487.6695;0;462.1311;31.44812;-4.633695;9.414837;496.9446;493.5948;-0.1534899;-0.1515035;0;
170.2762;0;170.1883;30.16715;-11.46057;-4.995709;179.9793;180.7558;-0.5431398;-0.281286;0;
176.4769;0;169.9548;33.57261;-12.4544;-7.669885;183.1718;187.3208;-0.4126593;0.04383337;0;
-190.3911;0;-167.5464;18.67135;-1.389828;-5.451864;-175.707;-171.4997;0.1724614;-0.08614536;0;
-674.0815;0;-628.4587;-100.475;1.089815;-7.790666;-650.6041;-645.8388;0.3022228;-0.2159935;0;
-507.8;0;-492.4578;-108.6824;2.763659;-9.18948;-487.3446;-481.5846;-0.2827869;-0.2807438;0;
-214.312;0;-210.1047;22.36099;4.635916;-9.716109;-196.0636;-193.6827;-0.3474701;-0.2154943;0;
-194.2316;0;-179.8462;40.14207;3.559531;-14.79693;-173.8777;-175.747;0.3025524;0.3694283;0;
206.9495;0;189.1491;26.8584;2.752647;-16.05461;221.9107;218.9188;-0.2174903;0.4340244;0;
709.114;0;659.66;33.64049;4.22375;-11.55075;718.8753;713.7;-0.4121738;0.04378423;0;
491.3856;0;473.2155;31.35781;5.022813;-11.13724;505.0726;498.6531;0.2379138;0.1736749;0;
164.6183;0;175.452;30.38928;-11.19186;-4.36102;178.7913;177.2509;-0.02219466;0.04356572;0;
176.6968;0;183.1467;33.35723;-17.14149;-1.543355;190.6057;193.1272;-0.0871397;0.238424;0;
-183.6747;0;-146.4967;18.45619;-10.56018;-1.742753;-161.2841;-158.6401;0.3677192;0.4980538;0;
-679.116;0;-613.2398;-97.56654;-14.03317;0.6032786;-651.2507;-648.0471;0.4323171;-0.02218541;0;
-508.3317;0;-475.5675;-107.0262;-6.985493;-6.095377;-484.6172;-481.3544;0.1720133;-0.3469998;0;
-205.0356;0;-193.3563;21.51678;-4.432878;-7.897791;-182.5943;-183.083;0.04190582;-0.3466512;0;
-188.5253;0;-168.6743;40.29821;-17.49022;-5.21066;-163.1705;-167.0944;0.4316677;-0.08643347;0;
212.9;0;203.0584;26.70203;-19.41503;-6.611944;233.0443;229.8115;0.3662667;0.3034574;0;
701.4404;0;664.185;33.48428;-17.58686;-6.6053;716.0048;712.2755;-0.0239054;0.1732178;0;
476.2234;0;469.9899;31.3267;-19.24413;-7.402459;495.2085;489.7338;-0.02388138;-0.1517929;0;
165.6508;0;182.0372;30.35819;-15.74119;-7.39502;183.9296;181.8962;0.1060773;-0.4764771;0;
169.4823;0;176.4195;33.13877;-15.18951;-6.516812;182.9952;184.7744;0.1709381;-0.0861943;0;
-197.8159;0;-166.523;20.61176;-16.31332;-10.66308;-178.3821;-176.4798;-0.08910307;0.238729;0;
-668.5679;0;-615.255;-87.3547;-15.15785;-10.04964;-642.2821;-639.5071;0.04092114;-0.08634757;0;
-496.4198;0;-472.0835;-97.19942;-19.89902;-9.436701;-471.7222;-468.6376;0.235782;0.04367388;0;
-206.0667;0;-195.1231;22.52561;-21.28555;-8.824372;-181.9561;-183.1225;0.2355451;0.3034994;0;
-188.4309;0;-168.1905;39.5569;-13.62835;-1.380522;-162.6579;-166.6342;0.1053738;0.1082924;0;
210.9328;0;202.105;27.02343;-11.53757;0.6972141;230.8079;228.0849;-0.3495035;-0.02175112;0;
705.5346;0;667.1055;33.18067;-14.60744;8.265463;720.3922;716.8599;-0.4141197;-0.1516639;0;
477.0652;0;468.035;31.46068;-13.18624;12.27601;496.4056;492.0023;-0.0238995;-0.08654422;0;
149.0629;0;165.9038;30.24216;-13.10564;8.445771;168.7588;167.8581;0.04109186;-0.2163919;0;
166.5293;0;174.7326;33.08533;-12.49024;9.709961;183.0194;184.3061;-0.3487535;-0.1512072;0;
-188.5222;0;-155.1522;20.24603;-7.654917;3.872811;-165.4894;-164.9536;-0.2184684;-0.2160226;0;
-677.6493;0;-622.3864;-88.71956;-5.771215;1.323568;-647.7681;-645.7961;-0.02334682;-0.1508382;0;
-501.6815;0;-478.6455;-97.25108;-5.430624;0.6524091;-474.3915;-472.1717;-0.2182254;0.04421542;0;
-196.7054;0;-184.7495;23.47351;-5.291445;-3.233135;-169.6928;-171.3482;0.1068306;-0.2806657;0;
-188.3244;0;-165.6359;39.50435;1.277955;2.999405;-158.5278;-162.9926;0.2366579;-0.6052204;0;
210.2271;0;197.3482;26.97094;4.491852;3.331306;232.4975;229.349;-0.4132533;-0.01990621;0;
709.4523;0;664.8523;33.25317;-7.033237;-5.781476;725.2036;720.9963;-0.60774;0.4348852;0;
479.917;0;465.2842;31.22076;-9.035903;-7.584206;500.0253;493.9481;-0.2822927;0.04464416;0;
159.7829;0;170.2148;30.31483;-4.271401;-10.38987;180.0584;178.2353;-0.08710703;-0.1503027;0;
168.6179;0;173.6044;32.84558;-4.066039;-13.19259;187.4362;189.9877;-0.2169542;-0.215119;0;
-197.4926;0;-165.5871;21.6307;-4.998982;-9.093497;-170.8846;-169.2103;-0.02183416;-0.4747722;0;
-669.9941;0;-610.1346;-85.52469;-5.262379;-8.950395;-638.0405;-636.5552;0.1081225;-0.2144258;0;
-493.909;0;-466.3436;-96.24582;2.847234;-11.01775;-467.8596;-465.5638;-0.2817902;-0.08427569;0;
-205.6199;0;-205.3185;22.6037;6.662766;-10.60478;-181.9705;-183.55;-0.02163772;-0.1491584;0;
-186.4229;0;-181.0617;39.44751;-1.18081;-12.46965;-160.5483;-166.2492;0.1732861;0.2407956;0;
217.3741;0;194.2441;26.91415;-2.518794;-13.12695;237.413;231.8429;-0.1517248;0.1106189;0;
705.2853;0;655.1297;33.0715;9.540176;-10.23361;720.8688;714.5546;-0.1515723;-0.08439424;0;
478.8151;0;461.1936;31.28915;12.74577;-10.02238;498.5684;491.386;-0.02148534;0.04562524;0;
156.6832;0;165.1288;30.13327;1.948346;-8.60567;175.9169;172.8021;0.04350359;-0.1493226;0;
167.7701;0;170.9598;32.97655;-0.3971599;-7.257364;184.1734;185.6844;-0.08647481;-0.0192379;0;
-188.8443;0;-156.7973;19.4502;2.215208;-12.80953;-165.2112;-163.5767;-0.2163226;0.2406508;0;
-678.7832;0;-616.2213;-94.69948;-1.002199;-14.06934;-647.8025;-645.7324;0.04376413;-0.1493951;0;
-508.1241;0;-473.5485;-104.7867;2.816225;-11.24192;-480.2979;-476.7931;0.2386222;-0.1492449;0;
-202.0171;0;-187.9035;21.69256;2.948093;-11.76649;-175.4059;-174.7157;-0.1514216;-0.08412765;0;
-189.3204;0;-167.3499;40.099;-9.246007;-10.74992;-161.1117;-163.5456;-0.2812042;-0.08404312;0;
208.6074;0;197.6973;26.62796;-11.58124;-10.67213;228.6668;226.3603;-0.1509869;0.1109434;0;
706.3975;0;665.5759;33.22288;-14.98488;-10.59443;719.7526;716.6988;0.0440668;-0.0191028;0;
479.6138;0;470.7547;31.12803;-16.84583;-9.512177;496.7661;492.9033;0.3688592;-0.01908361;0;
155.607;0;170.5574;29.90985;-14.81917;-14.52622;173.1169;173.0685;0.4984233;0.1108703;0;
161.4476;0;171.9477;32.87829;-15.74229;-15.31542;177.4407;181.2654;0.5628898;0.1107589;0;
-202.7191;0;-164.3686;21.03869;-5.411343;-12.75468;-179.0585;-175.425;0.4323895;0.3055496;0;
-678.4637;0;-614.4771;-86.99066;-3.463523;-13.34471;-648.3301;-643.3885;-0.152751;0.2402752;0;
-502.2452;0;-465.1219;-95.89874;2.167011;-6.566144;-475.6401;-469.1418;-0.2825322;0.1100991;0;
-213.8228;0;-196.6018;23.32525;6.384393;-3.813368;-188.8686;-186.4997;-0.02237896;0.04502114;0;
-195.0547;0;-174.2279;39.10637;-4.540362;-9.837878;-169.4385;-170.3828;-0.3471932;-0.6046975;0;
213.0612;0;200.6963;26.82323;-3.932588;-10.29675;230.5932;230.1497;-0.476779;-0.7989919;0;
700.6019;0;657.3275;32.98067;-14.11004;-5.731688;711.932;709.3649;-0.02152854;-0.213483;0;
475.3858;0;463.2642;31.26087;-17.98063;-4.520358;491.702;487.7632;0.04346044;-0.08333384;0;
154.5067;0;168.3842;29.85515;-12.47021;-7.596909;173.1803;173.6807;-0.08651792;-0.1482174;0;
157.9746;0;166.9656;33.44833;-15.9403;-7.187377;175.4425;179.3158;-0.2163657;-0.08310118;0;
-203.0652;0;-168.4086;17.5477;3.365824;-8.854729;-178.6808;-174.749;-0.1511809;-0.01805033;0;
-683.1823;0;-626.1343;-97.47462;8.854799;-10.18549;-652.8879;-647.0859;0.04387301;0.04693514;0;
-504.5227;0;-476.1427;-102.2492;-0.8660136;-1.467597;-478.3192;-472.0859;-0.3459751;0.04688798;0;
-205.8531;0;-194.8054;23.66527;1.746825;0.9451417;-181.4876;-179.2585;-0.5405295;-0.08309381;0;
-198.8997;0;-179.1799;39.07124;-10.1103;-3.208628;-172.4972;-173.2063;0.04471969;0.3067937;0;
200.5994;0;189.4399;26.78813;-14.38705;-2.736523;220.4163;218.8957;-0.08525992;0.4364202;0;
701.1462;0;656.3273;32.9456;-7.138923;-2.130927;713.5718;710.3036;-0.3450436;0.1761123;0;
479.3028;0;462.4524;31.10091;-8.53827;-1.99482;494.8394;490.3252;-0.2147622;-0.1489014;0;
156.7956;0;163.95;30.00769;-7.860105;-0.9210888;172.5664;171.4925;-0.2145464;-0.2786865;0;
159.2617;0;161.7863;32.91357;-7.516438;0.2854075;172.8927;175.8179;0.1754732;0.176365;0;
-208.0263;0;-176.7687;19.1374;-10.38927;-3.063904;-186.5379;-182.4912;0.6950356;-0.01871429;0;
-686.5141;0;-634.236;-99.57217;-11.38419;-3.596689;-659.1753;-653.0088;0.5644025;-0.3435322;0;
-514.7853;0;-492.732;-110.5915;-8.35864;1.631472;-490.9097;-483.4375;0.2389987;0.1115844;0;
-220.5407;0;-214.2517;20.76612;-8.416615;2.567594;-197.9384;-194.4093;0.2387586;0.04650492;0;
-195.3941;0;-184.4887;40.29793;-9.479884;5.713089;-173.4393;-173.7867;0.04361664;0.1114255;0;
210.5983;0;188.0095;26.32694;-9.001844;7.716837;223.5356;223.1884;-0.02139452;0.1113136;0;
702.4518;0;649.8383;33.10957;-15.89167;5.699595;709.3791;707.9079;-0.02137303;-0.1486676;0;
474.4228;0;452.5342;31.20224;-18.2866;6.095766;486.9653;483.559;0.1735505;0.3712205;0;
150.2338;0;152.6051;29.60917;-13.71388;5.553777;163.7007;162.984;0.2383434;0.3058801;0;
159.703;0;153.951;33.39;-13.36531;5.280265;168.7836;171.8782;-0.2816348;-0.214166;0;
-202.5255;0;-179.0989;16.98968;-13.95411;3.399559;-186.6449;-183.3035;-0.1514171;0.110886;0;
-684.6421;0;-630.2546;-104.3414;-12.66827;1.989502;-660.3442;-655.6943;0.4334411;0.04580718;0;
-507.4803;0;-485.0689;-111.2331;-10.64581;5.269545;-485.3308;-479.4362;0.3030709;-0.2790756;0;
-207.371;0;-209.095;22.06177;-7.48728;5.867096;-186.8055;-184.54;-0.152005;-0.08389311;0;
-193.482;0;-185.834;39.96809;-11.69932;3.449937;-172.5623;-172.6729;-0.3467543;0.2410279;0;
206.9487;0;186.5406;26.30978;-13.02673;3.982334;221.2882;221.9898;-0.2164712;0.04588368;0;
704.6155;0;653.7433;33.21735;3.195008;3.040571;714.8176;713.0823;-0.02135168;-0.01912976;0;
478.0835;0;457.0599;31.06005;6.340606;3.037516;493.3978;490.1649;-0.08629756;-0.08407788;0;
154.2657;0;158.6879;29.84193;3.72129;7.790131;170.1893;171.5199;-0.4760149;-0.2788954;0;
165.0427;0;165.7748;32.99784;5.794632;9.523859;178.0767;183.7787;-0.2156672;0.04622152;0;
-200.2521;0;-171.2849;18.78432;-5.330601;9.916187;-180.1722;-174.5384;0.1743535;0.1111424;0;
-682.8707;0;-628.8827;-94.30272;-8.205633;11.24576;-655.1898;-649.3118;0.04424364;-0.08387128;0;
-502.5874;0;-475.64;-101.017;-10.33987;12.03826;-478.8698;-472.7478;0.2391012;0.1760824;0;
-209.9167;0;-200.7375;23.52191;-13.81308;12.36107;-189.0341;-186.2915;-0.1509431;-0.2138986;0;
-196.275;0;-181.358;39.24036;-9.779734;13.42038;-173.7267;-174.0479;-0.2807261;-0.08374901;0;
213.9036;0;196.8218;26.58228;-10.03833;13.47388;228.6207;227.7376;0.4991641;0.2411719;0;
703.0677;0;655.2684;32.98983;-9.291306;11.11594;710.711;708.3296;0.6285971;-0.1488745;0;
472.7891;0;456.0848;31.08262;-8.678758;10.16701;484.4853;481.0443;0.6929329;0.1111444;0;
157.0975;0;166.7717;29.92696;-6.795003;7.946476;169.9063;170.2794;0.3674;0.3059348;0;
159.9382;0;164.7301;32.89538;-6.386034;6.732799;172.0469;175.668;-0.1527079;-0.01920934;0;
-205.1641;0;-172.2036;19.68145;-2.964341;4.917616;-185.3214;-182.2662;0.04234752;0.175712;0;
-676.346;0;-617.994;-91.15762;-0.6168382;3.439051;-650.2139;-646.3497;0.1722396;0.3054701;0;
-503.3156;0;-477.131;-98.18745;-10.93135;6.248756;-480.4581;-475.7856;0.2370339;0.1102612;0;
-211.2689;0;-206.2874;23.78745;-12.72902;6.242477;-189.7462;-189.014;0.1718284;-0.01978433;0;
-192.2535;0;-179.1562;38.88095;-10.77287;6.102239;-169.6281;-172.3323;0.04172107;-0.2796338;0;
209.4878;0;191.5876;26.66051;-12.03485;6.16309;224.0946;222.1426;-0.2181902;0.04548387;0;
707.9641;0;657.7231;32.81811;-6.195605;7.429574;715.4348;712.4229;-0.4778403;0.5651769;0;
486.2389;0;466.5955;30.91108;-3.778482;8.694784;497.5751;493.0045;-0.02258882;-0.2149991;0;
157.8526;0;161.9046;29.81805;-5.515998;2.121842;169.8021;168.6718;0.1723359;-0.6695544;0;
163.3786;0;162.8039;32.84905;-3.969238;0.3111708;173.9418;175.9986;0.04222806;-0.2790776;0;
-199.3533;0;-168.4433;18.76061;1.527107;4.597766;-179.4304;-177.5006;0.2370877;-0.3437645;0;
-685.7209;0;-637.2258;-96.82515;4.539682;4.45918;-658.5717;-654.8947;0.3667841;-0.01858243;0;
-508.1208;0;-491.7833;-105.4735;2.860181;2.914092;-485.4341;-480.1992;0.3664156;0.306273;0;
-205.5746;0;-199.0611;22.00599;2.991029;1.370556;-186.0966;-183.553;0.4310147;0.1760305;0;
-193.3116;0;-180.4328;39.53756;6.873766;7.062606;-173.9156;-173.4361;0.1707123;-0.01904838;0;
212.054;0;189.4377;26.31695;6.129925;8.730083;223.3096;224.2883;-0.02436128;-0.1489639;0;
710.4028;0;657.2621;32.91218;11.81719;0.147618;715.2128;713.8793;0.1705652;0.04608778;0;
478.8051;0;456.4522;31.06752;15.55636;-0.187445;488.2953;485.0266;0.04045916;0.3059109;0;
154.7366;0;157.5811;29.59953;-4.688358;-5.679613;165.0294;166.3242;0.0404185;0.3705708;0;
160.6406;0;155.6736;33.13049;-8.702135;-9.023053;167.7372;172.5289;0.2352799;0.1103291;0;
-203.5878;0;-181.5009;17.60499;-0.05320247;2.037953;-190.7513;-187.0263;-0.02482586;-0.2146185;0;
-676.8952;0;-630.7801;-101.228;-0.3879417;3.643496;-659.324;-653.9161;0.04016642;-0.2144028;0;
-497.8672;0;-486.5934;-107.9978;6.913466;3.237937;-483.8119;-476.9102;0.3649628;-0.5390241;0;
-202.3902;0;-212.0547;22.54515;10.25542;5.110084;-189.5359;-187.3263;0.4945307;-0.4085478;0;
-183.5088;0;-184.418;39.57642;14.93417;2.291788;-169.7303;-171.0212;0.4290665;-0.08330059;0;
219.0983;0;187.7054;26.23084;19.54086;1.619656;227.1159;226.2635;-0.02613603;-0.4080536;0;
708.0698;0;645.4741;33.01357;16.90926;3.426568;711.519;708.5436;-0.09107711;-0.01783953;0;
481.5343;0;449.2988;30.9814;17.36078;2.485364;489.1031;484.444;-0.02601825;0.5019171;0;
161.5861;0;157.1814;29.76336;21.96504;1.41114;169.9593;169.1155;-0.2858615;0.1765761;0;
169.0449;0;160.8341;33.2317;21.94297;1.074807;175.9104;177.8786;-0.3505416;0.1114313;0;
-195.8791;0;-174.9088;16.64413;17.9688;-5.624322;-181.3369;-179.3707;-0.480124;0.241254;0;
-673.817;0;-623.5699;-99.68913;16.00837;-7.695142;-653.6047;-650.0163;-0.2847396;0.1760443;0;
-489.6072;0;-469.2082;-104.3366;10.90207;-6.816631;-473.2882;-469.5161;0.3002526;-0.278904;0;
-197.0745;0;-197.8104;23.14174;8.278167;-7.747543;-180.5846;-181.2514;0.2999509;-0.2136564;0;
-192.6286;0;-185.5552;39.11045;5.323088;-4.390734;-174.0313;-177.821;0.1047475;0.3712644;0;
211.7368;0;186.5693;26.51496;4.648154;-3.314595;222.5693;218.9709;-0.4150965;0.1759893;0;
707.5247;0;653.522;32.92258;-1.585807;-1.502725;712.4743;708.4422;-0.5446141;0.3057471;0;
483.3636;0;462.8983;30.82804;-5.134187;0.1062529;494.0553;489.3401;0.04063921;0.3704073;0;
166.1621;0;170.7673;29.9225;11.81753;3.455293;178.967;177.4425;0.1705331;-0.1497037;0;
166.0576;0;167.16;32.64106;14.2839;6.465931;177.7252;179.8254;0.3002964;-0.01961857;0;
-202.1118;0;-170.9007;19.55232;17.14896;-0.3055983;-182.4599;-180.1744;0.4948967;-0.1495335;0;
-675.2333;0;-616.0676;-91.28662;21.88813;-1.577967;-649.4167;-645.8218;-0.155274;-0.279318;0;
-497.8936;0;-467.0856;-100.0654;6.995681;4.652909;-476.5383;-471.5726;-0.2850527;0.1757341;0;
-210.7874;0;-201.0623;22.28616;4.711476;4.715217;-190.5155;-189.3029;-0.08986422;0.2405249;0;
-193.1468;0;-179.9333;39.19275;5.77847;6.050016;-171.8333;-174.4326;0.04016075;0.04538114;0;
220.5269;0;198.245;26.40978;3.964002;7.182646;233.2608;230.4768;0.3649571;-0.0196318;0;
707.5604;0;654.5663;32.75504;-0.05846901;3.424507;714.7217;710.2539;-0.285083;0.04535526;0;
478.4643;0;456.8202;31.03547;-4.546389;3.889947;490.1786;483.5288;-0.4796986;0.1752444;0;
162.1422;0;164.1956;29.44258;13.47647;-1.271526;173.2826;170.0753;0.1704568;0.2400356;0;
163.4786;0;158.9081;33.16111;18.88793;-4.217497;172.0466;172.5906;0.04035087;0.1748271;0;
-203.189;0;-177.9573;16.69855;6.812514;4.293451;-186.4462;-185.4655;0.170245;-0.02025059;0;
-680.8696;0;-623.5544;-100.0096;10.62406;3.485342;-656.7723;-653.9185;0.3000086;0.0447371;0;
-498.9016;0;-467.2561;-105.1564;-0.7734676;7.701643;-477.015;-472.7897;-0.2200316;0.4344962;0;
-202.1117;0;-191.6749;22.63503;-4.792154;9.971202;-180.1221;-178.8372;-0.4147125;0.304125;0;
-197.5358;0;-181.2374;39.16647;16.44613;-1.827448;-173.5694;-175.4091;-0.02449174;0.238852;0;
204.5232;0;187.4469;26.44598;17.09919;-2.69639;220.4696;218.3818;0.1054676;0.3035794;0;
702.8171;0;651.0255;32.79121;31.34925;-11.40122;710.3142;706.6044;-0.1545078;0.1733396;0;
473.9756;0;451.4088;30.82173;38.61877;-16.41336;483.9639;478.5711;0.1704842;-0.02173658;0;
154.5971;0;156.6657;29.54139;16.60956;-3.938408;165.2001;163.5609;0.1053455;-0.2166168;0;
163.7496;0;158.0075;32.82254;15.11998;-3.264621;172.093;173.5789;-0.219597;-0.4762684;0;
-202.6684;0;-179.9814;17.85957;4.78966;-0.6490064;-187.3368;-186.727;0.1054603;-0.4108226;0;
-674.4774;0;-626.7634;-96.03864;-2.181378;2.499722;-653.2892;-651.6805;-0.349417;-0.02060572;0;
-491.0791;0;-475.6468;-102.0016;5.522997;-3.598115;-473.3479;-470.3041;-0.4140333;0.3042517;0;
-205.0417;0;-206.6163;23.0381;2.503337;-4.398295;-187.6407;-188.6604;-0.0238132;0.4338807;0;
-188.9061;0;-183.6702;39.00692;7.793084;1.835415;-170.2733;-175.6647;-0.4135933;0.30351;0;
223.7638;0;193.7623;26.41153;8.454839;3.508144;234.5069;229.1209;-0.2182757;0.108303;0;
701.9235;0;642.6543;32.69432;9.048579;-4.667176;707.5334;701.1533;0.3666497;0.1081942;0;
470.834;0;441.8592;30.91235;11.7188;-6.202972;480.9985;473.5003;0.04144456;-0.08681654;0;
164.1399;0;156.8707;29.50698;0.6559436;-5.058152;174.4815;170.1768;0.04140292;-0.216664;0;
163.4752;0;149.5292;32.91311;-1.354447;-6.593554;170.6205;169.3186;0.366198;0.1083904;0;
-205.0664;0;-190.7001;17.57523;-1.420435;-1.965229;-190.9317;-192.1074;-0.08894133;0.3681509;0;
-671.2509;0;-630.0375;-100.3207;-5.035355;-1.360408;-650.6962;-650.7462;-0.6085907;0.4977157;0;
-491.0417;0;-477.9181;-107.3413;5.284832;-2.6987;-474.6306;-473.3687;-0.1532078;0.3023135;0;
-199.0698;0;-205.5746;22.26397;7.556698;-2.629005;-183.8621;-186.2247;0.2367502;-0.08779431;0;
-186.6259;0;-187.5644;39.35799;-3.301886;-2.760329;-169.4345;-175.5428;-0.2182591;0.302098;0;
211.1742;0;178.1903;26.13757;-4.906158;-2.355658;221.1645;215.4996;-0.2830071;0.2368271;0;
701.7154;0;638.1549;32.92038;-1.284883;-7.778787;704.5742;698.1029;0.1720487;-0.348117;0;
479.1218;0;449.0459;30.7009;-0.8814499;-9.512527;486.2256;478.8238;0.0419411;-0.08789782;0;
159.8007;0;158.9903;29.67056;-3.291462;-7.761412;169.0213;165.4999;-0.1530031;0.04212518;0;
165.3872;0;160.9545;32.63924;-2.886989;-8.82534;172.9744;173.517;-0.08788199;-0.02288449;0;
-199.8455;0;-176.2253;18.61347;-0.8070071;-6.070172;-184.9571;-183.478;0.1720757;0.1720406;0;
-677.2171;0;-628.9456;-90.91268;0.8013942;-5.52821;-655.2847;-651.8706;0.1069354;0.236835;0;
-496.1273;0;-476.515;-97.69288;4.015769;-4.116136;-477.0281;-472.9302;-0.2829761;0.1716297;0;
-206.5241;0;-203.7355;22.90721;6.28891;-1.365699;-188.4436;-188.2853;-0.02282236;-0.02344478;0;
-191.3866;0;-182.229;38.68875;9.028281;-9.335174;-171.7001;-174.7279;0.5619066;-0.1533559;0;
220.6611;0;198.0755;26.59344;10.02456;-10.3974;233.144;229.8069;0.2365053;0.1066676;0;
704.5086;0;652.4605;32.5637;16.84602;-3.554936;710.1699;705.212;0.04136566;0.4313971;0;
474.4785;0;452.4051;30.9068;19.37469;-3.350415;484.0071;478.1172;0.3011935;0.4309636;0;
162.9081;0;164.9698;29.31403;9.442233;3.886986;173.4267;171.5406;0.1059888;0.3655632;0;
162.6195;0;158.932;32.84528;5.949145;7.031156;170.129;172.6176;0.1058823;0.2352612;0;
-208.1077;0;-185.3672;18.69437;6.345308;3.407135;-193.7966;-191.6853;0.4306126;0.04012281;0;
-679.2866;0;-631.5816;-93.83036;2.119374;5.279111;-659.3053;-656.384;0.6250819;-0.02488485;0;
-495.3212;0;-474.5256;-99.10838;1.916174;-0.2855327;-479.2955;-475.3776;0.5594865;0.2999769;0;
-202.408;0;-201.6857;23.86694;1.713177;-1.825853;-185.8986;-186.9197;0.299055;0.3646428;0;
-195.0207;0;-188.8644;38.64802;-16.90907;4.941135;-176.6539;-180.6725;-0.09104954;-0.02552765;0;
212.9703;0;188.6357;26.30287;-22.98765;6.074759;223.1977;219.8079;-0.5457295;-0.2853714;0;
711.5056;0;656.8983;32.64824;-10.57331;5.934689;716.288;711.4648;-0.4802138;-0.0901826;0;
476.2835;0;454.4021;30.74138;-9.557337;7.134418;486.6208;481.4901;-0.1548945;-0.02512465;0;
152.5924;0;156.595;29.27371;-8.677077;7.462164;164.2937;163.2285;-0.08977155;0.1048353;0;
162.3091;0;159.1238;33.30476;-6.257461;6.85182;170.6878;172.6222;-0.08968134;0.494534;0;
-208.1053;0;-183.4265;13.71862;-1.159983;13.40914;-192.9261;-191.7432;-0.4793953;-0.3505383;0;
-687.5302;0;-636.2645;-103.9235;2.457529;14.73533;-666.1817;-664.063;-0.4139462;-0.6100555;0;
-496.3101;0;-474.5186;-104.1315;1.518031;8.893126;-480.2929;-476.3023;-0.1536609;0.1701656;0;
-203.5208;0;-203.053;23.47158;3.056747;8.549275;-188.3318;-188.4057;-0.1535065;-0.02490742;0;
-203.1914;0;-198.2888;38.44046;2.585161;0.8377702;-185.7688;-190.0279;0.1714844;-0.1548171;0;
210.9297;0;181.9694;26.5328;2.0467;-2.445113;219.7141;215.7716;-0.02358992;0.0402405;0;
714.4021;0;653.4869;32.44066;2.64688;-0.2992026;716.0563;711.5555;-0.3484029;0.1051674;0;
487.2981;0;458.2407;30.84635;2.041984;-2.30839;494.0105;488.5148;-0.1531508;0.0400944;0;
169.0307;0;166.739;29.31611;-2.782839;2.918476;178.2351;176.618;-0.0880296;-0.2847826;0;
161.0523;0;154.515;32.78489;-5.995224;4.523134;169.4353;172.0677;-0.1529085;-0.1545618;0;
-212.6093;0;-191.5913;17.25974;-2.171783;0.834528;-196.7384;-194.2962;-0.2177222;0.1054629;0;
-679.1611;0;-632.9894;-100.0112;-2.839186;1.369553;-657.559;-654.6194;-0.4124054;-0.02457774;0;
-496.3202;0;-479.3677;-104.9706;-2.970055;3.444648;-478.9253;-475.239;-0.217089;-0.02455305;0;
-205.0927;0;-210.396;23.00807;0.582903;4.847828;-189.1519;-189.7173;0.3028678;0.1054063;0;
-191.4558;0;-192.3811;38.97691;-15.0241;3.570281;-173.0948;-178.2198;0.1726288;-0.08960163;0;
217.4686;0;185.6223;26.06922;-17.5546;4.303506;229.9391;224.0696;-0.087414;-0.0895116;0;
712.9384;0;652.7009;32.66469;-2.466406;6.710445;720.0865;713.0986;-0.02235882;0.1054804;0;
482.4001;0;453.7698;30.69534;-1.123781;8.043362;493.539;485.0588;-0.0873037;0.3002764;0;
158.2655;0;154.2142;29.16525;14.61748;8.705109;168.5812;163.6077;0.2376207;0.2999747;0;
165.0405;0;155.8083;33.25888;21.30158;9.098259;172.5347;171.5643;-0.02248739;-0.2200655;0;
-200.8165;0;-180.1169;14.85969;16.18898;14.1797;-185.8961;-187.1154;-0.3473015;-0.154877;0;
-681.9352;0;-631.0217;-100.9096;18.65096;15.50499;-660.9079;-660.7517;-0.1520505;-0.08975404;0;
-491.408;0;-467.4071;-101.1205;9.456169;14.28384;-473.4002;-472.1823;-0.3467998;-0.3495332;0;
-191.0649;0;-187.4529;24.48052;5.026038;14.87233;-173.2002;-176.4187;-0.6063207;0.04062204;0;
-186.8749;0;-175.9577;38.13654;9.240546;10.16858;-166.1546;-172.4933;-0.2159074;0.3004506;0;
224.3562;0;203.216;26.47906;8.426978;8.550896;237.7469;232.1642;-0.08575574;-0.1546227;0;
716.7582;0;665.217;32.57438;-7.187902;9.614031;723.3263;716.3124;-0.02070224;-0.02453264;0;
482.3429;0;463.1498;30.54265;-12.74039;9.537388;493.3397;485.2709;0.3041553;0.2353614;0;
171.2019;0;175.1415;29.63741;-5.426566;5.709777;182.1252;178.3748;-0.02098705;-0.02474448;0;
167.7191;0;168.2189;32.2313;-7.89936;4.297521;175.7578;175.8218;-0.08593331;-0.02471962;0;
-211.6963;0;-182.1491;19.58026;2.222634;11.46013;-195.17;-195.231;0.04408773;0.04027256;0;
-678.7488;0;-633.9264;-86.76097;6.038794;13.12319;-654.9301;-654.1165;-0.2807933;-0.2846046;0;
-493.2846;0;-477.4302;-93.67027;-4.750916;14.51665;-473.363;-472.1129;-0.2155438;-0.154384;0;
-206.1206;0;-199.3401;23.36506;-5.080935;17.3822;-187.6557;-190.5298;0.04454215;0.04067319;0;
-191.4832;0;-177.9005;38.33405;-4.004103;12.20717;-171.4752;-177.6573;-0.08543729;-0.1542697;0;
221.3768;0;200.2133;26.4265;-3.732636;11.19016;233.1188;227.2553;-0.0203841;-0.219082;0;
711.5328;0;660.7181;32.33447;-6.742995;16.6714;716.329;709.4095;-0.08533096;0.1059748;0;
480.871;0;463.0282;30.67779;-7.405805;16.25275;490.9097;482.8102;-0.1502126;0.235803;0;
162.0478;0;169.2104;29.33512;-5.322258;17.30815;174.3878;169.9196;0.1098077;0.1705987;0;
165.6331;0;165.917;32.67895;-6.455986;17.55869;175.8992;174.9338;0.04473006;0.1704273;0;
-200.5369;0;-173.6416;16.71662;3.397113;11.57968;-184.2216;-185.6234;-0.1502169;-0.1545806;0;
-677.0333;0;-627.1141;-95.0565;6.073017;10.76425;-655.6744;-655.9503;0.1747707;-0.3493274;0;
-491.7582;0;-470.4374;-98.83404;2.449593;5.193976;-474.4189;-473.3827;0.3045298;-0.08910697;0;
-196.0375;0;-193.2289;23.32891;4.657934;2.844476;-179.4652;-182.0532;-0.1505476;0.04091725;0;
-186.0954;0;-179.7289;38.29794;-7.135742;5.721762;-167.6032;-173.2496;-0.4102657;0.3007455;0;
222.5737;0;196.2003;26.39042;-11.01334;4.309494;233.8635;228.0978;-0.1499841;0.430378;0;
709.7925;0;655.2723;32.23595;-4.906703;13.48158;715.7612;707.8149;-0.08486602;0.0401415;0;
478.2579;0;455.7139;31.01666;-7.313647;16.34818;488.5308;480.2177;-0.0198134;0.1050685;0;
164.8096;0;165.5891;29.04897;-1.278078;13.58557;175.0098;171.0154;-0.0197935;0.1699303;0;
165.1438;0;158.801;32.9553;0.1970749;15.71525;173.3347;172.2178;-0.1497083;-0.0251425;0;
-208.3345;0;-185.7479;16.61788;-5.562923;8.599517;-193.3428;-193.5215;-0.01962318;0.4296542;0;
-684.3233;0;-636.3972;-104.338;-4.552956;6.179491;-663.2247;-661.3417;0.1103312;0.1043857;0;
-497.2294;0;-479.2739;-108.6685;-14.46137;14.81384;-478.8381;-476.6447;-0.08468167;-0.4154579;0;
-201.5032;0;-200.1823;22.93714;-18.86844;16.80844;-183.1929;-184.25;0.04533811;-0.09020372;0;
-192.6176;0;-183.6769;38.90605;-6.122481;9.423671;-171.7645;-175.7566;0.1752272;-0.2850151;0;
212.9347;0;188.6956;25.87349;-5.313022;9.280236;227.2701;222.6573;-0.2797202;-0.1547941;0;
700.9753;0;645.9636;32.65657;-6.445784;11.01235;708.8621;702.9421;-0.2794392;0.4950349;0;
477.5704;0;451.5994;30.49982;-4.564273;9.929554;488.0105;481.1594;-0.08425635;0.2996355;0;
172.4312;0;168.2878;29.09487;-11.52591;20.97152;181.9862;178.3904;-0.2141064;-0.155437;0;
175.6937;0;165.1202;33.18856;-12.71978;24.23261;181.7409;182.0842;-0.2138912;-0.2852155;0;
-200.7312;0;-182.5585;14.4771;-9.223397;20.39023;-188.6931;-187.788;-0.343611;-0.1549942;0;
-679.3513;0;-631.8367;-103.9779;-8.611894;22.5132;-660.8911;-659.1122;-0.4732004;0.1699982;0;
-493.1994;0;-472.4691;-104.9979;-8.067377;16.06034;-477.0066;-474.6674;-0.5376923;0.2347948;0;
-200.8506;0;-199.8811;23.54308;-6.049539;15.03945;-184.4241;-185.7104;-0.34225;0.1046242;0;
-190.4039;0;-182.0642;38.26201;-4.838011;16.364;-172.4947;-177.4654;0.04789795;-0.09038302;0;
218.2071;0;193.9299;26.16712;-2.354903;14.53902;227.9149;222.387;0.1777845;-0.4800962;0;
704.4933;0;648.6938;32.51263;-0.3428053;22.83017;707.9445;701.5476;0.1776059;-0.7394832;0;
473.8385;0;451.2659;30.35603;-0.4098098;23.94594;482.3462;474.7688;-0.01747462;-0.4788708;0;
159.7701;0;163.6443;29.38849;12.98719;24.12283;170.2681;165.7594;0.04751028;-0.08858559;0;
165.7939;0;163.6048;32.35746;15.85453;26.17494;174.1575;173.214;-0.0175048;0.3662748;0;
-203.3747;0;-176.1389;18.26951;15.5038;14.6948;-188.3354;-189.2779;-0.01748721;0.5608088;0;
-679.1186;0;-620.5509;-88.32028;20.64579;10.32627;-656.2858;-655.7282;0.5672364;-0.1543955;0;
-493.2168;0;-458.8208;-92.85421;-2.148665;16.4782;-472.5934;-470.3497;0.4367318;-0.7389464;0;
-200.9304;0;-189.37;23.9929;-5.295314;14.31819;-181.2647;-183.396;0.1764236;-0.3483998;0;
-187.86;0;-175.3742;37.83682;4.355549;11.28969;-166.34;-172.9044;0.306181;0.04175428;0;
222.9349;0;202.862;26.49199;6.628348;10.47455;236.125;229.8794;-0.01896335;0.171647;0;
704.2189;0;656.2427;32.27495;13.1194;2.493303;711.3987;704.2224;-0.0189443;0.2364419;0;
469.254;0;453.9971;30.4934;15.65181;0.6822587;481.8614;473.6928;0.04604208;-0.1535998;0;
160.4375;0;168.0594;29.46326;39.34682;-1.997622;173.4695;168.9947;-0.1489062;-0.02351073;0;
161.9629;0;162.2059;31.99487;45.73765;-4.808898;172.4831;170.8239;-0.2786913;0.1064476;0;
-210.95;0;-187.5938;20.21862;56.20789;5.377096;-193.2565;-195.4762;-0.1484766;-0.3484308;0;
-679.0651;0;-636.9919;-85.87337;65.32746;6.778334;-655.4549;-655.6733;0.1765093;-0.08821131;0;
-493.4132;0;-475.2453;-94.34528;33.24471;7.307387;-473.2625;-471.8566;0.176332;0.3666487;0;
-198.7528;0;-191.9724;22.69073;27.45151;8.773669;-178.5599;-181.9654;0.04622012;0.0414436;0;
-184.8725;0;-172.6641;38.34755;18.98383;4.143031;-162.7633;-170.4758;-0.1487283;0.3012713;0;
220.672;0;199.9472;26.06517;8.314836;3.00028;233.0139;225.8089;-0.2785136;0.1710339;0;
707.2056;0;655.9545;32.22337;17.48253;-0.2848985;711.7889;702.967;-0.1482991;-0.218942;0;
468.4272;0;447.0875;30.62928;12.70954;-2.026047;478.3782;468.0034;-0.01821536;0.3010168;0;
151.7404;0;153.9729;28.91185;20.26621;-9.659943;162.7435;156.1272;0.04677029;0.1707796;0;
168.0797;0;162.5638;33.00573;22.92516;-14.60685;175.8857;172.4621;-0.1481787;0.04067332;0;
-201.466;0;-177.6786;15.16901;12.51965;-5.95162;-185.8592;-189.217;0.1118395;0.2355345;0;
-681.6471;0;-629.8353;-98.28921;12.90921;-5.811674;-659.1844;-660.8522;0.6314658;-0.1545062;0;
-491.8698;0;-470.9694;-98.75266;7.93975;-10.09262;-473.74;-474.0318;0.5008967;-0.02441631;0;
-200.0844;0;-200.7568;24.2223;4.984035;-10.21644;-184.1593;-187.6991;0.1105893;0.5603143;0;
-188.3267;0;-184.3132;37.81612;14.95936;-13.08632;-172.2926;-179.3271;0.1104782;0.3648493;0;
228.0284;0;198.6171;26.40883;17.5563;-14.81473;236.675;229.0229;0.3052692;-0.1552561;0;
706.9334;0;648.0665;32.06694;8.228885;-10.24513;710.6364;701.6176;-0.08484155;-0.2200674;0;
465.1567;0;438.7077;30.59794;7.215262;-9.364055;474.0408;463.8442;-0.4745604;-0.08991159;0;
160.967;0;158.595;29.19289;11.02641;-14.44523;170.3419;164.0286;-0.3441488;-0.02485391;0;
165.7403;0;155.687;32.53686;9.206665;-14.56468;171.67;168.9863;0.04600103;-0.1547636;0;
-212.6736;0;-194.9183;18.01145;22.79507;-16.35846;-200.378;-203.3715;0.1758895;-0.02467343;0;
-678.913;0;-634.314;-97.69849;29.00146;-17.14582;-659.7582;-661.4368;-0.2790586;0.3001881;0;
-493.5111;0;-478.692;-103.0351;3.854083;-12.43991;-477.3116;-477.6767;-0.3437456;0.04001707;0;
-206.5967;0;-213.3441;23.13007;-2.17801;-11.48965;-192.8498;-196.6502;0.1113712;0.1699116;0;
-190.3347;0;-192.5776;38.2867;15.03818;-8.66494;-176.1643;-183.0844;-0.01867538;0.03980613;0;
217.2143;0;183.4895;25.81698;15.55894;-6.713729;225.2485;219.0851;-0.278526;-0.5449399;0;
702.8143;0;640.2629;32.35024;10.98895;-7.309829;705.843;698.6238;0.1115579;-0.3494903;0;
470.5995;0;439.3452;30.38121;12.04866;-6.163774;476.8735;468.5995;-0.01848884;-0.1542372;0;
154.1605;0;148.7372;28.9139;5.808239;-6.492496;161.1778;157.16;-0.343307;-0.0241475;0;
163.5008;0;153.7101;32.82037;4.797048;-5.548333;169.1368;168.9336;-0.01812531;0.2357461;0;
-206.1028;0;-185.7113;14.23422;7.739965;-8.422902;-193.2886;-193.9288;0.04686024;0.3004766;0;
-685.5921;0;-642.9198;-104.3455;6.794183;-9.3522;-666.7938;-666.9961;0.1767478;0.365142;0;
-496.9352;0;-491.2872;-106.1772;18.509;-2.912563;-483.3406;-482.2309;-0.08329912;0.2998078;0;
-199.1478;0;-208.1231;22.92718;23.71532;-1.101097;-187.2536;-189.4558;-0.3430848;-0.1552649;0;
-190.1396;0;-185.3003;38.20895;7.883029;-2.975513;-175.009;-181.5818;0.1769987;-0.2850435;0;
215.3477;0;190.1972;25.98918;3.253408;-2.369677;224.7785;217.5251;0.3067555;0.1700143;0;
699.0756;0;647.5886;32.20993;24.55095;0.5128484;703.8742;695.6911;-0.2782588;0.1048761;0;
463.991;0;445.3517;30.36597;29.28171;1.115179;474.5944;465.2326;-0.6028159;-0.1550986;0;
154.9923;0;160.5471;29.21102;10.22962;1.315008;166.8969;161.2926;-0.2773735;-0.2848775;0;
158.0849;0;158.8866;32.05523;9.214965;1.447652;167.2914;165.8782;0.04774193;-0.4794933;0;
-217.7601;0;-186.2247;19.84164;4.114514;-0.8312221;-201.0041;-202.5409;0.242596;-0.2191421;0;
-682.62;0;-620.4442;-89.87315;-0.7787639;-1.63406;-659.1967;-659.7325;0.4372543;-0.1539546;0;
-498.5263;0;-463.7742;-97.27908;17.90989;-2.972077;-478.9372;-478.7227;0.2419129;-0.4786366;0;
-219.7277;0;-209.1235;23.32059;22.57997;-3.304005;-201.0953;-204.1295;-0.1481343;-0.1533189;0;
-199.5795;0;-188.1113;38.22715;11.97471;-7.520488;-180.3411;-185.8085;-0.2779201;0.2366392;0;
221.5345;0;199.0707;25.88243;11.09202;-9.790351;231.3208;226.1712;-0.3426082;-0.02346797;0;
702.0703;0;647.8325;32.29069;26.2178;-1.340786;705.225;698.4565;-0.5371659;-0.2833138;0;
466.6703;0;440.9727;30.32172;31.55009;0.06708066;473.445;465.0591;-0.08185481;-0.2180617;0;
163.1662;0;160.5453;28.91694;13.96959;-2.813131;169.9341;165.4297;0.04816212;0.1069941;0;
173.6219;0;166.0687;33.07328;9.333853;-2.810304;179.9458;179.069;-0.6015597;0.4966906;0;
-207.5486;0;-183.0478;12.98763;13.14287;-2.941446;-193.0476;-194.1109;-0.4060532;0.3012895;0;
-689.4102;0;-633.5748;-103.7168;4.354775;-3.541337;-669.3017;-669.1769;-0.2107432;0.1710521;0;
-497.3762;0;-471.3944;-103.1753;19.82309;-4.542523;-481.4732;-481.0988;-0.3404661;0.04094553;0;
-198.4639;0;-198.9325;23.17744;20.67383;-4.337009;-185.0132;-188.8245;0.1146474;-0.218965;0;
-184.5838;0;-182.1784;37.89674;-8.349944;-10.09306;-169.5225;-177.1406;0.1794995;-0.413647;0;
227.2072;0;198.0011;26.30197;-9.680724;-10.88672;236.2565;228.771;-0.2104849;-0.543166;0;
713.6718;0;654.8849;32.02265;-47.44888;-9.268186;717.0897;708.8622;-0.3402081;-0.4776529;0;
475.2617;0;447.5808;30.49123;-63.54348;-9.191891;482.4868;473.8302;-0.2099316;-0.2173036;0;
165.3772;0;159.9629;29.02382;-21.75061;-0.9438757;172.3451;167.8202;0.1151161;-0.02218323;0;
172.2075;0;160.1145;32.36796;-19.04944;2.47308;177.2944;175.2102;0.3099025;-0.1520956;0;
-207.0875;0;-190.1829;17.78025;-6.772786;6.2885;-194.9468;-197.716;0.5694605;-0.2818775;0;
-673.3325;0;-628.7087;-95.18085;2.611142;10.8369;-656.4563;-657.2862;0.4389535;-0.02172488;0;
-483.3136;0;-466.2209;-98.58345;1.470419;7.142071;-470.6397;-470.157;0.2436105;0.173199;0;
-201.4069;0;-207.5072;24.39134;8.501539;7.536792;-190.4325;-193.6983;0.4382677;0.2379923;0;
-182.4015;0;-187.3088;37.86005;-4.567821;14.09342;-170.1262;-177.0119;0.37286;0.04285113;0;
236.6338;0;199.2477;25.82804;-5.166443;15.35182;242.2125;235.2088;0.4374527;-0.2170613;0;
714.843;0;650.2582;32.29882;-11.65799;11.18357;715.4187;706.6104;0.2421111;-0.3467779;0;
474.0579;0;442.0841;30.14244;-16.26797;9.497761;480.0053;470.1439;0.1769005;-0.2164948;0;
161.1761;0;153.0975;28.92525;-6.673434;8.751528;167.9296;162.5134;0.3066574;0.1735269;0;
169.3849;0;156.3794;32.58183;-5.595001;5.929451;174.0077;171.7829;-0.08345477;0.1083851;0;
-198.4754;0;-182.1701;15.18282;-4.049138;5.052714;-186.3611;-189.4583;-0.1483382;-0.2815278;0;
-674.8489;0;-629.3872;-96.52629;-2.437479;3.23922;-656.8123;-658.5945;0.3715495;-0.4111796;0;
-490.3882;0;-471.7712;-97.55373;7.210513;-5.404711;-476.5551;-476.7738;0.4361435;-0.08592976;0;
-192.2951;0;-195.9356;23.79584;10.68589;-9.217185;-180.4123;-183.6918;0.3057706;0.04409127;0;
-182.7316;0;-179.9966;37.63996;9.603428;-10.21267;-169.299;-175.1364;0.1105614;-0.02092038;0;
228.1831;0;199.6185;26.17038;10.39806;-13.21652;235.5427;229.8361;-0.08445176;0.23897;0;
722.4553;0;662.6851;32.01613;7.842018;-10.12214;724.6226;717.1101;-0.01939956;-0.08610682;0;
474.8534;0;449.1263;30.23484;8.236279;-9.576109;481.7661;473.3242;-0.1493148;-0.3458897;0;
155.9738;0;155.6972;28.95509;-6.776173;-14.65707;163.5668;159.1313;-0.2790994;-0.2805748;0;
169.8101;0;161.9751;32.48671;-11.39106;-15.71407;174.2095;173.3392;-0.0189496;-0.2153255;0;
-208.5455;0;-187.4496;17.4616;-9.973099;-10.33976;-197.6537;-199.0229;0.2409388;0.1097276;0;
-674.4141;0;-625.4785;-87.5032;-14.58478;-8.721785;-657.6613;-657.9047;0.2406967;0.3045194;0;
-479.3342;0;-460.1828;-88.16489;1.639502;-10.58854;-465.5967;-464.528;0.1754875;0.3042134;0;
-199.7429;0;-203.2243;25.49161;5.187828;-9.037296;-185.7693;-188.7621;-0.08455818;0.3039077;0;
-182.4882;0;-181.2186;36.77281;0.1587734;-10.23391;-166.842;-173.5175;-0.4093099;0.238635;0;
236.9219;0;206.6436;26.55348;2.369417;-9.553796;244.9312;238.1375;-0.1490293;0.3033625;0;
707.5097;0;648.6512;31.71169;-3.19267;-6.730913;710.326;701.8525;0.4358265;0.173123;0;
461.1722;0;434.1069;30.18058;-4.327561;-6.25527;468.6084;459.3314;0.7602252;0.1729491;0;
154.0505;0;149.3761;28.96335;-6.735086;1.185877;161.5417;156.7717;0.1747554;0.2377426;0;
160.4549;0;151.1626;32.05768;-9.9435;4.399867;165.9396;164.9849;-0.4101263;0.1725364;0;
-211.7693;0;-194.9404;18.09497;-8.72806;0.04155489;-199.0438;-200.4972;-0.1498448;0.1073957;0;
-675.1985;0;-642.7068;-93.99187;-12.13457;0.9122913;-657.6132;-658.5029;-0.279629;-0.2175489;0;
-486.3646;0;-483.8281;-99.76949;-6.831087;0.7774087;-473.1698;-473.6838;-0.3443153;-0.02242831;0;
-198.7702;0;-208.6675;22.95663;-5.350354;0.6426617;-187.0254;-190.9747;0.1757694;-0.02240577;0;
-187.1387;0;-190.7792;37.98849;-18.87529;1.914692;-174.6561;-181.6624;0.1106254;-0.1523179;0;
225.5919;0;188.9717;25.76895;-19.9954;1.912768;230.6282;223.504;-0.08438776;-0.08719755;0;
714.8692;0;650.9869;31.92744;-25.06552;3.317487;715.1528;707.0988;0.3055011;-0.1520773;0;
474.5838;0;443.6867;30.33365;-28.18914;4.050966;480.1145;471.3189;0.4351288;-0.02198978;0;
159.4526;0;151.8874;28.80392;-16.03703;2.77422;164.9153;159.6893;-0.02007981;-0.08693503;0;
