Fp1;Fp2;O1;O2;POLY3;POLY4;A1;A2;Video;Audio;event;
689.568;0;0;582.6609;11.64068;-6.777349;642.4283;635.8169;-0.4274851;-0.07900029;0;12:34:16 Глаза открыты;
539.7626;0;0;476.2536;2.720377;-10.92336;496.8557;488.3768;-0.1022189;-0.5336923;0;
188.2092;0;0;157.2477;0.9763317;-14.06046;149.4058;142.8096;-0.03714881;-0.338254;0;
240.3063;0;0;208.9386;-1.100754;-4.468016;199.9802;197.0762;-0.1020788;-0.2079795;0;
-55.3492;0;0;-58.63694;-3.175753;-3.324816;-89.32542;-92.91365;0.09292577;0.3119683;0;
-606.8913;0;0;-593.7465;-12.55066;-1.714007;-633.9619;-637.7339;0.02786506;0.4415895;0;
-506.5192;0;0;-537.303;-17.36082;0.1632371;-538.0602;-540.0793;0.1577717;0.1163091;0;
-186.2959;0;0;-246.7839;-14.59671;-0.3727904;-220.8038;-224.8823;0.5474173;0.2461269;0;
-214.3445;0;0;-271.7732;-16.52443;0.833277;-246.194;-254.204;-0.03783886;0.1809122;0;
117.2668;0;0;31.72245;-18.785;-3.990209;79.32732;72.13749;-0.2976702;0.05079576;0;
689.9235;0;0;587.8485;-21.37907;-5.928705;645.9003;639.7797;0.4172696;0.2456467;0;
541.2422;0;0;484.2471;-13.31963;-3.444379;502.8229;494.7094;0.4818177;0.1804326;0;
189.5623;0;0;163.484;-11.63131;-4.043765;154.4925;148.0738;-0.1033725;-0.4694222;0;
240.5961;0;0;210.0463;-21.13144;-7.92459;202.8753;200.4611;-0.1032686;-0.4039831;0;
-48.37551;0;0;-52.65783;-22.24831;-9.055337;-80.18633;-83.16037;0.1567045;0.2460962;0;
-606.0466;0;0;-591.3966;-23.96727;-8.443392;-630.704;-634.4247;-0.1682896;0.2458489;0;
-505.4254;0;0;-535.1428;-23.74309;-8.568873;-533.7437;-537.0858;-0.4929573;0.1156672;0;
-176.645;0;0;-236.9422;-28.54103;-7.622502;-207.4336;-213.7709;-0.03769055;0.1805183;0;
-215.323;0;0;-268.938;-28.84812;-6.878153;-244.0817;-252.4116;-0.03765268;0.3102717;0;
107.9185;0;0;26.62135;-21.91928;-4.258907;73.31667;65.99465;-0.2325169;0.3749272;0;
687.1439;0;0;587.6251;-20.55808;-2.178279;645.7677;638.7654;0.09255347;0.1796485;0;
536.7162;0;0;485.2108;-6.471257;-5.391149;500.2542;492.4468;0.1574278;0.37437;0;
178.9814;0;0;159.7616;-0.771327;-7.127288;145.4921;139.8165;-0.2325344;0.5039285;0;
232.3996;0;0;205.2656;0.8370385;2.592276;195.3832;193.6489;-0.4921701;0.1136181;0;
-52.5033;0;0;-56.93391;6.127483;3.862225;-84.11021;-87.21714;-0.0369042;-0.08139811;0;
-607.3591;0;0;-592.7324;-2.787282;-2.705739;-631.1882;-635.6038;0.4828716;-0.08131631;0;
-509.6726;0;0;-535.2903;-2.784481;-3.238884;-537.1009;-538.7635;0.09258237;-0.2111693;0;
-187.6971;0;0;-244.9606;-7.269662;-10.53665;-218.7835;-222.3809;-0.2973147;-0.08102243;0;
-221.7413;0;0;-276.1362;-12.55364;-12.20063;-250.61;-258.5767;-0.0371466;-0.2108757;0;
109.815;0;0;30.42479;2.865289;-17.01102;76.1027;68.39394;-0.03710927;-0.1456965;0;
690.1628;0;0;595.4227;4.201581;-19.80709;649.5505;642.5366;-0.1670067;0.439156;0;
539.6697;0;0;490.8767;-2.500446;-10.07491;504.0956;495.4646;0.2879325;0.5686494;0;
182.4942;0;0;161.2364;-1.828348;-8.926074;150.579;143.8307;0.2226759;-0.1465627;0;
231.7235;0;0;199.555;-10.80247;0.2593122;196.467;193.8485;-0.03741724;-0.3413175;0;
-54.92789;0;0;-62.63879;-12.93409;5.349632;-85.27635;-88.89178;0.2874571;0.1137969;0;
-603.4719;0;0;-590.6854;-12.721;0.7225568;-627.6055;-632.5916;0.0922662;0.1136825;0;
-508.538;0;0;-538.2429;-14.44953;2.865285;-536.7078;-539.9398;-0.2976305;0.1785357;0;
-189.1873;0;0;-253.4075;-6.59813;1.120849;-219.765;-225.6174;-0.1673968;0.2433236;0;
-221.5433;0;0;-281.8884;-3.979532;1.655587;-249.4042;-259.6235;-0.1672286;0.2430791;0;
106.6394;0;0;22.99169;-3.639765;-2.56588;72.62217;64.2247;-0.2969953;0.04793284;0;
692.4253;0;0;590.8706;-0.9577664;-5.376585;649.884;642.8693;-0.3616642;-0.3419194;0;
541.8674;0;0;484.3302;1.45507;3.470321;503.3668;494.4851;-0.1663987;0.2431303;0;
174.9445;0;0;147.8249;3.46334;3.868731;141.2303;134.8562;0.02867047;0.3728206;0;
232.6147;0;0;197.9011;5.06745;4.534673;195.7484;194.0034;0.1585763;0.4374134;0;
-46.91615;0;0;-55.54541;6.267807;6.137707;-79.99727;-81.99037;-0.1014524;0.9567126;0;
-607.962;0;0;-593.9689;5.189782;-1.973273;-633.5761;-636.0045;-0.4261871;0.3060779;0;
-513.2734;0;0;-540.1489;4.849775;-4.114622;-541.8602;-543.5366;0.2239145;0.1108683;0;
-187.9209;0;0;-246.0037;3.906897;-2.234965;-219.9148;-224.1507;0.873363;0.5005609;0;
-219.4037;0;0;-271.8684;2.831244;-3.639361;-249.8662;-257.0963;0.4826813;0.04528659;0;
115.2112;0;0;36.43745;0.5512234;-3.434756;78.09514;72.24664;0.02742495;0.1751758;0;
695.1164;0;0;597.0565;-1.726506;-3.029407;650.4789;645.5733;-0.1025373;0.5648038;0;
545.4928;0;0;491.4469;1.088268;-7.915995;504.9606;498.061;0.09246776;0.3043669;0;
194.1835;0;0;172.863;1.019825;-9.314682;156.8155;151.5469;0.2872769;-0.02077563;0;
241.6519;0;0;216.0425;-3.469178;-2.674134;202.1975;199.9328;0.2220209;-0.1506894;0;
-52.06839;0;0;-52.66465;-3.733136;-1.063979;-86.29823;-89.87256;-0.03807158;-0.02060335;0;
-601.0526;0;0;-586.7807;-7.480429;-2.670378;-629.0637;-633.3215;-0.2979027;0.1093521;0;
-504.4969;0;0;-537.778;-9.214225;-2.198815;-537.1025;-540.7314;0.02723335;-0.08565986;0;
-190.2102;0;0;-255.1294;-4.650615;1.152419;-226.5936;-233.0924;0.09217333;-0.2804758;0;
-217.9425;0;0;-277.8615;-5.382876;3.026661;-252.7901;-262.156;0.2220154;-0.280194;0;
118.9822;0;0;33.26146;1.588758;-1.665063;76.61093;68.94113;0.351727;-0.08501042;0;
696.6348;0;0;592.3845;4.802342;-1.797356;646.0602;639.2101;-0.1683652;-0.01995767;0;
544.6358;0;0;485.7176;-3.641601;0.5488527;499.8592;490.6422;-0.2981307;-0.08490495;0;
184.7692;0;0;161.1424;-2.633564;1.553045;144.4103;137.5765;-0.2328638;-0.2147543;0;
236.37;0;0;206.0204;-9.529794;0.6807066;192.9907;190.4116;-0.4275318;-0.6043426;0;
-43.60191;0;0;-54.24343;-13.13754;0.07717624;-82.81465;-86.32822;0.02766918;-0.538768;0;
-599.2787;0;0;-593.5428;1.276625;9.186534;-631.0183;-635.7778;0.1575761;0.1114468;0;
-513.0322;0;0;-546.4073;3.217725;11.45472;-544.6774;-549.2446;-0.2973537;0.5661062;0;
-188.7419;0;0;-247.8206;2.210114;8.696913;-222.2294;-228.5411;-0.4919569;0.4356027;0;
-218.2248;0;0;-272.9963;3.881856;9.358003;-251.1789;-260.0455;-0.4264953;-0.01960642;0;
108.8926;0;0;23.5041;-1.614401;5.061814;68.53789;59.18043;-0.1661973;-0.1495214;0;
697.9871;0;0;588.6964;-4.091025;3.248189;644.8668;635.8311;0.2237737;-0.1493712;0;
556.2316;0;0;486.4684;0.1326444;3.043977;502.1652;491.7643;0.2885162;-0.4740578;0;
194.854;0;0;155.958;-0.001210724;2.237245;143.6531;135.6989;0.223259;-0.1487447;0;
243.7586;0;0;199.5293;-11.45444;-1.984928;189.4232;186.3495;-0.03683474;-0.08362793;0;
-42.28019;0;0;-61.91484;-15.1276;-3.523419;-91.93832;-95.75853;-0.4266018;-0.0835439;0;
-594.4601;0;0;-596.2715;-14.44184;1.704668;-637.884;-642.3875;0.02859827;0.2413768;0;
-497.2863;0;0;-547.6965;-16.8392;2.975509;-547.2882;-550.5378;0.09353688;-0.01873515;0;
-183.2568;0;0;-269.5981;-13.20496;4.982007;-238.5182;-244.0759;-0.0364918;0.04625103;0;
-213.8072;0;0;-293.5026;-12.05359;7.053472;-267.7013;-275.9395;0.09347955;-0.08373014;0;
128.1734;0;0;22.44613;-13.1132;7.984146;67.33692;59.54421;-0.2964184;-0.3435154;0;
705.5043;0;0;578.3317;-11.0903;8.913762;636.0458;628.136;-0.6209573;0.1765685;0;
555.1831;0;0;471.304;-11.0118;10.57938;488.2932;478.9546;-0.4903987;0.2413585;0;
202.4898;0;0;148.8048;-9.460497;10.70271;136.2293;130.8355;-0.1650692;-0.1486881;0;
256.0093;0;0;193.1954;-5.699947;10.42403;184.693;184.4271;-0.03496866;-0.2135061;0;
-31.66597;0;0;-70.86605;-4.689842;10.68149;-98.53783;-100.0528;0.09500116;0.1115452;0;
-594.5387;0;0;-613.8969;0.6071322;2.231148;-654.8466;-657.4221;0.2248404;-0.01850158;0;
-498.989;0;0;-559.1822;1.678249;-0.8523085;-563.2344;-564.4954;0.02971244;-0.08345033;0;
-175.7749;0;0;-263.9559;3.015733;2.966453;-243.1415;-246.9;-0.2951541;0.3714049;0;
-215.7031;0;0;-299.2978;4.821364;2.762645;-281.9401;-288.7558;-0.6196942;0.1111624;0;
115.4098;0;0;3.226;-9.785516;0.8173646;42.43029;37.68293;-0.09933285;0.2409853;0;
706.8715;0;0;572.6865;-14.79953;0.7495604;624.9073;620.9769;0.2256037;0.3057106;0;
564.5449;0;0;467.2263;-9.961883;4.432746;483.1004;477.3623;-0.2943617;-0.3442701;0;
210.5303;0;0;142.045;-12.69756;5.366054;130.3546;127.4333;-0.03419661;-0.2139895;0;
261.2932;0;0;192.0646;-13.22067;7.37015;180.6357;181.7778;0.2906744;0.04609495;0;
-35.94512;0;0;-73.93227;-13.74325;7.697659;-108.3381;-107.7594;-0.164389;-0.08388606;0;
-590.3803;0;0;-606.0905;-17.07932;9.431358;-654.892;-655.1259;-0.03428914;-0.01883444;0;
-490.1497;0;0;-550.1968;-17.46332;10.29266;-558.657;-557.3914;0.09567999;0.1760865;0;
-180.625;0;0;-274.7821;-16.57512;2.646507;-253.1239;-254.3584;-0.2942202;0.04597491;0;
-212.1151;0;0;-305.8652;-15.75516;0.9692748;-284.7286;-289.4601;0.03091215;-0.08400598;0;
126.1781;0;0;2.787141;-14.86867;-2.849604;46.51616;43.22622;0.2257831;-0.1488889;0;
701.3871;0;0;562.3156;-14.18317;-5.526058;614.9962;611.772;0.03065422;0.04616273;0;
559.6283;0;0;467.9227;-9.480843;-3.644984;478.2591;472.1646;-0.03434392;0.176051;0;
209.3667;0;0;151.2365;-7.863726;-5.114945;131.7025;128.5502;-0.4241135;-0.1489626;0;
256.4451;0;0;191.3143;-7.11889;1.320433;176.4226;177.7087;-0.35872;-0.1488129;0;
-29.79382;0;0;-76.24352;-6.30843;3.462439;-105.2381;-104.2657;-0.09849016;0.111206;0;
-590.3571;0;0;-619.7062;-7.172748;-1.162741;-658.9166;-658.5073;-0.03342386;-0.4736118;0;
-497.1855;0;0;-566.0477;-6.763399;-1.496487;-568.2997;-566.7664;0.09654441;-0.5381033;0;
-167.0391;0;0;-263.5681;-13.58813;0.1126069;-240.2058;-240.4856;-0.03348728;-0.01782387;0;
-210.2869;0;0;-298.5356;-16.38849;-0.2224209;-280.1317;-283.7221;0.03151371;0.0471614;0;
109.7636;0;0;-5.132972;-13.15684;-0.8250439;34.36681;31.842;-0.09845264;-0.08282068;0;
706.5408;0;0;569.6458;-14.28172;0.1135462;622.7865;621.576;-0.2282884;-0.2126721;0;
560.9037;0;0;471.4974;-13.79886;-7.187585;482.4185;479.3352;-0.03315699;0.1123783;0;
196.8353;0;0;142.0016;-13.71764;-8.184985;123.8012;122.4702;0.03184367;0.1772327;0;
251.2351;0;0;189.5224;-16.58425;-5.564548;177.3374;179.0686;-0.03315567;-0.2777168;0;
-39.43385;0;0;-75.22253;-18.10783;-6.429736;-107.5102;-106.0306;-0.09808969;-0.01756838;0;
-591.3043;0;0;-611.4399;-12.79835;4.96358;-653.5652;-651.9621;-0.03302379;0.112384;0;
-491.7599;0;0;-556.2904;-11.11152;7.905841;-556.8942;-554.4807;0.09694407;0.1772384;0;
-181.6714;0;0;-272.1865;-15.65471;8.031741;-246.8652;-247.1402;-0.09805536;0.112093;0;
-212.3483;0;0;-296.713;-13.09338;10.10014;-273.1663;-277.564;0.09694519;-0.4077584;0;
125.4453;0;0;13.30444;-21.78777;5.535276;58.44161;55.11033;0.4216845;-0.3423814;0;
692.1594;0;0;563.1397;-23.70826;4.859885;617.8517;615.7731;0.1613914;-0.27707;0;
540.6022;0;0;458.9384;-6.671501;0.0993351;472.2412;468.1658;0.1612292;-0.3417589;0;
198.4182;0;0;151.5066;-3.114824;-1.709304;135.1859;132.7387;0.2910019;0.04838853;0;
246.0698;0;0;195.4572;4.323046;-4.386782;181.5892;182.5802;-0.03412719;-0.08159479;0;
-48.15466;0;0;-73.729;9.878407;-5.989964;-106.7609;-105.5835;-0.2289949;-0.2764148;0;
-597.9549;0;0;-606.8244;6.653301;-0.6254328;-648.8811;-648.267;0.09607188;0.04869964;0;
-498.7162;0;0;-551.6171;9.124862;0.9827859;-551.8401;-550.8518;0.03100801;0.1785854;0;
-173.1909;0;0;-255.5239;4.091851;4.531772;-228.5103;-228.8974;-0.4237945;0.1134386;0;
-212.9968;0;0;-287.8758;2.480149;6.536706;-264.6999;-267.7727;-0.03356466;-0.01661008;0;
102.4963;0;0;5.828508;2.81245;14.90276;46.8471;45.08922;-0.09849828;-0.01659339;0;
688.0364;0;0;574.0995;-0.003415255;19.57647;625.9464;624.815;-0.6831053;0.3732274;0;
547.103;0;0;476.9462;5.221501;12.45685;491.1349;486.7563;-0.2926149;0.1779503;0;
182.9861;0;0;148.5693;5.953188;12.84623;132.6339;130.1337;-0.1623862;-0.2769999;0;
233.2768;0;0;196.8956;-2.55926;13.50303;182.4755;183.9758;-0.7469292;-0.3416889;0;
-47.19172;0;0;-56.67486;-5.102283;13.62343;-90.94553;-89.38427;-0.2264399;-0.4063129;0;
-602.4902;0;0;-592.7234;-1.078669;10.86356;-638.2665;-636.332;0.3584937;-0.27597;0;
-510.6181;0;0;-541.2159;-1.948241;9.31204;-548.4825;-545.6129;0.09826413;-0.145758;0;
-194.2638;0;0;-251.1926;-2.884289;15.33103;-232.8397;-232.5342;-0.03176929;0.1142578;0;
-226.24;0;0;-276.9272;-2.746692;15.71752;-260.9041;-264.1596;-0.09670471;0.04917569;0;
106.008;0;0;32.07089;-7.098189;19.2517;67.13086;64.62823;-0.09660754;-0.08080842;0;
680.3627;0;0;590.8203;-7.425849;21.57676;636.1523;634.5268;0.03342421;-0.08072723;0;
535.4391;0;0;487.4033;-7.619459;15.45975;496.5205;492.4603;0.09835797;-0.2105808;0;
179.7671;0;0;163.0139;-6.807519;14.57344;144.5733;142.7035;0.03329179;-0.3403039;0;
220.6908;0;0;200.7685;-7.872406;13.62103;183.8457;187.4126;0.163193;-0.2749946;0;
-64.26285;0;0;-60.11467;-9.606784;10.92815;-94.32432;-91.38567;0.2929637;-0.3396856;0;
-610.9235;0;0;-589.4132;7.818919;13.73033;-632.8963;-631.5223;0.227702;-0.2094096;0;
-513.046;0;0;-532.1619;12.90128;12.57795;-537.7454;-535.1859;0.0325712;-0.01429719;0;
-192.5663;0;0;-237.7749;3.778636;9.55108;-219.4897;-218.8693;0.2274405;0.3105539;0;
-233.5396;0;0;-269.6448;5.31508;9.541482;-257.0002;-259.6288;0.227212;0.3102418;0;
87.47129;0;0;24.47838;-1.186995;0.02056263;59.91135;57.53529;0.03208163;0.05006076;0;
674.3384;0;0;590.7316;-3.530327;-3.127534;639.7472;637.5609;0.0320494;0.1149778;0;
535.2928;0;0;496.4352;-0.3115989;0.8274797;505.5465;502.0506;0.0320172;0.04989492;0;
170.5006;0;0;164.9152;-1.181942;-0.9818909;145.2818;144.4756;0.09695236;-0.01512257;0;
213.9323;0;0;204.667;-0.1090274;6.454079;187.6145;189.9325;0.291757;0.1797947;0;
-69.32786;0;0;-54.40856;-0.2426397;8.189029;-88.87263;-87.61893;0.1615291;0.1146467;0;
-621.7305;0;0;-588.5229;2.838087;6.104451;-634.0093;-632.6319;0.03143214;0.2444662;0;
-522.7177;0;0;-528.7737;3.304726;8.174666;-537.0457;-533.6082;0.03140056;0.1792532;0;
-199.8545;0;0;-235.4521;5.846025;0.1957273;-215.7922;-215.0444;-0.163533;-0.405633;0;
-234.6986;0;0;-267.8242;7.716161;-0.4073158;-248.6213;-252.1845;0.03153333;-0.4052255;0;
97.4329;0;0;35.91742;-4.28166;-0.8088041;78.71413;75.96657;0.2264037;-0.1449489;0;
671.6713;0;0;594.1632;-9.501294;-1.879718;648.2862;645.7288;0.09624149;-0.2097706;0;
525.4446;0;0;495.4905;1.425617;7.29871;507.5177;503.0264;-0.0337899;-0.2095598;0;
182.5262;0;0;184.2113;1.758977;10.17152;166.9287;166.19;-0.09872328;0.05052012;0;
226.633;0;0;223.5064;-9.562296;11.36699;210.0517;212.7495;-0.03365675;0.180404;0;
-68.384;0;0;-47.08229;-10.75814;13.03002;-77.57736;-77.13115;0.09631176;0.05028808;0;
-620.3503;0;0;-581.8911;-19.92435;16.90194;-622.538;-621.8423;-0.09868705;-0.07969715;0;
-526.0865;0;0;-526.7089;-25.79786;17.28685;-529.7712;-526.5776;-0.2934899;0.115285;0;
-206.6557;0;0;-232.8896;-7.687275;17.47043;-211.6486;-210.1447;-0.09829298;-0.0797329;0;
-242.43;0;0;-262.2032;-4.46437;17.51986;-244.9191;-247.1024;0.09670781;-0.1446201;0;
85.33647;0;0;40.53321;-11.02397;6.852216;77.78995;76.54584;-0.1632587;0.3102966;0;
668.3326;0;0;605.8333;-8.468271;4.299979;654.2969;653.8037;-0.2930294;0.3749521;0;
530.48;0;0;511.2718;-14.01849;-4.143947;521.8307;519.0892;-0.2277676;0.114706;0;
174.5632;0;0;189.607;-15.07613;-8.493552;170.0455;170.3051;-0.4224408;-0.01534393;0;
215.3047;0;0;227.2724;-5.550139;-2.79159;209.7921;214.7366;-0.2920816;-0.01532851;0;
-72.01734;0;0;-35.1991;-2.530453;-4.329392;-70.40299;-66.90022;0.2279506;0.2445563;0;
-628.9775;0;0;-571.3942;-6.278955;9.674025;-619.9935;-617.8685;0.4875909;0.6341146;0;
-533.8305;0;0;-517.3469;-5.736782;15.62566;-528.1039;-524.2944;0.292199;0.5685101;0;
-207.4579;0;0;-219.7264;0.3645514;6.902425;-203.9859;-201.617;0.09700335;0.1131675;0;
-244.1059;0;0;-248.8659;1.636983;8.10106;-237.8888;-238.8331;-0.0330288;-0.08184829;0;
82.10053;0;0;51.42085;5.117962;11.71;83.189;82.87027;-0.3578323;-0.01679871;0;
662.6637;0;0;613.8989;7.859486;12.36806;657.0045;656.9359;-0.1625707;0.2430875;0;
521.9432;0;0;517.6426;0.08205678;11.08296;521.662;520.0318;0.09746198;0.177876;0;
170.4702;0;0;199.0949;-0.7223089;11.00484;175.1242;176.5567;-0.09753798;-0.3420415;0;
213.0899;0;0;237.3755;0.6849365;8.716362;215.9901;221.1068;-0.2273747;-0.2117632;0;
-76.16644;0;0;-28.7294;0.4168045;8.305706;-67.522;-64.03469;0.1626579;0.1132863;0;
-632.1229;0;0;-566.7426;1.488113;8.163395;-615.741;-613.0693;0.4873311;0.1781399;0;
-538.9717;0;0;-515.5735;1.084476;8.423123;-526.2296;-522.3112;-0.162832;0.3078955;0;
-213.8434;0;0;-221.9528;7.380026;9.754318;-203.6127;-202.3844;-0.3575704;0.1126841;0;
-248.8608;0;0;-252.8392;9.046574;9.476585;-235.3295;-238.2254;0.1625277;-0.08233112;0;
78.10006;0;0;50.82487;6.224444;17.70572;86.43281;83.91467;-0.03253768;0.2425883;0;
657.7302;0;0;616.1146;5.413907;19.7644;659.0581;657.7919;-0.4872764;0.502214;0;
517.5769;0;0;519.044;7.61927;16.19457;523.2138;520.762;0.1628866;0.5017093;0;
165.1088;0;0;195.31;8.281199;15.44148;174.3007;173.6629;0.552527;0.3712705;0;
201.7993;0;0;225.0986;-3.64984;13.81838;210.1075;213.0935;0.03223312;0.04606075;0;
-82.44816;0;0;-35.74654;-7.262519;12.93371;-67.65163;-65.16837;0.09716807;-0.1488876;0;
-627.6537;0;0;-562.2584;-3.772597;3.476369;-606.063;-604.3943;0.6817765;-0.08377063;0;
-535.7564;0;0;-509.9695;-4.639462;0.4587657;-516.7486;-514.5194;0.4212221;0.04624824;0;
-210.0066;0;0;-212.4813;-2.959861;-2.020064;-192.5171;-192.9763;-0.2938419;0.04620177;0;
-244.778;0;0;-243.3772;-1.215575;-5.300076;-225.3071;-229.0766;-0.6183833;0.04615535;0;
75.9319;0;0;51.03198;0.7944024;3.881668;89.6986;87.8069;-0.3578926;0.3059783;0;
662.8105;0;0;619.6324;3.406549;5.485358;670.379;669.8011;0.1622057;0.04580152;0;
523.5267;0;0;526.119;8.49334;8.560939;536.4599;533.7586;0.2919774;-0.2790812;0;
158.7463;0;0;196.006;11.90106;12.57119;175.6645;175.9019;0.291684;-0.01893143;0;
201.94;0;0;230.9164;14.63479;7.334013;216.4049;221.0773;0.09648891;0.04605494;0;
-75.93584;0;0;-24.18754;16.69717;8.063456;-55.98824;-52.25751;-0.2934121;-0.08392603;0;
-629.8936;0;0;-557.5201;19.3597;11.13657;-602.4073;-599.4924;-0.1631826;0.046093;0;
-540.3678;0;0;-509.9836;20.74677;11.79521;-516.22;-511.4965;-0.227986;-0.27879;0;
-212.9891;0;0;-212.9327;18.84992;13.18987;-190.9271;-188.6445;0.03211248;-0.5383793;0;
-246.5082;0;0;-240.08;19.76898;13.51154;-221.095;-223.6248;0.1620149;-0.3429363;0;
78.57625;0;0;60.63523;11.91224;13.63193;97.96693;95.81445;-0.422854;-0.407559;0;
660.2674;0;0;624.5408;9.087227;13.01538;672.0174;671.1165;-0.3574618;-0.2772149;0;
517.238;0;0;526.2748;15.9106;13.20325;534.1611;531.6369;-0.4870372;0.04790043;0;
163.8956;0;0;204.3451;15.75991;11.78347;184.6748;184.277;-0.6164826;-0.2120171;0;
205.8348;0;0;240.8713;19.22768;9.829122;224.8439;228.6944;0.2936797;-0.08186936;0;
-82.91452;0;0;-20.48945;21.08339;7.943723;-57.67759;-53.64356;0.6831886;0.4379517;0;
-633.3045;0;0;-551.5769;17.57958;2.510246;-600.4717;-597.4413;0.4876001;0.3725443;0;
-538.403;0;0;-499.4236;16.95871;0.0294769;-509.2889;-506.1366;0.09730615;-0.2775035;0;
-209.8394;0;0;-200.9466;20.02313;-5.596997;-184.003;-184.1646;0.09720837;-0.2772247;0;
-245.7979;0;0;-231.7915;20.20408;-9.141347;-217.3637;-220.961;0.2270454;0.1128579;0;
66.5422;0;0;54.85989;13.95449;-7.524693;89.95034;88.48064;-0.2929215;-0.2770595;0;
648.3704;0;0;616.2101;11.66329;-9.660464;665.1957;664.4772;-0.1626925;-0.4716831;0;
515.0355;0;0;528.4472;12.45488;-4.42621;536.6542;533.8123;0.1623077;-0.3412745;0;
153.1997;0;0;203.8291;11.70543;-2.680329;178.6696;178.5168;0.09717727;-0.2759643;0;
197.8357;0;0;243.6667;7.005592;-8.37094;221.5934;225.1264;0.162047;-0.08078495;0;
-77.53726;0;0;-9.950794;5.122543;-7.558856;-48.18128;-46.15107;-0.03301788;-0.2106385;0;
-633.8047;0;0;-550.7939;7.997784;-12.90977;-597.2319;-595.5161;-0.1629194;0.04944257;0;
-543.463;0;0;-503.3266;6.71695;-15.91091;-510.3626;-506.2747;-0.227723;0.3742296;0;
-213.9572;0;0;-202.8466;14.54708;-5.177899;-184.076;-182.1787;-0.2274942;-0.08091784;0;
-249.9116;0;0;-232.5652;17.88137;-4.234935;-218.1864;-219.4143;-0.09733094;0.04909816;0;
69.49164;0;0;60.83357;6.008031;-6.441117;94.81316;94.52348;-0.09723314;0.3738855;0;
650.1924;0;0;620.8659;4.394404;-5.028003;669.1791;667.8903;0.03279925;-0.4060982;0;
515.3565;0;0;528.5381;8.342104;-12.45793;539.9464;535.9102;0.09773363;-0.7954943;0;
164.2649;0;0;210.4167;8.601165;-13.584;191.8285;191.0448;0.1626028;-0.2099889;0;
197.7704;0;0;239.3157;6.449069;-13.16846;223.6197;227.5843;-0.03246264;0.1150589;0;
-92.34507;0;0;-26.35389;6.175145;-13.89204;-59.46281;-55.81452;-0.227332;-0.0799588;0;
-631.7936;0;0;-545.9412;11.92874;-10.79699;-590.8859;-587.5536;-0.0322016;-0.2747805;0;
-534.8322;0;0;-489.4208;14.395;-10.78614;-498.151;-493.0729;-0.1621039;-0.2745044;0;
-213.9558;0;0;-198.2001;14.04574;-2.670609;-181.1221;-178.5479;-0.2918757;-0.2742285;0;
-249.9101;0;0;-229.5477;15.57285;1.083119;-214.4232;-215.4748;0.09822161;-0.4038877;0;
66.49457;0;0;61.03706;16.15944;-5.482175;97.01078;96.83484;0.4229596;-0.4684492;0;
647.6981;0;0;626.7538;15.13882;-5.476666;671.6245;672.1358;0.1626653;-0.2730765;0;
511.3655;0;0;537.2937;23.63008;-2.658002;540.1403;538.5273;-0.2273022;0.117002;0;
148.7836;0;0;205.3579;26.01723;-2.052485;181.6525;181.6653;-0.1621065;0.4417211;0;
198.0468;0;0;245.1315;16.48024;-4.796601;228.4464;232.0198;0.03295841;0.3113426;0;
-73.51579;0;0;-2.927762;16.99955;-5.327645;-38.58656;-35.57892;0.16286;-0.07877431;0;
-636.2216;0;0;-545.5271;4.9924;-3.781684;-594.5183;-591.4512;-0.09717303;-0.2086298;0;
-547.689;0;0;-502.2504;-0.3712511;-3.44297;-509.8382;-504.5254;-0.09707539;0.1164165;0;
-215.5553;0;0;-201.8965;12.2224;-1.56411;-180.991;-178.1822;0.2278589;-0.0786025;0;
-257.505;0;0;-234.7395;10.46783;-0.4238287;-220.9764;-222.2309;-0.1621742;-0.5982623;0;
62.78037;0;0;62.09729;19.36592;2.791656;93.65008;93.52129;-0.5518152;-0.3377917;0;
644.6123;0;0;627.3757;21.22247;5.334202;669.2041;669.7626;-0.1614567;-0.01261563;0;
507.9705;0;0;535.2913;15.10558;2.649525;537.9099;536.5313;0.1635422;-0.1425376;0;
166.1941;0;0;223.4724;16.16213;2.847812;199.9765;200.5983;-0.03152414;-0.1423944;0;
206.6941;0;0;256.2313;-4.149574;8.60536;238.0063;242.1257;0.09844222;-0.1422513;0;
-88.92755;0;0;-16.32681;-11.11163;10.27129;-51.02518;-47.84695;0.228278;0.05279364;0;
-637.9372;0;0;-546.3564;-4.937547;10.66286;-592.1394;-589.4016;0.2280486;0.1826753;0;
-546.5918;0;0;-496.8946;-6.808596;12.92945;-505.3377;-500.6662;0.2927868;-0.142345;0;
-226.0159;0;0;-206.6659;-7.605061;7.825875;-187.6144;-184.9466;0.2275253;-0.2071693;0;
-254.337;0;0;-229.3842;-6.794113;7.014338;-213.4128;-214.5583;0.1623293;0.1178756;0;
67.69434;0;0;67.00987;-2.433029;11.16011;102.5179;101.9359;0.03223152;0.2476918;0;
645.1485;0;0;625.1619;-1.024065;10.01019;672.8157;672.9838;0.09716648;-0.07739379;0;
509.1933;0;0;535.2037;12.3062;17.63594;541.6427;540.3115;0.1620362;-0.272218;0;
148.8625;0;0;210.4539;17.85354;19.56072;185.1524;185.8839;0.09690603;-0.1420098;0;
195.252;0;0;248.848;10.93575;11.57034;228.8193;233.2358;0.2917107;-0.01193247;0;
-76.62009;0;0;-2.963088;11.93012;10.15208;-38.52634;-34.23926;0.3563849;0.05304688;0;
-639.1978;0;0;-546.437;5.889909;5.922072;-594.0209;-589.988;0.2260921;-0.1419085;0;
-555.2849;0;0;-503.0344;2.66881;2.834907;-513.0269;-507.6862;0.2908323;-0.01183119;0;
-218.6458;0;0;-197.9321;4.474789;1.157607;-179.179;-176.2799;-0.03429664;0.3130174;0;
-255.0327;0;0;-229.967;3.733359;-1.455891;-212.4196;-213.6464;-0.1641969;0.05283353;0;
57.69145;0;0;57.932;-3.906203;-1.119513;94.82697;94.03868;-0.1640319;-0.01218691;0;
641.4025;0;0;623.2771;-6.515222;-1.989166;670.1924;670.0921;-0.4237364;-0.077142;0;
506.2007;0;0;535.3197;-0.7478995;-2.456048;539.7717;537.2977;-0.09847394;-0.1420318;0;
156.9299;0;0;221.3768;-1.617804;-2.386597;194.5276;193.6178;0.2264617;-0.2068565;0;
201.7496;0;0;256.1368;6.756566;-2.518165;236.8108;239.8374;-0.0336352;-0.07671393;0;
-89.99409;0;0;-16.17129;9.294396;-2.649601;-48.84616;-46.07249;0.1613006;0.05329785;0;
-638.5029;0;0;-547.4505;4.262191;-0.4365015;-590.962;-589.0032;0.0961712;-0.0766904;0;
-543.8461;0;0;-494.2394;4.860145;-0.03416533;-500.1636;-496.9574;-0.2287621;-0.2715154;0;
-229.5823;0;0;-205.825;-3.583856;-0.8379262;-187.8802;-186.1141;0.1612718;-0.2062752;0;
-263.0847;0;0;-231.9174;-6.594365;-0.5021695;-219.9877;-221.4717;0.09614238;-0.2710353;0;
66.38918;0;0;70.85101;-7.458395;-3.314826;103.3209;102.4631;-0.2287909;-0.3357303;0;
645.8437;0;0;630.3735;-10.33129;-3.512444;676.1791;675.697;0.03130833;0.1843458;0;
507.0767;0;0;535.475;-7.44052;-5.183488;542.7539;540.3358;0.3561136;-0.01074146;0;
149.1843;0;0;214.8479;-7.634114;-6.049058;190.8851;191.0931;0.03091904;-0.4005347;0;
194.7614;0;0;260.0467;-6.018853;-3.296679;237.9196;241.3757;-0.03407937;-0.01032821;0;
-80.9833;0;0;7.599621;-4.070422;-3.628282;-32.55865;-30.10548;0.09588956;0.1196169;0;
-641.8699;0;0;-539.5705;-6.812998;1.264996;-592.5569;-589.1068;0.09579321;-0.01043802;0;
-553.1443;0;0;-497.924;-6.336662;2.670244;-512.6264;-507.3056;0.2256316;0.1844745;0;
-217.382;0;0;-197.1371;-1.909666;0.9931102;-183.464;-180.21;-0.03446444;0.3791912;0;
-252.2084;0;0;-232.2962;-0.3001563;2.1307;-220.1361;-219.1343;-0.03442981;0.4437775;0;
66.19758;0;0;59.29071;1.441458;-5.976131;91.99077;94.17851;0.09553947;0.1184949;0;
650.7747;0;0;629.2571;3.985605;-9.05122;671.8568;673.855;-0.2943606;0.05340847;0;
515.6884;0;0;539.2322;0.7664191;-5.425169;542.2465;541.3691;-0.1641301;0.1183221;0;
164.9712;0;0;218.5389;1.367885;-7.76412;192.6272;194.3743;0.1608715;0.3131053;0;
207.0967;0;0;253.739;4.113177;-4.13924;229.4775;236.845;0.03077517;0.377758;0;
-84.46494;0;0;-15.63071;3.975322;-3.264303;-57.29657;-50.5611;-0.1641578;-0.2073276;0;
-635.7904;0;0;-551.3457;11.00393;-12.50455;-601.403;-595.6738;-0.3588949;-0.2720867;0;
-547.1957;0;0;-505.5645;12.80153;-14.16643;-517.4031;-510.3678;0.03126982;-0.1418786;0;
-227.7437;0;0;-216.9513;9.171345;-14.28616;-203.1659;-199.6359;0.5509771;-0.01180134;0;
-254.6887;0;0;-238.8472;8.759988;-15.54448;-229.0736;-229.3578;0.3555215;0.2480799;0;
68.09255;0;0;59.49298;5.001118;-12.44777;88.62197;90.39956;-0.09960714;-0.0770061;0;
649.5443;0;0;623.0874;2.450497;-11.36354;662.3695;665.8944;0.03042763;-0.3367981;0;
520.3937;0;0;538.5035;1.51003;-12.08893;536.142;538.1642;0.1603317;-0.206525;0;
165.8613;0;0;216.2491;-0.0990781;-11.80885;185.3419;188.7988;-0.09969873;0.05355191;0;
204.2378;0;0;248.578;-3.850023;-5.500714;222.5743;229.5885;-0.1645659;0.3783348;0;
-84.82226;0;0;-15.41423;-4.382018;-3.28475;-58.9454;-52.0008;0.1604362;0.1830526;0;
-642.7065;0;0;-554.2529;-8.999315;-6.630596;-608.8597;-602.8591;0.2252423;-0.01203334;0;
-551.8561;0;0;-509.5931;-11.73596;-6.7579;-523.478;-516.2341;-0.4246574;0.1828808;0;
-221.4674;0;0;-213.917;3.413728;-6.952058;-196.2413;-190.6288;-0.6841001;-0.01220501;0;
-257.3517;0;0;-242.1252;7.562508;-7.815851;-227.7782;-225.5446;-0.358576;-0.2070948;0;
56.87406;0;0;50.0963;2.129902;-8.276756;81.42042;83.90158;-0.09834635;-0.076952;0;
649.2067;0;0;623.5077;3.466932;-7.933525;665.9197;668.4609;-0.03328018;-0.07687467;0;
519.0569;0;0;537.7365;5.54053;-14.62372;539.6263;540.4158;-0.09821408;0.1830719;0;
157.4669;0;0;207.362;6.606689;-16.6855;181.139;184.4264;0.03181928;0.37779;0;
207.0336;0;0;248.5078;3.786036;-8.697888;228.1208;234.8407;-0.09814737;-0.01239365;0;
-74.28309;0;0;-7.988068;3.916929;-7.148664;-47.7199;-42.38108;-0.3579181;0.4423902;0;
-632.8027;0;0;-548.8956;0.3630203;-6.002771;-598.645;-594.1861;-0.03272177;0.6368477;0;
-545.0231;0;0;-503.5541;-1.714425;-4.322166;-512.7739;-506.6328;0.09724579;-0.01346562;0;
-224.3864;0;0;-210.2578;5.253522;-1.23673;-194.2934;-190.1575;0.03218073;-0.1433868;0;
-256.0824;0;0;-237.9076;5.784107;0.8409836;-224.7703;-224.7615;-0.03281894;-0.20821;0;
67.94969;0;0;59.36969;6.7163;-0.4995201;93.2958;93.55449;-0.09775331;-0.0130988;0;
648.4646;0;0;621.34;7.915;0.6396917;667.7882;669.0461;-0.2275898;0.3767184;0;
510.0073;0;0;527.0753;5.428801;-2.241217;534.6213;534.816;-0.1623937;-0.01346417;0;
155.4853;0;0;207.0188;5.624417;-2.372931;183.6353;186.8908;0.0976388;0.05151672;0;
204.7417;0;0;249.2894;2.537306;-1.901666;229.9274;238.1146;0.09754069;0.636171;0;
-79.6337;0;0;-11.58008;1.195586;-2.033721;-48.85109;-40.92199;-0.09745935;0.3756624;0;
-640.6467;0;0;-550.485;3.404212;3.862698;-601.5867;-595.4146;-0.09736142;-0.3393558;0;
-556.9197;0;0;-507.7032;3.601862;6.20322;-520.9599;-513.982;0.0326711;-0.2740475;0;
-227.9627;0;0;-209.9674;2.259072;5.795089;-195.7247;-190.6903;0.357475;0.05106461;0;
-256.2193;0;0;-233.1197;2.122104;6.526078;-221.8897;-220.4836;0.3571158;0.1159806;0;
56.56857;0;0;55.40714;5.938365;10.47139;85.42886;87.58321;0.03192024;-0.2089726;0;
643.3417;0;0;625.9396;7.406267;10.7288;665.364;668.3907;0.09685551;-0.07882796;0;
517.2584;0;0;544.3514;8.335854;10.58406;544.4434;546.0928;-0.09814383;0.5709247;0;
156.4198;0;0;211.2841;10.60563;10.30549;186.9507;190.3476;-0.2279799;0.5053837;0;
203.4888;0;0;249.3026;6.575509;5.204553;231.4279;237.9448;0.09708588;-0.2747323;0;
-71.45253;0;0;0.4270364;5.497175;5.065358;-38.04429;-32.34606;0.09698833;-0.1445215;0;
-629.2253;0;0;-538.1152;12.45788;-7.599262;-589.6663;-584.3486;0.2917929;-0.01444162;0;
-546.7592;0;0;-497.4072;13.11494;-12.61522;-510.4883;-503.4893;0.4214344;-0.1443618;0;
-220.1862;0;0;-198.0576;12.83432;-1.885523;-185.7008;-181.6449;0.2261089;0.2455873;0;
-251.1993;0;0;-221.7216;13.75846;-2.955234;-214.2498;-214.5083;0.03097968;0.3103079;0;
67.2682;0;0;70.35448;8.788137;5.085444;98.37096;98.98731;0.03094856;0.1150941;0;
651.5319;0;0;634.7501;8.511864;7.826512;675.1696;676.41;0.3557542;0.05001109;0;
513.009;0;0;542.5333;5.823994;3.732811;541.0583;541.0481;0.4853314;0.1149282;0;
155.8603;0;0;219.7751;4.679066;5.001736;188.1917;190.6803;-0.03489501;0.3097147;0;
208.1773;0;0;263.1574;8.693829;-2.37129;237.9775;244.4616;-0.09982729;-0.01543321;0;
-71.57883;0;0;5.647253;8.818814;-3.239564;-37.06098;-31.02073;0.4849791;-0.1453524;0;
-628.9142;0;0;-530.9012;15.17297;-10.06845;-587.622;-583.0246;0.4195244;0.04969571;0;
-547.1356;0;0;-489.0135;17.56959;-13.80925;-509.2581;-503.7908;-0.1006358;-0.08028892;0;
-224.8725;0;0;-196.2941;18.15418;-5.087838;-189.282;-186.0065;-0.03556737;-0.08020825;0;
-253.8194;0;0;-221.5216;20.61418;-5.417641;-216.0158;-216.4293;0.09440305;-0.08012766;0;
67.39929;0;0;68.55532;14.69897;2.290718;98.16846;98.62995;-0.2305285;0.04988756;0;
655.3485;0;0;633.3275;13.94824;5.637441;678.0908;678.5518;0.02957249;0.1148048;0;
520.6324;0;0;545.8598;13.19729;1.947837;548.4117;547.1232;0.3543795;0.04972207;0;
157.0417;0;0;217.9134;10.50471;3.888263;188.104;190.6898;-0.1657153;0.1796068;0;
208.0457;0;0;260.1106;18.66583;-2.545883;235.6411;242.6595;-0.2954835;-0.1454104;0;
-68.58686;0;0;7.288685;20.38839;-4.217776;-34.70995;-28.88544;0.2245521;-0.470101;0;
-634.1086;0;0;-536.2579;12.19623;-2.940863;-592.5822;-588.0129;0.1593592;-0.1447919;0;
-550.2633;0;0;-495.8641;11.1796;-4.81343;-512.5891;-507.2123;-0.230605;-0.1446464;0;
-215.7533;0;0;-195.3917;10.96729;-0.5218076;-181.9275;-178.805;-0.03547128;-0.2094684;0;
-247.2081;0;0;-221.9944;9.214961;-0.0524027;-212.4793;-212.6707;0.1594664;-0.01435594;0;
67.25739;0;0;66.64622;12.62098;-1.726923;96.01678;97.32475;-0.03559587;-0.2742109;0;
653.2702;0;0;631.0455;12.80937;-1.591222;675.2541;677.5602;0.09437458;-0.3389027;0;
519.0559;0;0;540.8315;11.12253;-1.589623;546.1401;546.5699;0.09427975;-0.01372546;0;
160.4019;0;0;217.9501;12.04838;-0.8512139;190.8947;194.0102;-0.03574966;-0.3385484;0;
208.2791;0;0;258.8979;6.878715;-4.467315;235.8052;243.1654;0.3540903;-0.2732409;0;
-70.79002;0;0;2.766356;5.666354;-5.132656;-37.35706;-30.94124;0.2237998;0.3117398;0;
-629.1882;0;0;-532.6548;9.009563;-4.25672;-588.1052;-582.6953;0.02867293;0.1165245;0;
-550.5952;0;0;-495.7004;7.727713;-5.592102;-513.489;-506.6477;-0.1012906;0.0514401;0;
-228.4536;0;0;-207.7843;13.88287;2.183416;-195.0078;-191.172;-0.1661561;0.3112578;0;
-253.2115;0;0;-230.0642;14.40478;4.458519;-218.1751;-218.3411;0.0938802;0.116043;0;
70.31799;0;0;66.9553;12.3142;-1.9762;99.50952;100.9679;-0.1660835;0.1808937;0;
651.1428;0;0;630.4172;13.10513;-2.309129;674.0582;676.9518;0.02898541;0.1157446;0;
518.5549;0;0;538.892;1.236597;-2.84255;546.1948;547.5863;0.548695;-0.2092084;0;
158.0898;0;0;210.0156;-1.979826;-3.509523;188.8878;192.5893;0.02840495;-0.1440308;0;
199.8474;0;0;250.0968;-0.9734585;-5.314536;228.4281;235.8114;-0.231493;-0.2738208;0;
-70.71756;0;0;0.4083647;-2.044207;-6.782821;-37.29301;-31.16643;0.2884784;0.05129106;0;
-632.0518;0;0;-544.6306;-2.109502;-4.632551;-592.1641;-586.6684;0.1582538;0.1811742;0;
-559.3279;0;0;-511.912;-3.044412;-5.230743;-523.0411;-516.239;0.09312747;-0.4037139;0;
-226.3081;0;0;-209.6118;6.938982;-2.010428;-193.1186;-188.6971;0.2229686;-0.2733736;0;
-261.6253;0;0;-237.8244;8.5396;0.001079764;-225.6581;-225.6139;-0.1020922;0.1167052;0;
48.48184;0;0;47.70864;13.15272;-6.965024;78.72829;79.20969;-0.1669569;0.1815552;0;
648.8813;0;0;626.6197;16.01892;-7.560872;670.2268;672.3319;-0.03685448;-0.01352923;0;
520.1687;0;0;542.8444;6.826768;-6.481548;545.5532;545.9695;-0.1667521;-0.07848297;0;
156.641;0;0;211.6526;6.75256;-7.680728;186.0605;189.0376;-0.03664989;0.05153058;0;
209.9567;0;0;256.7297;-6.113972;-1.175788;237.4726;243.7575;0.02835427;-0.2083906;0;
-73.48689;0;0;-0.5865859;-11.8686;0.2990178;-39.12714;-34.72253;-0.1665762;-0.4030832;0;
-634.7559;0;0;-541.0018;-2.144764;-1.174907;-593.5591;-589.2214;-0.03647418;-0.7275149;0;
-552.5341;0;0;-500.7282;-2.410053;0.232915;-516.0638;-509.8564;0.2234318;-0.8567185;0;
-237.0122;0;0;-215.4307;-3.746802;-5.728678;-203.3897;-199.5623;0.4181094;-0.2711517;0;
-260.2623;0;0;-233.2052;-4.882113;-7.933237;-224.7995;-224.849;0.2877545;0.05395752;0;
67.83447;0;0;66.87837;8.786823;-2.901667;96.76487;97.58995;-0.362208;0.1188706;0;
650.7233;0;0;626.8422;14.60514;-3.300649;672.3782;673.6398;-0.3618441;0.3786206;0;
522.5085;0;0;542.4419;1.462301;-3.632247;549.2017;548.1506;-0.03664376;0.3132728;0;
163.1639;0;0;217.6848;3.068422;-2.891785;194.2655;195.4644;-0.1665416;0.1830233;0;
202.1053;0;0;251.3866;-5.173684;-8.046444;230.8018;236.4972;-0.3612763;0.1178721;0;
-78.01959;0;0;-6.299133;-10.45977;-8.976119;-44.60424;-39.28939;-0.6207827;-0.1421157;0;
-641.0956;0;0;-551.2064;10.04727;-7.627563;-601.2171;-596.9071;-0.4902242;-0.4018423;0;
-564.4272;0;0;-515.0455;12.18063;-8.356589;-528.3993;-522.5944;-0.3597969;-0.3364712;0;
-227.8414;0;0;-209.6187;10.29238;-3.391578;-195.1606;-191.1731;-0.2295007;-0.0112964;0;
-250.9133;0;0;-228.5235;13.02871;-1.914668;-215.954;-216.2808;0.550338;0.05368231;0;
55.18511;0;0;53.25215;1.092897;-2.582573;84.86194;84.28555;0.2899156;-0.206241;0;
640.4604;0;0;620.0387;-1.587519;-0.9723877;662.2364;662.2853;-0.2950818;-0.01113176;0;
516.8162;0;0;539.2685;-0.9827111;-4.119486;541.9436;540.7431;0.09501877;-0.01112057;0;
151.7302;0;0;206.4561;-3.192527;-3.914398;180.3306;181.3801;0.0949233;-0.2060114;0;
198.3667;0;0;247.1031;-3.791555;-3.374602;225.0643;229.8609;-0.1000741;-0.3357391;0;
-72.75893;0;0;-1.083006;-5.663755;-4.04104;-40.466;-36.17397;0.1598958;-0.4003691;0;
-631.4675;0;0;-541.6852;-1.639576;1.321533;-592.7727;-588.485;0.6794739;-0.2050648;0;
-550.7482;0;0;-502.8477;-1.30216;2.190983;-516.2777;-510.0578;0.8736932;-0.1398914;0;
-226.4825;0;0;-208.5526;-2.172484;2.590557;-194.8578;-191.2053;0.2231419;0.05515122;0;
-255.99;0;0;-232.206;-1.96923;3.391749;-222.0232;-222.6223;-0.4267558;0.1850305;0;
60.48326;0;0;58.00656;-2.033624;0.3742314;88.04411;88.94491;-0.2963923;-0.01005747;0;
642.6298;0;0;620.1032;-0.4239908;-0.02804225;663.0416;665.5032;-0.03622509;0.05491999;0;
511.4247;0;0;533.6483;-10.4039;-3.912902;537.5631;538.1481;-0.03618869;0.1198322;0;
155.6519;0;0;211.5862;-13.07276;-5.784492;184.7;187.8457;-0.1011197;0.1846791;0;
206.5324;0;0;256.7882;-6.02703;-5.108851;232.6777;239.381;0.09388396;0.1195262;0;
-70.2861;0;0;3.282513;-6.62321;-6.510359;-38.29496;-33.41005;0.158757;-0.07549597;0;
-632.1205;0;0;-539.7603;2.157355;-4.159415;-593.8522;-589.9717;0.02866276;-0.0754201;0;
-555.8359;0;0;-504.8602;6.643166;-4.02127;-521.2292;-515.666;0.0936013;-0.1403117;0;
-223.819;0;0;-201.6926;-1.133041;-4.285161;-191.496;-188.3746;-0.1013948;-0.010236;0;
-254.4536;0;0;-225.9151;0.4756875;-3.878957;-219.9142;-220.6065;-0.03632555;0.119709;0;
49.1496;0;0;49.86084;-0.6638663;-5.147736;78.09463;78.46497;-0.2961584;0.05462136;0;
645.4255;0;0;624.9592;-1.601204;-4.673683;667.3449;668.0272;-0.3608282;0.1195338;0;
521.0267;0;0;543.4968;8.782881;-7.415287;547.3594;545.8546;0.02933844;0.1843811;0;
146.0039;0;0;198.8112;11.31965;-8.01056;175.7459;177.366;-0.2955278;-0.0756736;0;
199.955;0;0;245.1505;13.71918;-6.395042;226.7935;232.6599;-0.3601981;-0.1405649;0;
-58.49115;0;0;10.20967;18.79658;-6.857497;-26.68205;-22.69559;0.02996783;-0.01048898;0;
-619.8377;0;0;-531.6532;7.189769;-2.429855;-581.189;-577.8312;0.09490506;-0.07544578;0;
-546.1266;0;0;-498.9477;5.441232;-0.9537894;-510.8276;-505.6616;-0.230027;0.1844994;0;
-219.3044;0;0;-203.0948;17.02271;-2.962197;-186.727;-184.2523;-0.5546326;0.2492814;0;
-252.942;0;0;-233.8752;16.53709;-2.423479;-219.3354;-220.6738;-0.2292386;-0.3356752;0;
56.71915;0;0;49.15519;27.23775;-3.961529;83.73281;83.45769;-0.09907355;-0.4652726;0;
643.9919;0;0;617.9449;31.9658;-4.493412;664.1694;664.3943;-0.5537454;-0.07500104;0;
516.721;0;0;534.7405;15.12182;-4.153983;541.7507;540.0389;-0.553189;0.05500902;0;
151.9474;0;0;204.3065;12.35996;-4.484724;180.3877;181.4262;-0.1628291;-0.1399483;0;
195.6477;0;0;242.5194;12.01275;-4.413234;221.4982;226.4712;-0.0327308;-0.07484033;0;
-74.91302;0;0;-6.286858;8.651773;-4.140868;-44.27837;-40.24743;-0.2275999;0.05516957;0;
-630.8707;0;0;-541.9488;9.58011;-4.471622;-593.1454;-589.9931;0.09746546;-0.1397879;0;
-556.0866;0;0;-504.2979;7.962893;-4.132214;-521.6476;-516.8743;0.4871716;-0.2046148;0;
-232.7526;0;0;-210.4386;6.348278;-2.118696;-201.9089;-199.0769;0.09687802;-0.3343439;0;
-259.1304;0;0;-236.0267;4.666959;-1.379755;-227.7554;-227.9872;0.03181333;-0.2040732;0;
56.09669;0;0;50.06677;6.738375;0.09525593;81.00583;82.21106;0.09674871;0.3158706;0;
644.9943;0;0;619.9175;5.860948;0.9659383;663.1943;664.4608;-0.4230872;0.4454879;0;
520.346;0;0;539.897;5.118125;1.969712;543.2128;541.9169;-0.2927274;0.1202035;0;
151.6333;0;0;205.5223;4.711816;3.374252;179.0998;179.6167;0.1623381;-0.0748193;0;
198.02;0;0;249.0438;-5.005809;0.08882;223.9597;229.0363;0.2271423;0.4449946;0;
-68.1078;0;0;5.478402;-9.756202;0.08873075;-37.94632;-32.43757;0.3568488;0.5744822;0;
-633.0679;0;0;-544.8755;-6.196425;1.227351;-595.7528;-591.7488;0.4214575;0.3140356;0;
-557.282;0;0;-510.5325;-7.73044;0.8912035;-522.3158;-517.5037;0.3560667;0.118818;0;
-223.0773;0;0;-203.6735;-15.42583;3.837435;-191.2696;-188.8987;0.2907416;-0.07620343;0;
-253.4627;0;0;-229.2059;-17.48644;3.431682;-220.4377;-222.0671;0.0305801;0.2487099;0;
59.01001;0;0;56.69334;-19.67967;6.844363;85.4427;85.68896;0.2904187;0.5732967;0;
651.0906;0;0;630.0981;-21.8707;7.507315;670.9375;671.9956;0.09522489;0.1179492;0;
523.2503;0;0;545.0699;-14.21194;2.275225;548.8244;547.0703;-0.2297075;-0.01210399;0;
156.9709;0;0;210.1903;-12.1889;1.737075;186.3298;186.639;0.290262;0.2477776;0;
197.9175;0;0;246.1484;-12.24302;-6.503449;224.9981;229.7422;0.4199051;0.3774633;0;
-75.76891;0;0;-2.723957;-9.15024;-10.11387;-43.53062;-39.22853;0.2245811;-0.01272008;0;
-625.9162;0;0;-533.9542;-12.48995;-8.161202;-587.9007;-584.3526;0.1593881;-0.4674787;0;
-550.5748;0;0;-500.3718;-11.74046;-10.43042;-515.6585;-511.052;-0.1656087;-0.1421722;0;
-235.2423;0;0;-217.9482;-7.509109;-5.597292;-202.5475;-200.3194;-0.03550765;0.05287264;0;
-257.3697;0;0;-238.7187;-6.69728;-4.385975;-223.6458;-224.6058;0.2893647;-0.01214784;0;
62.91551;0;0;56.43546;0.7441885;-6.658988;90.23378;90.46162;0.3540413;-0.07710297;0;
643.0607;0;0;619.1584;5.096721;-5.781519;663.2925;663.77;0.4836203;-0.01205816;0;
519.4763;0;0;539.5759;-3.548588;-6.177608;544.1231;542.9135;0.5481017;-0.01204605;0;
153.3881;0;0;209.1995;-4.214608;-5.702519;182.0081;183.6108;0.3526489;-0.206936;0;
194.4008;0;0;245.5335;2.755852;-5.562824;220.8681;225.78;0.02745785;-0.2716954;0;
-62.66546;0;0;7.968546;2.753083;-5.021371;-31.16475;-27.69459;0.352267;-0.1414877;0;
-625.3196;0;0;-537.5153;6.567734;-5.083308;-587.7911;-585.2615;0.6117824;-0.1413455;0;
-563.0348;0;0;-514.6739;8.101376;-5.212166;-529.2921;-525.0784;0.1563963;0.05369854;0;
-232.0102;0;0;-214.1201;-0.2785329;-1.255058;-201.2999;-199.2768;-0.1685976;0.2485466;0;
-260.5751;0;0;-237.1432;-3.427061;-0.04810428;-228.3964;-230.1859;-0.1684282;0.1183622;0;
49.84335;0;0;47.76447;1.13171;-2.392459;75.80531;74.95464;-0.2981936;0.05327591;0;
641.3084;0;0;616.2432;1.196946;-2.992779;659.6856;659.8978;-0.102992;0.3130918;0;
518.2256;0;0;536.6637;-9.856318;-0.3105766;541.1445;539.9197;0.4168502;-0.01205957;0;
153.8878;0;0;208.7265;-12.79318;0.0916331;180.969;182.2442;0.5463661;-0.2719168;0;
194.1503;0;0;243.3118;-11.44115;-4.731108;218.8306;223.1029;0.156013;0.1181605;0;
-79.03255;0;0;-8.681145;-13.97427;-5.932047;-49.37961;-46.48586;-0.1040131;0.05307439;0;
-636.6728;0;0;-545.4651;-4.850554;-6.729882;-599.3035;-596.2253;0.1559608;-0.2068483;0;
-559.0718;0;0;-508.248;-2.09999;-7.861707;-524.9884;-519.7893;0.09083673;-0.4015425;0;
-235.5473;0;0;-218.7575;-7.121722;-7.987774;-206.4957;-203.6757;0.1557128;-0.3361717;0;
-265.7329;0;0;-245.1493;-5.774419;-9.051475;-235.8984;-236.9542;0.4154257;-0.2708665;0;
56.49731;0;0;52.19766;-7.041415;-6.698099;81.49175;81.24908;0.02520423;-0.5954311;0;
640.8968;0;0;618.7979;-6.699547;-6.758351;659.8066;659.8765;-0.2346905;-0.2050288;0;
514.1912;0;0;535.2178;-7.3624;-6.818543;537.4548;535.0884;-0.2344546;0.1849813;0;
161.9763;0;0;213.7788;-9.297385;-6.476778;188.34;187.7251;-0.2342191;0.3796975;0;
205.604;0;0;251.6074;1.965089;-10.08723;229.3176;232.7637;-0.03908169;0.4442833;0;
-67.90271;0;0;1.979926;5.244668;-10.67994;-38.71574;-35.27306;0.1558596;0.1190002;0;
-634.4871;0;0;-544.9971;-5.343173;-14.62108;-597.7083;-595.1437;0.4155724;0.1838479;0;
-564.1971;0;0;-518.2127;-6.275809;-17.21872;-531.8281;-528.1415;0.2202528;0.05372853;0;
-228.5486;0;0;-214.6568;-5.867362;-10.97213;-201.0847;-199.6507;-0.1048053;-0.01129282;0;
-258.179;0;0;-236.9923;-7.134264;-10.15731;-227.994;-230.5595;-0.1046999;0.1186532;0;
51.23753;0;0;48.53994;-5.05099;-12.08961;77.26927;75.39351;-0.1695621;0.118534;0;
646.6367;0;0;623.7645;-4.643774;-10.53685;665.1461;664.3342;-0.1044244;0.1833822;0;
530.3576;0;0;549.9246;-6.447768;-14.07624;552.5965;550.536;0.02561525;0.3131327;0;
161.6973;0;0;214.3529;-6.977153;-14.12908;187.6619;187.665;-0.1693125;0.1828833;0;
196.8295;0;0;242.3733;-2.951654;-10.22999;220.3318;223.7707;-0.2341097;0.3776016;0;
-68.92226;0;0;-2.060001;-2.211755;-10.08575;-40.00883;-36.88578;0.1559296;0.6370916;0;
-625.2608;0;0;-538.9131;-3.146561;-1.569024;-588.5679;-586.5724;0.4156422;0.1167127;0;
-556.2919;0;0;-510.3857;-3.210748;1.982648;-523.3215;-520.391;0.2203226;-0.0133393;0;
-231.7083;0;0;-217.6447;-5.217254;-3.91372;-203.0813;-201.4656;-0.1047355;0.1815761;0;
-259.7738;0;0;-240.5394;-6.484809;-3.373924;-229.0516;-230.3111;-0.234565;0.1164263;0;
53.45493;0;0;48.74452;-7.817464;-3.906397;78.89884;78.82755;-0.2992966;0.1812767;0;
643.9169;0;0;618.5966;-8.881336;-4.505318;661.4017;661.9552;0.02584084;-0.5335462;0;
525.9539;0;0;544.6993;-14.09732;-4.634757;547.7939;545.6606;0.3506516;-0.9228141;0;
166.7307;0;0;220.8145;-17.16364;-5.634844;192.9841;192.6646;-0.2993742;0.05262323;0;
205.9808;0;0;252.8265;-11.31925;-1.610328;230.5212;234.075;-0.2990734;0.182505;0;
-68.71317;0;0;-1.237489;-10.36987;-0.06810286;-39.13751;-36.52425;0.2859332;-0.4673518;0;
-633.3603;0;0;-547.5866;-17.46037;-2.74723;-596.5055;-594.8943;0.02577655;-0.4019148;0;
-561.2598;0;0;-517.7386;-18.98307;-1.137001;-526.9408;-524.894;-0.2990861;-0.206609;0;
-223.3654;0;0;-210.3102;-14.47602;-4.149969;-192.5167;-192.9707;-0.03891617;-0.336336;0;
-257.6861;0;0;-237.7724;-14.66254;-5.351491;-225.3691;-228.6962;0.2209923;-0.2710308;0;
43.79642;0;0;37.70313;-11.09784;6.978501;70.27135;67.44734;-0.2989685;-0.1408237;0;
650.8848;0;0;623.2459;-8.206296;9.918616;669.2746;666.8282;-0.5585374;-0.2056496;0;
536.2255;0;0;552.5299;-17.84359;7.832301;558.7198;554.5893;0.2865992;-0.01054091;0;
158.3764;0;0;209.5843;-18.96376;9.565866;185.2834;183.4059;0.4162459;0.1843717;0;
202.7574;0;0;248.7914;-13.72077;4.934554;227.7008;229.9481;0.09099097;0.05425178;0;
-63.00039;0;0;7.100276;-13.70698;3.255022;-32.20997;-30.83951;0.0259322;0.2490993;0;
-628.5278;0;0;-539.632;-7.463921;6.132017;-591.334;-590.0899;-0.1040285;0.248849;0;
-553.3087;0;0;-507.8555;-4.709755;6.058873;-521.0874;-516.7835;-0.4287607;-0.2061725;0;
-226.8541;0;0;-211.9937;-6.714755;1.364102;-197.7261;-195.488;-0.7531666;0.05390409;0;
-256.1738;0;0;-236.2059;-5.100417;0.6259187;-224.3889;-227.1506;-0.5575078;0.3786866;0;
65.67197;0;0;59.44546;-7.306095;-1.250232;91.42795;88.73152;0.02775846;0.5082408;0;
650.8118;0;0;627.4127;-8.570576;-3.325325;669.2331;667.3515;0.2226326;0.5726975;0;
523.4091;0;0;542.887;-1.261922;6.993144;545.56;543.0555;0.09247421;-0.01258407;0;
167.4993;0;0;215.943;0.6827047;9.59833;192.1267;192.6233;-0.4923248;-0.2074734;0;
206.4364;0;0;248.2722;-6.552626;2.689687;228.0405;232.1597;-0.4268627;0.0526044;0;
-67.69588;0;0;0.3347133;-7.215627;1.414309;-41.30339;-36.87592;0.02833755;-0.07738315;0;
-620.9747;0;0;-532.2729;-9.15076;4.49398;-587.7372;-583.7515;0.09327642;-0.01233806;0;
-549.199;0;0;-503.1274;-12.4241;3.350755;-519.2433;-514.6368;-0.1017193;0.117609;0;
-223.3732;0;0;-209.8941;0.7839046;1.405005;-196.2586;-194.1556;-0.4264538;0.1824582;0;
-253.6334;0;0;-237.2318;5.070024;1.537559;-223.5476;-226.0693;-0.166156;0.1822749;0;
49.03192;0;0;39.05531;-8.732821;-11.99429;74.1525;72.19551;-0.03605432;0.3120264;0;
644.246;0;0;615.4763;-8.590325;-17.00584;661.4702;661.2018;-0.0360181;0.2467455;0;
532.7793;0;0;549.2034;-8.179552;-9.285837;553.2971;550.8427;0.2888548;0.1165629;0;
161.243;0;0;212.7579;-9.176687;-10.81711;185.5507;183.9733;0.09366254;0.05147846;0;
206.1208;0;0;251.9618;4.631262;-6.251528;228.4676;231.452;-0.1013336;-0.01354062;0;
-55.14259;0;0;12.95362;9.38203;-3.833861;-27.94567;-24.652;0.3535396;-0.01352702;0;
-630.9227;0;0;-543.5922;7.1618;-9.657401;-595.6322;-593.6537;0.288217;-0.2084154;0;
-562.7603;0;0;-516.6842;9.767549;-9.044851;-529.879;-526.6531;-0.2967786;-0.2731734;0;
-220.9913;0;0;-206.1958;11.83384;-10.77732;-192.0786;-190.3552;-0.3614478;0.05193783;0;
-251.8786;0;0;-231.8507;12.02302;-12.10615;-221.5582;-223.4597;-0.1012152;-0.01308171;0;
57.96889;0;0;53.05172;16.29785;-4.391069;81.82457;80.79955;-0.1660809;-0.01306857;0;
651.6122;0;0;624.5861;16.81733;-2.109359;667.0731;666.9237;-0.1009466;0.5066833;0;
534.1412;0;0;548.6838;9.56579;-7.867528;554.3967;552.061;0.02908946;0.6361089;0;
173.0357;0;0;224.92;7.279003;-7.993588;198.3933;197.809;-0.2308091;0.1806983;0;
201.8473;0;0;250.4935;1.779333;-5.976191;225.8675;228.7197;-0.03567519;0.05058207;0;
-71.90553;0;0;-3.505623;-1.638707;-6.104152;-43.66158;-40.99971;0.09429534;0.1154986;0;
-623.3685;0;0;-537.2338;-3.512094;-3.485684;-589.2184;-586.8091;0.0942006;-0.0795195;0;
-548.8419;0;0;-502.4612;-6.321604;-2.678386;-518.1618;-514.9428;0.3539753;-0.0794396;0;
-218.3937;0;0;-202.4194;-1.627179;-5.488978;-190.6181;-190.2134;-0.03618442;0.1155423;0;
-251.6574;0;0;-232.3259;-0.821261;-6.488206;-221.9107;-225.5669;-0.2960174;0.1154262;0;
51.81805;0;0;45.45556;-1.959512;-4.94108;75.91269;73.1972;-0.1657853;0.4401469;0;
647.4041;0;0;622.8696;-1.15326;-5.471978;664.603;663.1396;-0.1006514;0.504672;0;
537.496;0;0;557.3389;-0.4151665;-6.404241;558.863;555.402;0.2892538;-0.01557388;0;
169.2657;0;0;225.0081;-0.2146546;-5.660994;193.6722;192.0264;0.3539305;-0.3403949;0;
202.8287;0;0;253.705;-1.017746;-12.88922;224.2122;226.441;0.02873816;0.2446532;0;
-61.05507;0;0;11.82154;-2.556965;-14.81877;-34.883;-32.59392;0.158644;0.6342114;0;
-623.8358;0;0;-531.2299;-0.2772199;-10.91899;-590.1313;-587.907;0.3533866;0.1788028;0;
-555.1807;0;0;-505.6462;0.1252003;-12.91739;-525.4456;-521.2245;0.1581295;0.1786231;0;
-217.0425;0;0;-201.6656;-10.99434;-1.651643;-191.7101;-188.8051;-0.2968008;0.1784436;0;
-248.6209;0;0;-228.6369;-14.06475;1.431232;-220.253;-221.5363;-0.2315352;-0.5363764;0;
53.35221;0;0;47.45421;-12.84419;-7.478693;77.50623;76.03679;-0.1663352;-0.9256415;0;
642.6274;0;0;617.3076;-14.63995;-7.069402;659.1359;658.4176;-0.1012008;-0.6648421;0;
522.0419;0;0;540.663;-12.88392;-13.89431;541.7823;539.5654;0.483607;-0.3393373;0;
159.5119;0;0;210.8478;-13.54056;-15.88984;183.1679;182.7024;0.288219;-0.274029;0;
201.5179;0;0;247.9297;-8.570464;-14.06534;223.3386;226.7466;-0.2318093;0.245985;0;
-63.80133;0;0;6.926545;-6.954263;-13.98422;-37.1925;-34.03779;0.09326033;0.5705746;0;
-618.0836;0;0;-529.998;-8.353794;-11.42494;-585.6295;-583.2275;0.2231013;0.2451646;0;
-548.1849;0;0;-503.1037;-6.604088;-10.4757;-520.0737;-516.2374;0.09294245;0.1149835;0;
-222.9223;0;0;-207.4341;-13.56368;-0.7528906;-198.3375;-196.754;0.2877511;0.114868;0;
-255.3693;0;0;-234.1496;-14.68815;2.396064;-229.3101;-231.6012;0.3524293;-0.08014946;0;
51.35821;0;0;43.63365;-11.19077;7.149323;71.89405;69.60526;0.02723846;-0.1450363;0;
644.8832;0;0;614.6777;-10.37621;11.16099;658.0896;656.4278;-0.03775625;-0.2748252;0;
530.9797;0;0;545.0323;-10.76695;3.37988;547.7335;545.761;0.1571837;-0.0146797;0;
168.0033;0;0;216.2122;-11.22563;3.711398;189.9877;189.7663;0.2219931;0.3101718;0;
211.9374;0;0;254.9753;-0.2286564;-3.191329;232.9626;234.8654;0.1568027;-0.01497662;0;
-56.32835;0;0;13.40292;2.919405;-6.537269;-30.13936;-29.23799;0.4814819;-0.3397983;0;
-625.9854;0;0;-534.5226;2.179538;-1.440119;-592.2015;-591.3635;0.3510634;-0.2744895;0;
-549.7069;0;0;-504.8752;5.727321;-2.778209;-519.8925;-517.3687;-0.4288975;0.1155904;0;
-210.0125;0;0;-198.834;-4.392491;2.984993;-184.2261;-183.6414;-0.5584012;0.2454089;0;
-248.2197;0;0;-227.5571;-5.593526;4.656445;-220.2728;-222.9995;-0.1030687;-0.3395438;0;
55.75204;0;0;52.09357;-2.975937;3.580039;77.8613;76.13686;0.4167736;-0.4691373;0;
653.6454;0;0;630.0632;-4.513188;5.050066;668.4237;667.5755;0.4813221;-0.2087965;0;
538.4837;0;0;557.9036;5.605403;1.160104;557.3076;553.899;0.09103447;0.11625;0;
173.6882;0;0;224.5103;8.14439;0.4891089;195.3042;194.9601;-0.103959;0.2460679;0;
212.9939;0;0;258.33;6.193824;-0.6500924;231.7771;237.118;-0.03888723;0.0509186;0;
-58.83361;0;0;11.19458;6.991883;-2.189924;-34.19724;-29.7363;0.02611919;-0.07906726;0;
-623.1783;0;0;-534.0426;7.520721;-0.5802557;-590.4457;-587.6135;0.220995;-0.2738898;0;
-552.5248;0;0;-506.582;7.111023;-1.249502;-524.198;-520.8688;0.2857403;-0.1436799;0;
-221.3858;0;0;-207.5981;4.089768;-0.4444514;-197.2728;-196.5082;0.4153878;0.2462685;0;
-252.8349;0;0;-235.9376;2.812861;0.09185869;-225.8726;-228.1073;0.09013373;0.1160863;0;
53.82759;0;0;42.59708;-3.218186;-3.324241;75.45298;73.7828;-0.4296956;0.1159697;0;
649.6615;0;0;618.5772;-5.559477;-4.191679;663.7064;661.2883;-0.2343618;0.1158532;0;
539.876;0;0;551.4891;-6.156127;-0.9724085;558.1548;553.4277;0.1556778;-0.1441326;0;
177.2656;0;0;222.7874;-6.954224;0.1002955;199.0242;197.9251;0.09055398;0.05091425;0;
208.6341;0;0;251.6739;-2.927773;-2.579;228.4343;232.0839;0.1554303;0.3756998;0;
-64.0011;0;0;3.483159;-0.781377;-1.973563;-38.8485;-35.88971;0.09030682;0.3103549;0;
-623.8428;0;0;-535.5619;1.562957;-2.239511;-591.5941;-589.2629;0.2851181;0.1801084;0;
-554.8754;0;0;-507.9749;3.370047;-2.90709;-525.9074;-523.2662;0.544701;0.1149601;0;
-219.1738;0;0;-206.4283;10.73503;2.521326;-194.4203;-194.2806;0.1543496;0.1798119;0;
-247.814;0;0;-231.5831;13.13514;2.317844;-221.5237;-224.695;-0.2356095;0.3745333;0;
51.40968;0;0;42.63689;14.66316;6.200403;72.17634;68.57101;-0.1704054;0.3091896;0;
645.3719;0;0;617.4301;16.85825;7.667797;659.0588;656.3316;-0.3001689;0.1789443;0;
535.0286;0;0;550.2182;7.866331;-3.324864;553.5118;550.475;-0.03999792;0.5036011;0;
169.9867;0;0;221.8301;6.719351;-6.067824;191.9496;191.4771;-0.2348598;0.1132911;0;
209.9832;0;0;257.839;-1.391726;-10.41549;229.0504;232.389;-0.2995911;-0.4715288;0;
-57.71831;0;0;6.393682;-6.950033;-14.3569;-33.17301;-31.64939;0.480318;-0.6009897;0;
-625.0626;0;0;-543.8986;6.31884;-14.54342;-592.8583;-593.7725;0.4148681;-0.6653532;0;
-558.9675;0;0;-515.1163;7.116774;-17.34197;-531.1059;-529.6453;-0.0403202;-0.2099132;0;
-220.1383;0;0;-207.0658;5.032542;-13.43966;-196.6151;-196.218;0.284557;-0.0148003;0;
-244.7796;0;0;-226.7852;6.501353;-12.82331;-219.281;-223.0697;0.08936907;-0.1447201;0;
54.81585;0;0;48.80423;2.408984;-16.29354;75.04148;71.56895;-0.4954268;0.180262;0;
642.7152;0;0;617.157;2.071771;-16.47811;655.9241;653.4545;-0.3649943;0.05014621;0;
529.4385;0;0;546.9468;1.466477;-15.38983;545.9449;542.4159;-0.1047582;-0.01487153;0;
170.899;0;0;219.1867;0.3269033;-15.10643;190.0125;188.9858;-0.1696203;0.3749475;0;
211.6442;0;0;249.6386;2.536402;-15.96203;228.4272;230.0876;-0.2344172;0.1796687;0;
-61.1814;0;0;-0.799001;2.668551;-15.5441;-39.4803;-39.38325;-0.299149;-0.1453485;0;
-621.2759;0;0;-539.4649;2.865964;-18.27465;-592.7875;-592.8155;0.09095565;-0.01526782;0;
-552.5609;0;0;-510.4372;4.404302;-19.32802;-527.5369;-525.5658;0.4806683;0.04971488;0;
-224.7951;0;0;-212.9486;-0.155451;-13.74914;-202.4824;-202.6998;0.3502507;-0.01530243;0;
-252.6801;0;0;-235.9105;-1.092324;-11.72596;-228.016;-231.9812;0.219964;-0.2101891;0;
50.04678;0;0;41.06248;6.812028;-14.12544;69.50116;66.53941;-0.1050937;-0.2749452;0;
643.9479;0;0;614.1706;8.747566;-12.36969;656.0115;653.6149;-0.1699554;-0.1447343;0;
537.0418;0;0;548.4612;7.131186;-13.69692;552.9663;548.2608;0.2200194;-0.4044582;0;
173.4971;0;0;216.3268;7.593511;-14.01807;192.7165;191.0767;0.154831;-0.5989538;0;
218.8624;0;0;256.714;9.460916;-5.028514;235.5012;238.4233;-0.3650633;-0.3384826;0;
-42.7261;0;0;19.70008;9.317687;-3.14794;-20.73174;-18.81212;-0.1048272;-0.2082078;0;
-618.2689;0;0;-534.4162;10.11163;-1.135411;-588.9878;-588.0696;0.2201149;-0.01309661;0;
-560.4264;0;0;-517.0127;10.9731;1.210133;-534.2357;-531.8816;-0.104943;0.05188391;0;
-225.7812;0;0;-214.3951;2.723055;-6.092101;-202.178;-201.3256;-0.2347722;-0.01313558;0;
-253.9775;0;0;-236.4809;0.7105871;-7.693448;-228.5865;-230.9208;-0.2345363;-0.07808973;0;
52.99849;0;0;45.55256;3.121747;-7.685717;72.61692;71.72173;-0.03939865;-0.402848;0;
652.3315;0;0;622.7167;2.85019;-9.285585;665.1211;664.6016;-0.1043264;-0.01263914;0;
541.9811;0;0;555.1246;4.253846;-11.28574;559.0058;555.4883;-0.4290583;0.3122103;0;
179.6184;0;0;225.857;4.651713;-13.35075;199.8119;199.109;-0.03882311;-0.2728095;0;
218.1685;0;0;256.7395;10.67526;-10.32323;235.9053;239.5135;0.4159873;-0.01266603;0;
-57.78716;0;0;5.045374;13.00906;-10.64777;-34.25852;-32.34059;0.6104713;0.3771508;0;
-620.3838;0;0;-535.2506;14.4025;-9.632326;-589.9448;-588.4661;0.6748253;0.4417391;0;
-550.4827;0;0;-504.6654;17.40214;-7.881091;-524.0723;-520.3462;0.1544085;0.3763279;0;
-224.7181;0;0;-209.1816;10.01629;-14.37039;-201.5201;-199.6718;-0.1056161;-0.1437889;0;
-249.6671;0;0;-232.2722;8.9345;-14.48992;-224.4934;-226.7074;-0.2354446;-0.4035138;0;
54.24361;0;0;44.69711;11.53847;-12.33191;74.33205;72.4326;-0.4950774;-0.2082064;0;
640.5194;0;0;613.4288;9.718211;-11.71667;653.5287;652.5057;-0.1047759;0.1168396;0;
529.8061;0;0;545.5338;17.41161;-6.949231;546.3006;543.8419;0.2851334;0.2466569;0;
162.1458;0;0;209.9665;19.53757;-5.669694;181.7471;181.4148;0.4147816;0.1164743;0;
206.1482;0;0;246.7369;10.13983;1.570037;223.6683;226.5222;0.08952813;0.1813246;0;
-51.05478;0;0;12.16928;8.320985;4.716536;-28.11745;-26.0785;-0.1704312;0.05120776;0;
-622.6536;0;0;-536.8795;8.714766;1.965618;-592.7429;-591.0808;-0.04032526;-0.1437457;0;
-556.6234;0;0;-511.1027;5.825621;3.03537;-530.9905;-527.7059;0.0246826;-0.273536;0;
-212.5492;0;0;-199.0582;11.58054;-2.192227;-190.8777;-188.9082;-0.04030954;-0.0783591;0;
-247.568;0;0;-227.6563;13.51129;-4.266495;-222.6698;-224.7003;0.154633;0.5713931;0;
47.34518;0;0;40.31292;0.3021982;-1.649874;67.97046;65.87952;-0.04042442;0.4408842;0;
646.1216;0;0;615.1085;-1.907932;-1.179457;658.6052;658.0781;-0.1703185;-0.1442648;0;
533.7785;0;0;547.0243;-1.303779;-6.536785;550.3101;548.8464;-0.04021266;-0.2090872;0;
172.6734;0;0;221.5755;-5.187235;-6.865009;194.3108;194.4104;-0.559911;-0.01397512;0;
216.103;0;0;258.2093;10.35802;-1.097823;235.6572;239.0675;-0.4294137;0.180941;0;
-60.03794;0;0;6.07647;13.89758;0.845785;-35.88076;-32.97363;0.3506259;0.05082447;0;
-621.8827;0;0;-534.3455;3.501143;5.265687;-590.7533;-589.3483;0.5451756;-0.2740633;0;
-558.1645;0;0;-512.1945;3.631346;6.667037;-530.2523;-528.2866;0.1548237;0.05104878;0;
-235.0158;0;0;-221.888;-2.265824;15.63581;-210.1301;-210.4777;-0.2351359;0.6357036;0;
-251.2714;0;0;-233.659;-4.942865;19.0361;-224.4117;-228.3196;-0.2348996;0.3751954;0;
55.20217;0;0;49.43363;-1.923788;12.31893;76.84995;74.13287;-0.2346636;0.04998173;0;
638.0412;0;0;613.2255;-1.788134;12.97638;652.9207;650.4562;-0.3643625;0.1798662;0;
526.2685;0;0;544.5186;-3.72872;2.313297;544.8186;540.1702;-0.03915965;-0.01521658;0;
158.6117;0;0;211.0763;-3.390181;-1.306105;180.5165;178.6214;0.2857164;-0.145136;0;
204.9914;0;0;248.5328;2.842517;-2.376398;224.5629;226.7926;0.1554946;0.1798466;0;
-44.52672;0;0;20.02278;5.786421;-7.263642;-20.41474;-18.3122;0.09037105;0.3096006;0;
-615.6949;0;0;-527.7845;6.116376;5.336082;-584.923;-583.3223;0.3501496;0.2443221;0;
-564.4766;0;0;-517.0093;6.445023;6.536413;-537.0465;-534.6353;0.2198631;0.1141419;0;
-223.3306;0;0;-209.1443;16.41888;3.716562;-199.3638;-198.5168;0.02474015;0.04905992;0;
-246.5944;0;0;-226.8627;19.21542;5.119469;-220.6527;-223.2423;0.15465;0.30888;0;
42.69556;0;0;38.35709;9.684295;-3.392264;63.17644;60.46451;-0.04040745;0.2436023;0;
636.2917;0;0;612.3425;7.664832;-5.532309;648.7561;647.2963;-0.2352689;-0.08147921;0;
530.8301;0;0;549.8833;3.705992;-5.392784;546.4678;543.7601;0.0248369;0.1135047;0;
163.9809;0;0;214.3117;0.9556015;-6.392109;182.7887;182.4575;0.08977928;0.5031947;0;
206.1698;0;0;246.8924;-2.662681;-9.667728;222.585;227.0642;-0.04024561;0.1778524;0;
-63.96418;0;0;-2.293082;-3.664384;-10.93069;-42.06827;-38.53059;0.3495989;0.1776737;0;
-625.9924;0;0;-543.1439;-3.325909;-5.628177;-597.3094;-595.0247;0.4142149;0.1125278;0;
-553.462;0;0;-510.4893;-1.179113;-4.483812;-528.7433;-524.8367;0.02399469;-0.01751996;0;
-228.9437;0;0;-219.2475;4.64922;1.616018;-207.6857;-205.8445;0.1539053;0.437269;0;
-255.6377;0;0;-241.7658;8.998806;5.90118;-231.6524;-233.3737;0.41362;0.4368297;0;
56.58739;0;0;44.83323;20.37662;0.6707038;75.80098;74.08139;0.6081064;-0.083348;0;
646.5464;0;0;615.5638;24.84412;1.406842;658.2445;656.9015;0.73743;-0.5380356;0;
531.4543;0;0;546.4172;42.90382;5.82618;547.5134;544.9224;0.541787;-0.4075603;0;
166.1037;0;0;218.4702;52.37253;6.557138;185.8948;185.5552;0.216406;-0.01734677;0;
208.353;0;0;258.4805;35.17228;7.153396;225.6879;229.5965;-0.1736155;-0.147264;0;
-53.53734;0;0;15.84259;35.13693;7.012242;-30.47274;-27.87989;-0.1734411;-0.08214871;0;
-622.1352;0;0;-539.1443;30.47993;6.134418;-591.5351;-590.6315;0.2165372;0.1128359;0;
-559.4788;0;0;-517.7381;26.36346;4.788596;-532.5326;-530.1306;0.281287;0.04775515;0;
-222.898;0;0;-209.7475;29.21736;2.439503;-199.2897;-199.1391;-0.173767;-0.01726019;0;
-254.8454;0;0;-234.2118;26.24027;-0.1752821;-228.762;-232.672;-0.3035271;-0.1471775;0;
41.01212;0;0;37.01233;32.30947;-1.514765;61.69693;58.97779;-0.3032221;-0.01709496;0;
640.9818;0;0;615.7467;33.14766;-3.187694;654.0872;652.5576;-0.6927215;0.1128569;0;
536.0152;0;0;552.9717;29.29694;-9.681713;553.2303;549.5159;-0.3022214;0.04777617;0;
165.9748;0;0;215.2731;28.93173;-11.74833;186.3585;184.7094;0.4776904;0.1126955;0;
206.0378;0;0;247.1032;30.24281;-14.54981;224.402;226.69;0.08740634;-0.01735243;0;
-54.28844;0;0;8.412245;31.21679;-16.54468;-30.1331;-29.47158;-0.1075835;-0.2772044;0;
-615.7642;0;0;-532.4493;24.62135;-9.561954;-585.3237;-586.287;0.4122633;-0.1469911;0;
-555.1755;0;0;-513.4861;23.72595;-7.743806;-529.201;-527.7896;0.216947;-0.01690876;0;
-231.7175;0;0;-222.866;22.02815;-5.458728;-209.4547;-208.9193;-0.173075;-0.2117938;0;
-255.4726;0;0;-242.1947;19.25935;-1.97013;-231.3582;-234.6338;-0.3028358;-0.2765483;0;
53.44142;0;0;41.71857;28.1486;-4.178587;72.47171;69.38676;-0.5624008;-0.1463358;0;
643.3412;0;0;612.8895;27.58446;-3.169645;655.6057;653.4609;-0.5618357;-0.1461887;0;
530.0638;0;0;543.1834;32.04472;3.26378;545.7519;542.11;-0.3014018;-0.2110092;0;
165.7141;0;0;214.9274;34.82556;5.805729;184.135;182.4333;-0.1711643;-0.01589512;0;
210.2751;0;0;256.253;20.25588;2.048974;226.3037;228.9765;0.08887705;0.0490882;0;
-51.0549;0;0;15.24154;19.23017;1.511051;-29.35782;-28.49931;0.2836898;-0.01592848;0;
-622.5913;0;0;-537.0587;8.628277;4.724592;-593.982;-594.3112;-0.04143199;0.1140222;0;
-567.1807;0;0;-520.9644;2.524038;3.916049;-542.973;-540.6158;-0.171325;-0.08099438;0;
-226.6567;0;0;-214.8445;19.26699;5.720654;-206.5962;-206.8026;0.1536838;-0.01594566;0;
-249.1675;0;0;-234.2437;20.7215;6.585684;-227.503;-231.8946;0.08856206;0.5038091;0;
46.43436;0;0;37.35522;23.78116;-1.726573;63.57938;60.69149;-0.301331;0.1784662;0;
648.8349;0;0;617.4636;27.77673;-3.064497;659.1536;656.8308;-0.3659956;-0.08158253;0;
541.674;0;0;552.6879;25.73909;-3.664264;554.8558;550.9737;-0.1707258;-0.01653322;0;
166.1307;0;0;215.3018;28.72733;-4.196446;182.6102;181.1682;0.1542825;-0.2114186;0;
208.0051;0;0;255.6901;22.00067;-1.579895;223.0313;224.9641;0.2190948;-0.1462388;0;
-55.13421;0;0;13.86711;19.63403;-1.377481;-34.00124;-33.19484;-0.2358967;0.1137775;0;
-619.4826;0;0;-533.7466;30.4653;7.867426;-590.8746;-590.7562;-0.1706924;0.2435978;0;
-555.392;0;0;-509.5347;32.30972;11.20855;-530.7484;-529.3807;0.2192832;0.3083204;0;
-229.8723;0;0;-215.1704;26.85225;11.9341;-208.7516;-209.4468;-0.3656432;-0.01682612;0;
-253.0671;0;0;-234.8192;27.36113;14.93621;-229.1565;-232.5996;-0.3652758;-0.08177656;0;
57.90601;0;0;50.71085;24.85539;8.825881;78.04443;74.97964;-0.1050394;-0.01672705;0;
646.2396;0;0;621.3105;23.08813;7.745408;660.3608;656.9867;-0.3648032;-0.1466449;0;
533.9589;0;0;555.594;31.97354;7.670642;550.9394;545.8821;0.02536737;0.04840447;0;
175.6646;0;0;230.8237;34.01849;5.72043;195.3143;193.323;0.09030922;0.1782905;0;
216.6549;0;0;263.7626;25.61156;6.920375;235.1604;237.419;-0.3645529;0.04817668;0;
-51.55305;0;0;18.62064;22.3033;6.042643;-26.19462;-24.75039;-0.2342519;-0.1467738;0;
-618.7161;0;0;-526.0618;33.86881;4.228032;-584.0754;-583.1948;-0.1040819;-0.2115936;0;
-560.311;0;0;-508.4168;36.91624;3.553954;-529.6406;-527.3866;-0.03900994;0.04848836;0;
-226.3531;0;0;-209.9932;21.74125;3.617366;-202.585;-202.3947;-0.2338728;0.1783743;0;
-246.1156;0;0;-229.2099;21.58568;3.881663;-222.4339;-225.5546;-0.2336378;0.1132278;0;
55.66764;0;0;45.38247;15.53577;0.5957214;73.45353;71.39786;-0.1034683;0.04814664;0;
649.6256;0;0;620.1105;11.90284;-1.414365;660.0848;659.9677;-0.3632337;0.1130656;0;
541.9017;0;0;556.5815;27.1625;5.620142;557.5353;555.5443;0.0269353;0.307854;0;
173.2922;0;0;219.0666;27.26893;6.150358;192.3458;191.1064;0.3517449;0.372512;0;
214.1599;0;0;249.8309;43.5185;3.866759;228.9466;231.0817;-0.2333146;0.04730102;0;
-45.79968;0;0;11.51204;50.70844;4.733651;-26.90499;-25.08432;0.09175657;-0.1476485;0;
-616.6542;0;0;-535.9743;33.04135;-3.509762;-590.9069;-588.3385;0.3515337;-0.08253285;0;
-562.2491;0;0;-520.9431;33.14187;-5.381757;-539.5887;-535.3362;-0.1685582;-0.2123846;0;
-225.9779;0;0;-220.4454;19.77933;-4.572555;-206.0889;-205.3389;-0.03845416;-0.2771385;0;
-248.6143;0;0;-240.7761;11.65513;-6.041584;-226.6214;-230.12;-0.2333176;-0.1469254;0;
51.67215;0;0;37.26373;24.77159;-1.547779;68.20826;66.08749;-0.7528219;-0.1467777;0;
645.0095;0;0;613.4366;23.40752;-1.479241;654.5949;653.5383;-0.2323267;-0.1466303;0;
533.8544;0;0;545.1667;19.16347;3.813775;547.928;544.3736;0.09274349;0.0484191;0;
168.2515;0;0;213.7228;19.27891;6.690209;186.059;184.9445;0.09265029;0.2432725;0;
212.7475;0;0;253.6754;13.83356;0.9900593;228.6631;232.0474;0.2874592;0.04812601;0;
-53.08279;0;0;12.66649;12.011;1.859843;-30.87384;-28.49239;0.4171051;0.1780123;0;
-624.7421;0;0;-536.2578;16.01839;-2.093897;-595.4965;-592.8676;0.2217839;0.04789878;0;
-564.7067;0;0;-517.2283;15.19801;-3.900332;-540.1132;-535.238;0.1565937;-0.2769861;0;
-233.9303;0;0;-220.3575;18.93379;0.658304;-212.7972;-211.3003;0.2214037;0.1130963;0;
-255.3093;0;0;-241.0006;20.85715;-0.2801185;-232.5733;-235.0134;-0.1036554;0.17795;0;
53.91689;0;0;40.10036;9.985196;5.949454;71.00787;70.2569;0.0263834;-0.3419675;0;
648.8761;0;0;617.27;7.295846;8.488827;658.6411;659.3901;-0.1035778;-0.4065913;0;
537.6547;0;0;551.9323;11.37435;2.518939;550.5333;549.6574;-0.3633431;0.2434907;0;
166.2384;0;0;216.1711;10.62599;3.721978;182.4149;182.4769;-0.1031086;0.6980174;0;
211.2986;0;0;255.3091;8.941348;-0.9704449;224.8976;227.8331;-0.2329397;-0.08229205;0;
-46.15938;0;0;19.23364;8.061707;-2.17504;-27.26419;-24.58152;-0.4276077;-0.1471767;0;
-615.5768;0;0;-529.1351;9.661198;5.12804;-588.9545;-586.2745;-0.03737396;0.04787322;0;
-554.8634;0;0;-508.9883;9.986282;6.52953;-532.3283;-527.652;0.02763093;-0.08210958;0;
-226.5332;0;0;-210.7514;7.296931;9.738028;-207.0817;-205.0338;-0.2972336;0.1778423;0;
-257.7897;0;0;-236.5266;6.08415;11.40282;-235.3593;-237.9986;0.02790183;-0.2121405;0;
44.00525;0;0;38.69781;9.829082;15.34323;60.85345;58.96642;0.2877432;-0.341862;0;
642.0979;0;0;618.3676;10.9573;17.53825;651.8077;650.9221;-0.1673174;0.3731223;0;
534.319;0;0;553.7159;3.109414;15.17622;549.0166;545.6956;0.09272013;0.1778454;0;
161.157;0;0;215.8915;0.8964624;16.6346;179.8378;178.769;0.482431;-0.2771047;0;
202.849;0;0;256.0918;5.248842;7.374484;217.8254;222.2549;0.3520116;-0.211859;0;
-54.41312;0;0;18.14144;4.976124;3.950945;-34.6417;-30.7164;0.2866905;-0.08171141;0;
-621.6358;0;0;-536.0357;4.770054;11.18101;-595.1376;-591.8409;0.3513698;-0.01666196;0;
-566.6635;0;0;-524.2527;5.434846;10.23201;-544.3149;-538.5853;0.3510168;-0.4064493;0;
-237.8841;0;0;-225.8757;2.548997;11.82932;-217.9317;-214.7066;-0.2990094;-0.3410735;0;
-255.1987;0;0;-236.9556;2.144294;11.68347;-233.5173;-234.5433;-0.4936109;-0.2757635;0;
51.84098;0;0;44.70356;3.884428;11.26983;66.3792;66.0414;0.09159111;-0.6003231;0;
641.1801;0;0;614.1224;3.679454;11.52644;647.8327;647.6826;0.1564664;-0.01501381;0;
533.5272;0;0;551.4116;4.747484;6.022381;544.5458;543.3964;0.2212766;0.309838;0;
170.0485;0;0;224.0842;4.20685;5.413483;185.6163;187.529;0.1560869;-0.4700814;0;
212.6686;0;0;260.778;5.207001;-1.625042;226.5966;232.1931;-0.233874;-0.3396744;0;
-46.47741;0;0;21.13631;4.599533;-5.173383;-27.69086;-22.22497;0.02623034;0.245373;0;
-614.895;0;0;-528.4837;0.7091687;4.945994;-588.631;-583.8578;0.416008;-0.01474296;0;
-558.1179;0;0;-509.8368;-1.367649;6.950512;-534.1917;-529.0484;0.1557207;-0.01472814;0;
-220.414;0;0;-200.8545;-5.854253;6.675597;-200.4474;-197.7456;0.09059685;0.05025401;0;
-248.5533;0;0;-222.2668;-8.460339;10.0849;-226.7327;-227.4069;0.2854078;-0.2746332;0;
40.92608;0;0;39.9498;-11.06381;8.735105;58.35196;58.17818;-0.03971564;-0.4042919;0;
643.8943;0;0;616.6823;-12.39284;9.865038;653.869;654.0077;-0.3645124;-0.3389184;0;
539.1122;0;0;552.7819;-13.85425;18.29485;552.4501;550.7147;-0.2991788;-0.01374111;0;
158.0743;0;0;207.6497;-13.77298;20.88868;174.6471;174.9124;-0.3638456;-0.0137273;0;
205.3916;0;0;249.3575;-8.936372;21.06864;219.0742;223.2123;0.2212261;-0.07868085;0;
-46.18846;0;0;21.97107;-6.047005;21.91825;-26.64752;-23.5131;0.8057098;0.2462349;0;
-612.0451;0;0;-521.4653;-3.897475;22.23114;-584.6528;-582.1462;0.4150963;0.1160528;0;
-556.0204;0;0;-509.2598;-2.755459;22.47673;-532.841;-528.4005;-0.1700269;-0.1439332;0;
-235.4976;0;0;-223.329;13.25587;17.49754;-215.7148;-212.7779;-0.03992138;-0.01385385;0;
-262.6222;0;0;-244.7812;20.9457;16.67616;-240.4855;-241.1747;0.02508608;-0.2087419;0;
46.7363;0;0;39.75933;3.442235;9.827265;63.04124;62.54008;-0.1048738;-0.5333689;0;
641.8901;0;0;616.4919;1.898535;5.999485;650.9324;651.5562;-0.03980109;-0.4028983;0;
533.7992;0;0;554.216;9.197644;16.6435;547.455;546.1416;0.3500429;-0.5324281;0;
175.0054;0;0;228.7599;8.652539;18.03342;192.3956;192.7702;0.4796259;-0.4019585;0;
213.5601;0;0;259.452;10.98837;17.74737;229.2462;233.0562;0.08933993;0.3130862;0;
-55.95663;0;0;12.19049;11.98171;20.00683;-34.22688;-31.67008;0.08925015;0.3777389;0;
-621.616;0;0;-533.1102;8.821836;18.17831;-592.9116;-590.8572;0.3490298;-0.2073467;0;
-565.6443;0;0;-518.8314;8.143386;19.0307;-541.8412;-538.0397;0.1537771;-0.5969424;0;
-233.4926;0;0;-219.6477;12.35476;18.34175;-213.9613;-212.5374;-0.1712141;-0.4014406;0;
-258.6827;0;0;-240.8537;13.48045;16.98378;-237.297;-239.6851;0.02385995;-0.2061352;0;
37.42854;0;0;29.87732;12.93104;23.73175;53.54535;51.78433;0.2837054;-0.3358628;0;
641.0875;0;0;612.2421;14.72671;25.44946;650.0042;648.9321;0.2184529;-0.2705579;0;
538.3696;0;0;552.5941;10.15756;18.32382;550.9006;547.7681;0.4781028;0.05455065;0;
155.0211;0;0;206.525;9.075625;18.23842;172.287;170.2822;0.3476877;-0.01047152;0;
195.4074;0;0;241.6122;16.2338;11.58903;211.4691;213.6517;-0.107433;-0.010461;0;
-47.35448;0;0;18.54395;17.28922;6.821722;-26.99857;-24.25603;-0.04235775;0.3793536;0;
-614.5842;0;0;-528.3873;19.14688;20.47902;-587.6896;-584.8873;0.02265216;0.0541357;0;
-564.9913;0;0;-519.1108;21.33844;21.46319;-540.3101;-536.886;-0.1073053;-0.2707554;0;
-234.7144;0;0;-220.489;17.03009;17.82466;-212.5567;-212.5093;0.08770455;-0.010614;0;
-259.7783;0;0;-239.8826;17.21405;19.8831;-235.4565;-238.9074;0.2175511;0.05436402;0;
48.20305;0;0;42.27925;15.25437;6.533886;66.8158;64.68019;-0.2374389;0.05430939;0;
645.1046;0;0;619.1968;13.09559;3.513089;656.2648;654.6311;-0.562037;-0.2705819;0;
532.8875;0;0;551.9206;15.22589;8.667123;549.0964;544.7783;0.1531685;-0.5301794;0;
169.8467;0;0;224.093;11.12377;7.184911;190.9745;189.0968;0.6727533;-0.009907923;0;
210.3431;0;0;258.7253;16.07007;15.28238;229.2007;232.1351;0.1523386;-0.07486531;0;
-60.85704;0;0;10.09021;12.77139;17.87936;-37.77047;-35.58868;0.1521855;-0.009822742;0;
-625.7619;0;0;-535.0209;8.270578;16.11984;-595.5146;-594.5844;0.411902;0.5748932;0;
-564.2887;0;0;-513.6188;8.59706;17.91218;-537.4452;-534.3919;0.1516187;0.05457683;0;
-239.0724;0;0;-218.8132;-28.45155;16.48754;-216.2538;-214.453;0.08649905;-0.3352821;0;
-268.8796;0;0;-247.1414;-40.94889;16.60494;-243.96;-245.5968;-0.04352255;-0.01010847;0;
32.80158;0;0;26.53193;-29.11875;16.72222;52.38631;51.37585;-0.04347882;0.1848037;0;
640.9629;0;0;615.022;-34.91665;16.57145;652.7194;652.2097;0.1514669;0.3795201;0;
544.3046;0;0;560.1188;-22.22288;15.21514;559.485;557.1018;0.216282;0.3141714;0;
164.6982;0;0;215.5414;-18.18109;14.53003;183.9239;183.1048;0.2810321;-0.3358178;0;
205.5122;0;0;250.0573;-19.77041;15.11827;222.657;224.8372;0.2157823;-0.7902517;0;
-42.44481;0;0;23.10753;-13.32018;14.16532;-20.6945;-18.89132;0.2805329;-0.4646209;0;
-618.7999;0;0;-529.6379;-22.28276;17.76817;-589.7626;-587.8364;0.1503163;-0.07435004;0;
-569.3277;0;0;-520.1102;-20.92022;18.62097;-543.4431;-540.2068;0.02023057;0.05565936;0;
-238.3592;0;0;-222.1746;-15.20577;15.58815;-216.2487;-214.8898;0.1501449;-0.3342006;0;
-264.5439;0;0;-245.7519;-16.53064;16.04136;-240.769;-243.0971;0.08502672;-0.7236689;0;
42.69257;0;0;33.60476;4.78581;10.73372;60.69656;58.18338;0.214876;-0.203203;0;
637.4132;0;0;611.468;11.54615;8.579478;648.2152;645.892;0.6044641;-0.1380315;0;
535.761;0;0;555.0692;-4.004511;14.26429;549.9879;546.0428;0.6688241;-0.3977621;0;
177.6524;0;0;225.8641;-4.536351;14.58487;194.2388;192.6715;0.08344597;-0.3973625;0;
210.0201;0;0;249.4377;-9.08712;13.8334;223.3415;226.086;-0.2414746;-0.5268978;0;
-58.30621;0;0;6.746418;-13.29755;14.15441;-39.62589;-37.69616;0.08360476;-0.2664991;0;
-625.2126;0;0;-536.6747;-8.729836;14.14019;-597.743;-596.8772;0.2784228;-0.201264;0;
-572.1108;0;0;-523.0795;-8.586366;14.12598;-546.9801;-544.2411;0.08324099;-0.3309964;0;
-243.5133;0;0;-228.2644;-18.75914;15.38447;-223.0306;-221.4812;0.01819001;-0.005827121;0;
-267.3191;0;0;-248.5872;-22.02282;16.44073;-246.1073;-248.495;0.2130738;-0.2007233;0;
37.60892;0;0;32.0217;-9.943279;11.60157;53.86438;52.35362;0.1478923;-0.265489;0;
645.7654;0;0;616.3833;-7.522391;10.8531;656.1325;655.4978;-0.04715831;0.1245819;0;
541.2938;0;0;553.9825;-7.313762;12.51664;556.7728;553.2652;0.2777258;-0.07044534;0;
160.2536;0;0;210.5357;-4.224954;11.56643;179.2778;178.0226;0.4073814;-0.2003092;0;
204.0705;0;0;249.2421;-7.435889;17.71699;220.202;223.3834;0.08213536;0.05976142;0;
-49.19488;0;0;19.16967;-7.696837;19.30678;-28.01956;-25.77846;0.01708549;-0.1352007;0;
-626.2303;0;0;-535.8206;-0.7228786;16.9431;-597.3302;-596.778;0.147003;-0.4599015;0;
-573.5023;0;0;-524.5377;1.622372;17.72975;-547.5673;-545.8912;0.01692061;0.1252667;0;
-237.5946;0;0;-223.2867;-6.684653;15.03274;-215.9335;-216.0707;-0.2429658;0.3200428;0;
-264.03;0;0;-246.0508;-8.486598;15.08461;-240.9538;-244.714;-0.0478196;-0.3299522;0;
39.08309;0;0;31.80686;-2.24878;11.11759;56.88872;53.81941;0.2770652;-0.394588;0;
637.1807;0;0;609.7344;-1.10842;8.628047;647.9094;646.0302;-0.242952;-0.1992895;0;
534.2169;0;0;550.0264;-3.852997;15.85341;548.8079;545.5562;-0.3076752;-0.3290239;0;
172.9239;0;0;224.4496;-2.912096;15.90446;191.6232;189.874;0.01747067;-0.458628;0;
205.2338;0;0;252.21;-6.726587;17.22814;222.1028;223.2913;-0.1124816;-0.4581672;0;
-58.71482;0;0;7.954265;-10.13608;18.61735;-37.42756;-36.49007;0.2124682;-0.1328701;0;
-617.7498;0;0;-529.7834;7.289179;11.0968;-589.5499;-588.1136;0.1472873;-0.2626713;0;
-563.531;0;0;-512.4471;11.30132;9.545043;-538.4829;-536.1735;-0.04776269;-0.392342;0;
-237.1286;0;0;-222.2652;-2.709836;7.325015;-215.6039;-215.7955;0.08221999;-0.2620131;0;
-261.8153;0;0;-248.4661;-3.97991;4.236562;-237.751;-240.4412;-0.3076667;-0.3267172;0;
38.92177;0;0;28.7693;-8.329192;7.715296;58.90144;56.65121;-0.2423902;-0.1964542;0;
634.7082;0;0;607.7618;-11.60335;6.568955;647.2964;644.7986;0.2126248;0.1285799;0;
531.8093;0;0;547.9934;-12.06021;5.356662;547.8832;543.5138;0.01750908;0.06348338;0;
161.4608;0;0;211.8615;-15.19592;5.418262;182.0788;179.9002;-0.04747585;-0.001547762;0;
200.7163;0;0;246.5685;-8.951362;0.05430575;218.5649;220.7613;0.08250654;0.1283885;0;
-50.48423;0;0;18.8726;-7.133706;-1.151442;-28.96791;-26.27397;0.08242363;0.5180635;0;
-619.6474;0;0;-530.7451;-15.56663;-0.8823529;-591.0313;-588.2776;0.2772428;0.2576736;0;
-565.6141;0;0;-517.5931;-16.89016;-1.283364;-540.525;-535.7126;0.3419316;-0.3272914;0;
-227.2156;0;0;-211.3517;-9.103658;0.5934477;-205.7748;-203.3411;0.341588;-0.2619952;0;
-260.3455;0;0;-241.1868;-6.683612;1.128715;-236.8024;-238.6189;0.4711795;-0.001862558;0;
32.1442;0;0;26.1713;-10.62804;4.141691;50.54124;49.60107;0.3407713;0.128074;0;
639.5566;0;0;610.6012;-9.612979;5.343222;650.6888;649.6871;0.1455269;0.06297798;0;
541.9626;0;0;551.3297;-8.1968;7.883082;555.4575;552.4578;0.08041336;-0.1319873;0;
171.8539;0;0;215.5067;-8.121215;9.884649;188.1462;188.4604;0.1452999;-0.3267567;0;
210.7241;0;0;250.7723;-2.152184;4.784136;225.2509;229.9376;0.2750886;0.128343;0;
-50.54396;0;0;13.45203;-0.9445724;3.64062;-29.6599;-26.10239;0.07991014;0.5180181;0;
-617.2083;0;0;-533.0368;-0.8762743;6.986108;-588.7866;-586.482;0.2097645;0.3225955;0;
-559.117;0;0;-514.9475;-0.2721815;7.648796;-535.2216;-531.8573;0.4044558;0.1273694;0;
-228.5961;0;0;-213.3939;-4.558815;4.024154;-209.2224;-207.8605;0.14418;-0.32753;0;
-257.2269;0;0;-236.6677;-5.693311;4.087093;-235.6862;-238.4487;0.01410047;-0.4571356;0;
39.81991;0;0;33.7468;-8.634351;2.676345;56.96613;55.01854;0.0140863;-0.1968069;0;
635.9802;0;0;608.549;-9.764751;0.5303239;645.613;645.2291;0.1440068;0.06326024;0;
540.3264;0;0;554.277;-12.23319;12.3854;553.0729;550.8154;0.07889479;0.7778375;0;
182.0258;0;0;229.6329;-13.02518;14.85133;198.5077;197.7516;-0.2460212;0.5821539;0;
218.0747;0;0;260.574;-8.791554;8.540132;232.2911;235.2839;-0.440676;-0.3279739;0;
-49.94728;0;0;14.1859;-7.912065;8.196635;-30.68522;-28.13271;-0.3752659;-0.1327423;0;
-624.6082;0;0;-538.613;0.8034225;6.513948;-597.4944;-595.3193;0.1448499;-0.132609;0;
-567.5715;0;0;-520.3307;5.826457;6.306454;-544.1706;-540.3735;0.2746391;-0.2624104;0;
-229.4208;0;0;-216.5228;1.332624;-0.4650369;-210.2289;-208.9343;0.4042978;0.3225594;0;
-259.4251;0;0;-242.2922;2.737805;-2.139143;-237.4414;-239.6463;0.4688589;0.5171373;0;
31.75182;0;0;26.37883;7.758896;-1.132249;49.65302;48.07495;0.01361638;0.386683;0;
633.4799;0;0;607.4977;9.09027;-2.336805;644.0543;641.6658;-0.05136464;-0.003509629;0;
543.076;0;0;557.2247;6.736611;9.387313;557.3254;552.0657;0.07862166;-0.2633755;0;
172.2165;0;0;219.147;5.25695;13.66467;189.7624;187.6314;-0.4411961;-0.1331761;0;
204.2148;0;0;245.6634;7.930985;12.51223;219.3068;222.4877;-0.5057201;-0.457879;0;
-50.4875;0;0;14.40764;7.387153;15.51389;-30.28822;-28.17242;0.01452678;-0.4574189;0;
-616.7771;0;0;-531.7698;0.07871242;14.6945;-589.5392;-589.362;0.1444469;-0.19709;0;
-562.4968;0;0;-518.8042;-2.466962;14.74672;-538.4097;-536.796;-0.0506003;-0.3268266;0;
-230.1609;0;0;-219.4332;-5.21115;18.41584;-209.6587;-209.9206;-0.1804841;-0.06662886;0;
-255.1045;0;0;-242.5134;-7.750533;18.86622;-233.6234;-237.6331;0.01459923;0.1933075;0;
42.93967;0;0;29.71851;-6.939438;13.89065;58.90197;56.14559;0.1445193;-0.001788803;0;
636.723;0;0;605.2119;-7.60205;12.47005;645.7353;644.1686;-0.440332;-0.001787006;0;
538.3824;0;0;552.8173;-8.263997;10.98401;551.3211;548.1942;-0.4398896;-0.1317199;0;
176.2731;0;0;225.6135;-9.261047;10.23617;192.6971;191.7598;0.3401605;-0.0666202;0;
209.8915;0;0;252.4357;-2.151795;8.283375;224.3;227.9238;0.209884;0.4531855;0;
-50.18874;0;0;14.36409;0.6643823;7.739188;-29.86025;-26.61486;0.3396078;0.3877628;0;
-612.668;0;0;-528.8773;-7.240515;12.15216;-584.8013;-583.4332;0.5341686;0.1275038;0;
-563.8892;0;0;-518.2885;-7.769104;13.54659;-539.861;-536.9326;-0.1160415;-0.06752636;0;
-235.8622;0;0;-219.9798;-4.278673;17.08296;-216.106;-214.8672;-0.2458596;-0.002491171;0;
-261.6746;0;0;-241.4354;-3.067949;18.74036;-240.1266;-242.6997;-0.1806452;-0.06745601;0;
33.25275;0;0;26.04787;-7.753915;23.54418;50.28128;48.77281;-0.2454311;-0.3922249;0;
640.9139;0;0;607.6668;-9.421063;26.60174;650.6165;649.6718;-0.3101518;-0.3918308;0;
547.629;0;0;557.5186;-0.2345692;18.0683;560.7576;556.8777;-0.6996442;-0.1315677;0;
172.517;0;0;218.9409;0.9711153;16.10776;189.5054;187.3162;-0.6339738;0.1934012;0;
212.5109;0;0;252.7038;3.247315;18.43586;226.4214;229.1069;-0.3085001;0.2581742;0;
-46.19767;0;0;19.44198;6.861374;16.94371;-28.17828;-24.74586;0.0816139;-0.00195461;0;
-624.673;0;0;-535.3612;-2.924784;16.05603;-598.6757;-595.7465;0.3414012;-0.1968547;0;
-566.7616;0;0;-518.3315;-2.788123;15.90593;-543.5391;-539.176;-0.1137132;-0.2616242;0;
-229.9861;0;0;-215.9;-2.38318;9.794621;-210.0353;-207.3632;-0.2435336;0.06347539;0;
-259.3651;0;0;-241.2952;-3.385163;7.373394;-236.998;-238.8889;0.01658047;0.323281;0;
45.05512;0;0;37.61971;8.540956;13.93019;61.40271;60.32583;0.08153115;0.1930215;0;
642.522;0;0;613.1051;11.41179;14.45206;650.9197;651.3431;0.2763512;0.1928275;0;
537.9286;0;0;549.6456;14.48178;12.82995;550.066;548.9273;0.08117155;0.2576011;0;
181.5045;0;0;226.3181;17.48134;12.08024;197.1279;197.8644;-0.113812;0.1923749;0;
217.8038;0;0;257.2625;15.52139;14.41251;230.9127;235.0843;-0.04873034;0.257149;0;
-52.59174;0;0;9.378511;16.109;14.53199;-34.8733;-31.33064;0.3411227;0.2568906;0;
-616.1306;0;0;-532.9833;14.48523;9.02491;-590.8713;-587.6445;0.6006493;-0.198139;0;
-561.7261;0;0;-518.8296;15.00654;7.877131;-540.3027;-534.5804;0.08030701;-0.2629072;0;
-232.3269;0;0;-221.8948;4.810052;1.572943;-215.6102;-212.2675;-0.04970836;0.06219369;0;
-253.895;0;0;-237.6013;0.9868262;-1.375765;-234.6964;-236.4794;0.08027627;-0.0678035;0;
41.96152;0;0;32.43933;8.354201;1.170969;56.5182;55.17419;0.01522826;-0.002768031;0;
641.3055;0;0;610.2413;6.336075;0.3659974;648.4763;647.3211;0.210115;0.3220715;0;
546.3336;0;0;557.5917;19.7263;4.853364;556.9954;553.8423;0.4048059;0.4516825;0;
173.7217;0;0;219.1388;26.27056;7.393717;186.8715;186.845;0.2744645;0.2563266;0;
209.8414;0;0;251.8396;7.221496;4.506144;220.979;225.4503;0.07928665;-0.06876762;0;
-40.68117;0;0;23.32628;5.5393;5.104462;-23.8701;-19.71566;-0.115695;0.1911709;0;
-610.6038;0;0;-526.6707;13.30424;10.72578;-587.1255;-584.0997;0.01435589;0.4508481;0;
-558.4537;0;0;-515.0221;13.22353;11.65264;-538.4347;-534.0376;0.2742108;0.3204604;0;
-219.0004;0;0;-209.283;16.22435;13.98533;-202.6247;-199.6063;0.3389027;0.3201384;0;
-253.0131;0;0;-235.8093;17.01233;15.44491;-234.4675;-236.2623;0.1436601;0.05994739;0;
37.7201;0;0;31.60585;18.73655;8.262334;51.43699;49.51912;-0.181321;-0.1350149;0;
641.5662;0;0;612.0323;19.65573;6.713425;648.2728;647.3563;0.01376325;0.1249902;0;
546.0942;0;0;555.3206;18.4969;1.88403;556.7921;553.8151;0.1436841;0.4497013;0;
179.7918;0;0;220.8054;19.21525;-2.940512;194.2271;193.377;-0.3112317;0.6441514;0;
209.0963;0;0;245.9458;12.36344;4.095528;221.3931;224.7293;-0.3758863;0.3186675;0;
-50.10859;0;0;8.817749;9.872768;3.287618;-33.26394;-30.74319;-0.1806066;-0.07145678;0;
-607.653;0;0;-528.546;13.48017;0.002272867;-583.8912;-582.0602;-0.05049041;-0.1363523;0;
-553.7567;0;0;-512.3353;12.59597;0.9400316;-533.517;-530.1261;-0.115407;-0.006280624;0;
-230.1127;0;0;-218.5929;13.85611;-7.768572;-213.0793;-212.3154;-0.05032371;0.05869304;0;
-261.4281;0;0;-243.6106;14.71284;-8.430595;-241.3508;-244.3984;0.2745636;-0.33117;0;
42.05719;0;0;32.68295;10.41115;-8.55609;56.49208;54.13478;0.144353;-0.3958046;0;
648.71;0;0;615.0449;8.793101;-10.22194;654.1349;653.5291;-0.1806288;-0.07057016;0;
551.9814;0;0;561.516;12.93648;4.993086;561.3364;558.9196;-0.1804473;-0.2004339;0;
179.2389;0;0;227.182;11.65166;8.805974;193.5195;192.417;0.07960342;0.1895715;0;
211.6674;0;0;254.8147;14.25192;10.67265;223.4974;226.9562;0.1444908;0.3193157;0;
-43.66705;0;0;17.92765;15.97891;14.6138;-27.28876;-24.77047;-0.1804911;-0.3956459;0;
-617.0849;0;0;-536.1868;-0.3131464;8.637753;-593.4142;-592.2728;-0.05037508;-0.330281;0;
-568.4265;0;0;-528.2768;-4.868159;9.030971;-548.5278;-545.4509;0.07961022;-0.2000145;0;
-228.8383;0;0;-221.4624;0.02685245;3.194503;-212.7076;-211.2581;0.01456289;-0.1348461;0;
-257.6562;0;0;-241.6047;-1.849185;-0.4256631;-239.2305;-241.9677;0.2094503;0.1251587;0;
36.33002;0;0;30.81379;-0.3061091;4.330431;49.61486;47.25513;-0.3104989;-0.06986906;0;
641.6143;0;0;612.9277;-0.3731505;2.718489;647.3895;646.4689;-0.2452196;-0.1997335;0;
545.0178;0;0;552.9667;1.101093;3.92145;554.9727;552.7411;0.5346349;-0.06959817;0;
180.2157;0;0;219.3909;1.702223;4.989237;193.7838;193.7409;0.07932632;0.5151778;0;
215.7667;0;0;250.5922;2.170003;-3.656452;227.0722;231.1523;-0.2455901;0.3847255;0;
-51.44091;0;0;5.963242;3.038479;-6.800854;-34.71197;-31.32311;0.1444607;-0.07043246;0;
-620.853;0;0;-543.8289;-0.9840383;1.578602;-598.2688;-594.6335;0.07934824;-0.005394348;0;
-564.0074;0;0;-527.0406;-1.585286;1.91193;-545.6938;-539.8132;0.01430116;0.05957843;0;
-231.8573;0;0;-224.288;-3.526076;-1.439015;-216.748;-212.9349;0.07925414;0.1894532;0;
-256.4869;0;0;-240.6168;-4.862679;-1.303604;-239.0814;-239.3325;0.2091092;0.4491322;0;
44.74455;0;0;35.17399;-1.776335;-7.732533;57.8222;57.82121;0.07896438;0.1888116;0;
639.9004;0;0;608.6628;-1.171337;-10.06904;645.4687;646.0924;-0.1809843;-0.3311169;0;
543.618;0;0;553.2039;1.776601;-8.250509;551.7419;550.6783;0.01409955;-0.2008495;0;
181.5035;0;0;225.1251;5.057345;-9.514773;194.2419;194.991;0.1440201;0.2541237;0;
213.3675;0;0;254.509;2.975183;-7.227915;224.9063;229.1528;0.07890802;0.3188357;0;
-47.52832;0;0;15.68571;5.384067;-6.148925;-31.31606;-27.13623;0.5336001;0.1885807;0;
-621.692;0;0;-539.3636;7.52211;-8.219218;-597.3126;-594.1989;0.727966;-0.006510842;0;
-566.8445;0;0;-525.4533;7.580925;-6.737335;-545.6131;-542.0652;0.3374305;-0.136439;0;
-218.6372;0;0;-210.5834;20.76882;-9.342777;-203.0493;-200.6919;0.1421894;0.05860015;0;
-248.9646;0;0;-235.6091;23.89579;-10.13719;-232.0181;-232.9115;0.07707918;-0.3312628;0;
36.95443;0;0;23.93483;22.59898;-0.4817006;48.38673;47.80658;-0.3128023;-0.3309299;0;
638.9272;0;0;602.9947;25.25559;1.528149;641.8523;642.4596;-0.4424227;0.6439127;0;
540.8342;0;0;548.1661;11.6999;2.665324;548.3165;547.2991;-0.1821088;0.3833964;0;
175.9114;0;0;217.0314;8.406593;5.007048;187.8215;189.1789;-0.1169585;-0.006792958;0;
217.3387;0;0;254.1696;7.52749;-1.495205;226.8631;232.2171;0.01309374;0.5129526;0;
-48.55861;0;0;12.16071;3.36674;-2.900345;-33.85895;-29.5723;-0.05188675;0.1876005;0;
-614.3504;0;0;-535.7011;9.124134;-1.892686;-592.9814;-589.6985;-0.116802;-0.1374247;0;
-552.5764;0;0;-514.4233;7.507375;-3.230443;-535.0394;-530.3231;-0.05171726;-0.007351966;0;
-223.5612;0;0;-217.4929;13.12591;-4.097853;-209.1028;-206.7026;-0.05166529;0.05762278;0;
-247.0746;0;0;-236.8895;15.79204;-5.366411;-230.4444;-232.2319;-0.1165807;0.1874996;0;
49.08739;0;0;36.46127;4.590387;-4.088344;60.32864;59.23003;-0.05149623;-0.1375256;0;
638.6792;0;0;607.9498;3.715118;-3.816304;642.6003;642.4398;0.07849019;-0.3972567;0;
543.0851;0;0;557.1142;-0.03965871;-6.625752;550.8754;549.0909;-0.2464254;-0.2019556;0;
177.7853;0;0;223.3469;-2.920007;-7.154958;188.7536;189.4072;-0.3761125;-0.26672;0;
209.3407;0;0;245.4863;3.714359;-4.066554;217.9867;222.6376;-0.1808325;-0.3963867;0;
-46.61608;0;0;13.10628;4.04542;-2.722931;-32.48157;-27.46053;0.1441859;-0.331021;0;
-611.5977;0;0;-530.1339;4.912011;-3.323042;-590.356;-585.34;0.338943;-0.2007537;0;
-556.6355;0;0;-514.6711;6.046151;-1.377198;-539.0383;-533.4651;-0.2461036;0.05931738;0;
-216.3719;0;0;-206.3088;5.16942;-3.586251;-202.603;-199.5342;-0.570693;0.4490618;0;
-246.5768;0;0;-231.1514;5.230598;-4.185371;-230.3854;-231.0053;0.01458648;0.6435126;0;
39.27745;0;0;29.32508;6.498141;5.531115;50.95482;50.21061;-0.3752322;0.1880946;0;
639.6237;0;0;605.2561;7.295895;7.46794;643.4808;643.2371;-0.5047899;-0.006996404;0;
544.7159;0;0;554.0484;1.259368;8.063283;552.0048;550.5745;0.4052601;0.3828147;0;
174.0421;0;0;219.9093;-0.3485121;9.997686;185.1343;185.8293;0.4698203;0.05759333;0;
211.161;0;0;249.236;0.8572868;4.830077;219.5559;224.623;0.3394135;-0.3322686;0;
-48.35836;0;0;15.47797;-0.7511649;4.75824;-35.3492;-30.09978;0.6639091;0.187804;0;
-622.4587;0;0;-532.9494;4.005012;-0.06918981;-602.2162;-597.5967;0.3384054;0.512452;0;
-561.8633;0;0;-515.36;4.805271;-2.279557;-545.7642;-539.4003;-0.1816734;0.2520677;0;
-222.9064;0;0;-214.0558;3.259225;0.8039483;-210.3216;-206.3379;-0.3763929;0.05691243;0;
-252.1051;0;0;-242.0141;4.327677;-0.8044499;-236.4096;-236.8027;0.01378937;-0.3329488;0;
47.43525;0;0;32.84105;0.03642102;7.635964;57.61779;58.16214;0.4035796;-0.657451;0;
638.8403;0;0;603.5212;-0.2310593;10.17364;641.2665;642.6849;0.3382067;-0.3319537;0;
532.564;0;0;536.6981;0.3714092;4.938873;538.9857;538.3412;0.2728995;-0.006783411;0;
174.9583;0;0;213.7583;0.438385;5.871672;184.622;185.9147;0.2726253;-0.1367113;0;
213.2007;0;0;249.2131;4.322711;1.043123;220.1685;224.9581;0.3373187;-0.2015412;0;
-52.69245;0;0;4.960341;5.792236;-0.9004303;-40.98403;-36.63653;0.1420778;-0.07140406;0;
-617.0433;0;0;-539.2086;11.21142;2.717431;-598.1628;-594.132;-0.2478691;0.05860239;0;
-564.5743;0;0;-526.2356;15.21962;2.580734;-549.0861;-543.9349;-0.1826527;-0.006423854;0;
-233.9855;0;0;-229.2308;11.25221;0.09989486;-222.8231;-219.6761;-0.1824691;-0.07138474;0;
-256.4265;0;0;-246.4917;12.04422;-1.239864;-244.0259;-243.8806;-0.2472531;-0.2012477;0;
37.30869;0;0;23.68279;16.85488;4.186877;44.82421;45.46915;0.01286469;-0.2660128;0;
635.7204;0;0;600.619;17.10637;5.589312;636.3568;637.0011;0.07781911;0.05909119;0;
533.9449;0;0;541.1076;20.84022;-0.2436975;538.6412;536.911;0.01277357;0.2539338;0;
164.8437;0;0;205.6697;21.89101;-1.181214;173.2833;173.9287;0.07772808;0.1887113;0;
217.1517;0;0;253.2515;13.22785;-0.8451121;223.4589;227.7893;-0.05228471;-0.136315;0;
-35.18977;0;0;22.92522;9.329792;-2.183922;-23.70399;-20.8772;0.01273517;-0.2011454;0;
-611.4897;0;0;-536.5042;13.4736;-0.8420686;-593.7686;-590.6948;0.1426571;0.1888608;0;
-561.4001;0;0;-526.9695;12.9242;-0.9751883;-547.5699;-541.938;0.4673504;0.2536384;0;
-227.4411;0;0;-224.5293;-0.08322971;-3.51956;-216.3109;-213.3083;0.6617829;0.0584815;0;
-253.6993;0;0;-246.7924;-4.236332;-3.44904;-239.6443;-241.0799;0.2713138;0.1883574;0;
42.53185;0;0;24.38189;-1.9549;-6.660634;51.07552;50.57832;-0.1187628;0.4480375;0;
640.7509;0;0;602.067;-4.363833;-7.926617;641.4149;641.7928;-0.2485782;0.2526853;0;
542.5311;0;0;546.3022;-0.3409601;-2.292208;546.7552;545.3211;-0.3132958;-0.07240532;0;
182.1044;0;0;220.0421;-0.1395467;-1.151195;190.3222;191.2009;-0.3129809;-0.007365218;0;
224.0252;0;0;257.9268;-0.8089917;0.993416;230.8605;235.2365;-0.2476991;0.3174789;0;
-40.19218;0;0;17.16353;-1.21032;4.073511;-27.99148;-25.18157;0.07738648;0.2521926;0;
-610.4276;0;0;-532.9522;-0.1373774;-1.757976;-591.1802;-590.622;0.7269821;0.1220045;0;
-559.2147;0;0;-520.86;0.5996948;-2.292073;-543.8597;-542.0527;0.2065129;0.1868492;0;
-230.9425;0;0;-222.7362;-6.902996;5.681077;-219.2262;-217.7957;-0.5733027;-0.3980446;0;
-250.8878;0;0;-237.9422;-7.029782;7.282837;-236.8094;-238.3165;-0.05298788;-0.26771;0;
48.58884;0;0;34.2852;-14.05532;7.610434;57.59317;55.65034;0.07700004;0.3172651;0;
645.9272;0;0;607.4626;-16.92158;8.674514;647.4263;645.0482;-0.247914;0.251979;0;
548.4519;0;0;550.3806;-5.116559;9.670542;552.6981;548.8855;0.2071065;0.1217911;0;
176.7748;0;0;214.871;-3.838619;11.67019;184.0777;183.8297;0.07696368;-0.07323331;0;
219.3882;0;0;253.7604;3.667326;4.022655;224.8097;228.6848;-0.572787;-0.07315972;0;
-32.14341;0;0;25.68245;7.347336;2.009125;-21.23017;-18.54579;-0.3123422;-0.07308621;0;
-607.8842;0;0;-526.8781;6.938788;9.643038;-588.7985;-587.8035;-0.247061;0.05692193;0;
-561.7963;0;0;-521.5386;10.0123;10.37016;-546.4154;-543.6098;-0.7665515;-0.008102627;0;
-228.2741;0;0;-222.2273;2.433777;11.69928;-217.344;-215.041;-0.1161078;-0.2679639;0;
-255.2186;0;0;-243.3058;3.034544;12.9602;-241.4884;-242.6859;0.2738129;0.1870768;0;
38.3904;0;0;25.55368;-6.279255;12.0764;46.79699;46.41278;-0.246201;0.7066275;0;
643.2977;0;0;608.4225;-11.49786;12.13125;643.8873;644.0032;-0.1160189;0.3161135;0;
549.0734;0;0;557.7114;7.671058;12.58794;553.348;550.8401;0.3388691;-0.2039429;0;
179.0824;0;0;223.1938;10.20797;12.70925;185.9139;185.9698;0.2085939;-0.2687053;0;
216.8833;0;0;254.9535;11.53786;10.7541;220.8345;225.0757;-0.1814198;0.05640141;0;
-44.32839;0;0;15.62997;16.21434;10.94424;-34.63412;-31.33422;-0.2462048;-0.1385573;0;
-611.936;0;0;-530.6111;5.280683;5.842666;-595.6298;-592.5831;0.07887929;-0.4632548;0;
-558.91;0;0;-518.3964;3.265645;3.42541;-546.4932;-541.5131;-0.05113465;-0.2029199;0;
-230.8255;0;0;-226.8968;7.884064;10.72299;-221.7945;-217.9438;-0.37592;-0.202716;0;
-251.0833;0;0;-243.8476;4.995753;10.64523;-240.5621;-239.5264;-0.1806402;-0.137545;0;
47.08176;0;0;32.19625;11.15365;12.57691;52.53238;53.12985;0.144378;0.2523973;0;
642.1728;0;0;606.9375;12.68269;13.30109;640.0593;640.8435;0.07926557;0.2521437;0;
545.8256;0;0;553.4792;-1.061437;8.33111;547.025;546.8715;0.1441533;0.3168576;0;
175.2132;0;0;217.9664;-2.132097;7.317995;180.4719;182.3175;0.2089758;0.1866046;0;
214.0176;0;0;247.9822;-9.229902;2.220061;216.9596;222.7389;0.1437984;-0.203387;0;
-38.75803;0;0;14.66269;-13.10539;-0.05946785;-31.44615;-24.92306;-0.2461501;-0.26815;0;
-614.6796;0;0;-539.0737;-1.102158;-4.614125;-600.1912;-594.3618;-0.7656415;-0.3328479;0;
-567.4604;0;0;-530.7234;-1.43682;-8.762431;-556.0475;-549.9741;-0.6349375;-0.1376114;0;
-226.6237;0;0;-224.7188;12.6308;-1.25166;-218.8455;-215.5892;-0.2444955;0.3172983;0;
-250.3839;0;0;-245.8572;18.98209;-1.384368;-240.9893;-241.547;-0.3741845;0.1870448;0;
40.22169;0;0;21.06828;4.829499;-1.44996;43.17261;44.61452;-0.1789065;-0.07301255;0;
645.3771;0;0;604.1915;4.757297;0.4270189;640.9537;643.6436;0.341012;0.05699551;0;
547.5899;0;0;546.613;-0.8735612;-6.271582;548.9182;548.6068;0.2107347;-0.00802912;0;
170.354;0;0;207.2341;-5.427035;-5.59545;176.2411;177.6792;0.1455556;-0.1379557;0;
216.6595;0;0;250.7539;0.07077475;-8.738026;218.98;225.1642;-0.04949266;-0.2027845;0;
-34.05727;0;0;22.42909;-1.470514;-10.13577;-26.86659;-20.81351;-0.1793776;-0.3974827;0;
-607.9221;0;0;-530.1282;-4.483146;2.332878;-592.8676;-587.6327;0.275574;-0.332116;0;
-557.1489;0;0;-519.6006;-5.014505;6.014596;-545.6703;-539.6285;0.08039509;-0.2668149;0;
-225.1307;0;0;-222.0403;-7.286642;5.941569;-217.0994;-213.6874;-0.3744571;-0.2015795;0;
-246.831;0;0;-241.9321;-7.480391;8.011948;-236.8087;-237.3981;-0.04924412;0.3833291;0;
53.57864;0;0;33.9225;-7.405526;12.75956;58.28102;57.94205;-0.04919464;0.7077807;0;
646.6017;0;0;606.7255;-7.800226;14.82321;643.8656;644.0267;-0.4389493;0.3172655;0;
542.504;0;0;543.1475;-1.764169;10.11964;543.7061;541.993;-0.3735408;-0.007890068;0;
177.3297;0;0;213.2673;0.1136139;8.970757;183.1533;183.8157;-0.2432308;-0.07284948;0;
222.5037;0;0;255.9689;0.7830851;5.61272;226.3849;231.1696;-0.1130518;-0.00780894;0;
-33.154;0;0;23.01617;3.595337;2.726814;-24.90385;-21.81061;0.2768659;0.05716626;0;
-608.7064;0;0;-532.2278;-5.718049;0.8486737;-593.468;-590.9401;0.2765877;0.2520109;0;
-559.2443;0;0;-525.0714;-9.329625;-1.831496;-547.2697;-542.183;0.08140776;0.1867903;0;
-218.4784;0;0;-220.3217;4.678572;-2.499485;-210.1389;-208.3058;0.3411953;-0.1382341;0;
-247.3692;0;0;-243.7135;6.817325;-4.104442;-237.1016;-240.0804;0.2109178;-0.1380952;0;
36.04951;0;0;16.58818;-1.695992;-4.100318;42.1214;40.02014;-0.1790982;0.05694557;0;
641.7089;0;0;600.7154;-1.694288;-4.230164;641.5902;640.6155;0.01598381;0.1218557;0;
549.7974;0;0;551.6362;-4.439252;-4.694794;552.9897;550.5168;-0.1789343;-0.008201447;0;
175.7452;0;0;213.3766;-4.769584;-3.685455;182.4326;182.4608;-0.3086892;-0.07316055;0;
219.7339;0;0;253.8293;-7.845274;-5.758101;224.728;229.2539;0.1463924;0.121815;0;
-36.79552;0;0;22.00312;-11.05257;-5.752315;-26.18435;-22.78738;0.01631062;0.1216926;0;
-611.0948;0;0;-530.3663;5.301881;-0.05310742;-593.3729;-590.4791;-0.1786078;0.05660298;0;
-560.1312;0;0;-520.0259;8.511735;2.224244;-546.9872;-541.1603;-0.2433957;0.1864808;0;
-233.6696;0;0;-227.775;3.746784;1.753128;-223.9122;-220.6524;-0.1781838;0.2512608;0;
-252.925;0;0;-244.1003;5.886473;2.823094;-240.3039;-241.4826;-0.04807004;0.05610627;0;
49.11491;0;0;32.56854;-4.568291;5.700523;55.9138;56.17308;-0.2429238;0.1210172;0;
640.9556;0;0;603.6862;-7.979953;6.632434;639.8141;641.7598;-0.307647;-0.07400641;0;
544.1099;0;0;548.9194;-4.087168;7.697497;546.5303;547.412;0.08246616;-0.4637361;0;
179.5586;0;0;219.5331;-5.890747;8.895455;186.037;188.9169;0.01741595;-0.2034008;0;
220.6699;0;0;256.9186;-5.348964;2.925158;225.7675;231.8304;-0.2424709;0.1866077;0;
-32.29976;0;0;24.90195;-5.277216;1.046818;-23.58409;-17.27744;-0.1772599;0.3813222;0;
-604.6671;0;0;-527.4705;-5.606707;1.246593;-589.7758;-583.6629;-0.04714714;0.186037;0;
-557.8952;0;0;-520.3812;-3.457619;-1.902735;-545.3302;-538.9736;0.01786757;-0.009051952;0;
-214.3195;0;0;-213.8247;-8.410638;7.208612;-205.3904;-202.1635;0.2127516;-0.0740102;0;
-237.5924;0;0;-233.5373;-8.93805;10.08163;-226.4858;-227.2602;0.08260319;-0.1389032;0;
43.6301;0;0;25.94204;-0.02046133;-4.32946;50.35276;50.70356;-0.2423165;-0.2686983;0;
650.7186;0;0;609.7475;0.3143519;-5.865717;649.8758;651.6005;-0.1771057;-0.1384936;0;
555.4872;0;0;555.9741;10.02595;-7.534397;558.2061;556.8681;-0.04699306;0.4463516;0;
172.9336;0;0;209.5892;13.83427;-11.61266;179.2104;179.4355;-0.3717825;0.7057725;0;
216.1755;0;0;245.7978;3.437893;2.331089;220.1346;225.7318;-0.5013437;0.3802266;0;
-34.97804;0;0;17.54047;2.898575;3.735389;-25.71309;-20.68373;-0.1760032;0.2499099;0;
-602.72;0;0;-526.8286;-4.070562;2.124045;-585.5933;-582.7554;-0.04589167;0.2496588;0;
-549.0161;0;0;-512.2437;-7.080582;4.667263;-534.7177;-531.3829;0.08408912;0.3793426;0;
-222.066;0;0;-217.2521;-8.345289;-9.604425;-212.0298;-210.1976;-0.1108974;0.5088961;0;
-243.7069;0;0;-236.0242;-10.81515;-12.87694;-233.0561;-234.1618;-0.110786;0.05361339;0;
58.69864;0;0;41.38612;-4.106478;-11.79227;63.90393;63.67393;0.2791294;-0.2063099;0;
646.7815;0;0;609.9337;-2.829554;-14.79453;644.173;645.6299;0.08394691;-0.01120053;0;
543.6207;0;0;547.4769;3.201509;-7.746705;543.8883;544.4067;-0.1110395;0.05377808;0;
185.3792;0;0;225.8382;7.953714;-6.265296;189.7071;191.7867;-0.2408626;-0.01124331;0;
226.0474;0;0;262.7802;3.1903;-7.464694;228.3095;233.9477;-0.5004899;0.18367;0;
-33.86168;0;0;20.32533;3.924029;-5.313739;-27.16665;-22.15879;0.2796211;0.1834855;0;
-602.3544;0;0;-530.5432;8.474437;-7.719786;-588.9819;-584.7912;0.7341115;0.3132358;0;
-554.0231;0;0;-522.7013;7.997407;-8.314876;-543.4127;-538.2267;0.2136351;0.118019;0;
-220.8836;0;0;-221.1399;11.74042;-0.9385198;-212.3454;-210.163;-0.3063183;-0.336871;0;
-245.1494;0;0;-240.4704;12.733;0.268116;-234.4333;-235.8763;-0.1760758;-0.07666311;0;
44.38905;0;0;22.26432;2.337726;-0.06706804;49.59714;49.46737;-0.04596419;-0.01161874;0;
651.4143;0;0;607.3229;-0.209242;1.942365;649.3708;649.491;-0.4357221;-0.2714764;0;
559.9929;0;0;560.0486;-3.960076;-9.513302;561.887;559.196;-0.3053496;-0.141269;0;
180.4332;0;0;217.3453;-7.238626;-13.25479;186.3234;185.6341;0.08476131;-0.01119234;0;
223.9799;0;0;255.795;-4.685758;-5.538553;228.5523;232.3615;-0.3051279;0.1187536;0;
-23.68326;0;0;31.02582;-5.685427;-6.604715;-13.61821;-9.250664;-0.434756;0.1186343;0;
-600.0573;0;0;-523.9139;-3.268817;-4.856523;-583.3806;-579.7047;0.1503869;0.05354774;0;
-552.4155;0;0;-516.6409;-2.66232;-3.980864;-540.0659;-535.1442;0.3451378;0.2483959;0;
-217.9032;0;0;-214.1486;0.6219086;-10.47409;-209.6266;-206.2091;0.149889;0.183179;0;
-243.9211;0;0;-235.7349;3.033157;-12.54003;-232.7792;-234.1128;0.1497384;-0.01190707;0;
49.11433;0;0;32.86705;-4.740398;-9.111303;55.68481;54.10272;-0.04531407;0.05307225;0;
650.3877;0;0;612.7925;-7.347604;-8.901321;648.8307;648.687;-0.4350726;-0.01194844;0;
555.6565;0;0;557.4543;1.367316;-12.77727;557.5368;555.5816;-0.1097987;-0.5966425;0;
185.5964;0;0;219.3763;3.040882;-12.22856;191.9101;191.706;0.02024629;-0.8559123;0;
226.2644;0;0;252.639;-5.469616;-17.44082;230.3853;234.7416;0.02022595;-0.2053789;0;
-30.1467;0;0;19.0025;-4.793559;-19.63361;-21.21983;-16.93034;0.08517297;0.3145662;0;
-601.2043;0;0;-528.7413;-11.75497;-6.552579;-585.5399;-581.692;-0.0448473;0.1193481;0;
-548.9387;0;0;-515.6538;-15.09206;-3.531885;-537.4129;-532.382;-0.1097696;0.1841955;0;
-218.8028;0;0;-218.5348;2.203483;-0.9160021;-210.8493;-208.7594;-0.434496;0.3139451;0;
-245.3195;0;0;-240.4915;5.551147;5.046278;-234.9377;-236.9729;-0.4990267;-0.07617441;0;
50.15358;0;0;29.67693;6.081433;-8.020221;55.09022;53.55684;-0.3036233;-0.9206733;0;
652.7378;0;0;608.5436;9.356875;-10.49041;649.5485;648.7039;-0.3682856;-0.5299441;0;
561.4399;0;0;559.394;5.86485;7.538053;562.7516;559.4091;0.1518232;0.3151638;0;
187.2511;0;0;222.3136;6.193749;10.61169;192.8094;191.2193;0.41154;0.1199451;0;
223.9819;0;0;255.0112;3.239789;8.122663;226.5986;229.5078;0.08628982;-0.07507747;0;
-28.36642;0;0;26.18236;1.227777;9.990023;-21.12973;-18.53576;0.02123577;-0.0100347;0;
-607.047;0;0;-531.5636;0.3558876;7.166701;-592.8211;-590.4796;0.2161165;-0.07499196;0;
-561.5222;0;0;-526.8441;-2.190065;7.360449;-550.309;-545.7835;0.02099728;-0.2048513;0;
-220.6915;0;0;-219.2816;-2.924799;5.075756;-212.8004;-210.2784;-0.3688279;-0.1396781;0;
-239.5851;0;0;-234.0537;-5.332758;3.998929;-229.703;-231.4314;-0.2385226;0.2502663;0;
54.44547;0;0;35.23375;-4.591441;5.066638;59.13272;58.28062;-0.2382829;0.1200802;0;
649.7165;0;0;609.2223;-5.256413;3.788871;646.7779;647.6758;-0.3679782;-0.1399099;0;
550.1134;0;0;552.5758;-10.14028;8.54073;552.0503;550.6359;-0.1727064;0.05513274;0;
181.6831;0;0;219.6877;-11.20181;8.800079;187.8659;188.0146;-0.04259818;0.379914;0;
223.6044;0;0;257.073;-14.47309;10.1309;226.2827;230.3668;0.2822813;-0.01027176;0;
-31.80455;0;0;25.36853;-15.79772;12.39801;-25.13091;-21.55062;0.6068344;-0.2701308;0;
-606.9835;0;0;-526.3796;-13.10252;0.06106306;-592.1331;-588.6189;0.281388;0.05497735;0;
-561.771;0;0;-519.4164;-12.5535;-3.020213;-548.9346;-544.1745;0.2161379;-0.2049473;0;
-228.1239;0;0;-222.5435;-8.857186;3.145129;-219.7982;-217.854;0.4108227;-0.3996434;0;
-248.5094;0;0;-241.935;-6.236319;2.271191;-239.6297;-239.749;0.1505405;0.0555296;0;
51.77703;0;0;33.79459;-6.832288;3.943482;55.1505;56.03089;0.280324;0.1854085;0;
654.6094;0;0;614.6561;-5.888394;4.542366;650.9206;650.5507;0.5399117;-0.00967985;0;
558.6246;0;0;561.9397;-0.05435253;4.001938;559.4996;556.6314;0.5393692;-0.3345068;0;
187.9369;0;0;229.0421;2.222878;4.466798;192.9339;192.4424;0.4088925;-0.4641054;0;
226.7284;0;0;263.5445;-0.7934657;4.127395;228.7845;232.4163;0.08364494;0.1860344;0;
-27.80906;0;0;30.02197;-0.256805;4.793077;-20.945;-17.81653;-0.04637378;0.3807495;0;
-605.6781;0;0;-527.9777;-3.270657;1.907995;-591.2623;-588.2619;-0.2412292;-0.2043392;0;
-559.0927;0;0;-523.6991;-4.808588;1.571163;-547.7523;-543.1307;-0.1110521;-0.009231861;0;
-218.4518;0;0;-218.3886;-1.923368;2.84226;-210.746;-209.0026;0.1489288;0.3156141;0;
-247.2802;0;0;-238.9087;-2.055157;2.97337;-237.833;-239.902;-0.4359269;0.1853623;0;
42.32281;0;0;29.25915;-3.393239;4.444007;46.51317;46.13293;-0.5654235;0.1202087;0;
653.7854;0;0;615.8724;-3.925693;3.903678;650.2879;650.4703;0.08481798;-0.009846754;0;
565.1102;0;0;565.1537;-2.983743;10.33;565.6143;562.3607;0.4095695;-0.0748042;0;
186.8572;0;0;221.3209;-3.382887;11.99407;191.7336;189.9825;0.01935388;-0.009761697;0;
222.2141;0;0;252.1454;-4.182795;5.886812;224.9616;227.71;-0.435437;0.2501175;0;
-27.69615;0;0;22.75723;-5.317668;4.943136;-20.6411;-18.02038;-0.04519538;0.1848988;0;
-600.6303;0;0;-529.0508;-4.173249;0.8523323;-585.7738;-583.6555;0.6045234;-0.3350257;0;
-554.4247;0;0;-519.8985;-4.035334;-1.492927;-541.5197;-537.7168;0.5389487;-0.0748197;0;
-223.4088;0;0;-221.276;-10.12685;-3.166;-213.6401;-212.4647;0.1486031;0.1201575;0;
-248.6714;0;0;-241.5433;-10.78626;-4.904253;-237.6007;-239.9248;-0.04644825;-0.1398326;0;
51.17782;0;0;35.37281;-17.3395;-3.693754;56.05302;55.66781;-0.1763363;-0.1396921;0;
646.827;0;0;611.4227;-22.14485;-3.489094;645.9501;645.8777;-0.3060938;-0.07458439;0;
548.0389;0;0;557.5226;-5.845625;-3.083691;553.2224;551.151;0.08401785;-0.009542104;0;
186.3572;0;0;232.0008;-3.026713;-3.013609;195.2836;195.4007;0.2138681;0.05543484;0;
222.0894;0;0;260.8156;-13.13773;3.754573;227.696;230.8115;0.08371854;0.1203465;0;
-34.37995;0;0;24.48463;-14.46467;6.363013;-26.03034;-23.5427;0.3435038;0.2501602;0;
-601.4354;0;0;-525.2012;-11.56975;2.538714;-588.5964;-587.2982;0.3431586;0.05500685;0;
-554.9166;0;0;-521.8624;-10.88854;2.938061;-547.5878;-546.2908;0.1479118;-0.07498312;0;
-212.0311;0;0;-215.6167;-18.57978;0.8587596;-209.7071;-211.0976;-0.2420409;0.249929;0;
-235.1813;0;0;-239.0132;-19.09698;-0.347796;-230.6108;-234.6236;-0.3717324;0.3146452;0;
44.9768;0;0;17.41074;-19.01142;-0.9502929;45.48225;42.91026;0.01844521;-0.01050772;0;
650.3148;0;0;604.0983;-18.25538;-2.222014;643.0112;641.5037;-0.1764753;0.1844049;0;
559.7066;0;0;554.6409;-6.314318;-1.817883;554.9091;551.9039;-0.6960368;0.3791216;0;
176.2117;0;0;206.9456;1.729979;-1.950023;175.5419;174.3513;-0.3705007;-0.0110634;0;
216.4518;0;0;244.4062;-0.6826573;-4.225361;214.7207;217.5918;0.2145777;0.1838498;0;
-24.33227;0;0;26.02027;3.470238;-4.823962;-21.25154;-18.63321;0.01946005;0.2486324;0;
-598.8315;0;0;-526.728;21.75248;-2.876732;-588.8199;-587.5161;0.1493752;-0.07645418;0;
-556.0635;0;0;-522.3882;26.75447;-2.940824;-549.4352;-546.9458;0.2141924;-0.1413447;0;
-220.4232;0;0;-220.8271;41.1959;-2.402006;-216.925;-216.2497;-0.3057615;-0.3361047;0;
-244.8768;0;0;-241.8446;49.19246;-3.337353;-238.5086;-242.2067;0.2792518;-0.4007343;0;
51.15804;0;0;32.38573;29.98566;-0.7886482;52.64733;50.07736;0.4738732;-0.1404623;0;
647.3694;0;0;610.7499;28.0805;-0.4529412;642.1106;641.6047;-0.4361457;-0.3352232;0;
548.7682;0;0;553.9146;19.14368;-9.026057;547.7;545.6954;-0.1758381;-0.07501698;0;
189.3971;0;0;225.2729;12.15822;-11.76329;191.516;191.1375;0.2141426;0.4447971;0;
225.2512;0;0;251.7206;16.96877;-15.03351;225.119;227.4271;-0.1109093;0.05454616;0;
-40.96642;0;0;10.46381;13.60282;-18.76945;-35.41381;-34.54484;0.01913687;-0.3353127;0;
-605.5165;0;0;-528.7132;15.93367;-17.47791;-591.911;-591.2303;0.01911764;-0.2050411;0;
-551.2475;0;0;-514.9386;15.78297;-19.33575;-539.7796;-537.4755;-0.04586891;0.2499363;0;
-220.7345;0;0;-216.8208;14.22687;-20.589;-212.8388;-212.3485;0.1490792;0.05478316;0;
-247.3117;0;0;-236.9052;13.40926;-21.23814;-237.9247;-241.2455;-0.2408746;-0.529978;0;
44.72763;0;0;28.26218;16.87841;-21.6187;48.92026;46.10255;-0.2406326;-0.3345434;0;
648.6916;0;0;606.3182;17.66476;-20.59223;645.1339;643.8182;-0.1754235;-0.009370566;0;
555.4613;0;0;555.2343;12.62415;-25.39419;556.155;552.4669;-0.6949859;-0.2042632;0;
177.6553;0;0;216.8463;13.95063;-26.37342;182.4088;180.7859;-0.1745489;-0.1390906;0;
218.9559;0;0;254.7342;-1.066586;-20.51952;220.5188;224.3322;0.1504632;-0.2688855;0;
-25.01654;0;0;32.1525;-6.357776;-19.89606;-18.33285;-15.83506;-0.1745247;-0.203648;0;
-601.764;0;0;-525.0997;11.59955;-16.86196;-587.091;-586.4698;0.1504874;-0.07350869;0;
-556.8691;0;0;-520.7615;14.33456;-15.7063;-545.3343;-542.215;0.1503362;-0.2033695;0;
-216.6053;0;0;-212.0806;14.65495;-16.49432;-208.6428;-207.9004;-0.434521;-0.1381978;0;
-240.6879;0;0;-231.7326;17.98913;-16.20981;-230.7969;-235.0528;-0.4990517;-0.07309161;0;
51.78201;0;0;34.679;18.64064;-21.28411;56.47818;53.53847;-0.2386809;-0.2679202;0;
648.9922;0;0;611.0419;19.96205;-23.40617;646.9996;645.1873;-0.3034084;-0.2026836;0;
552.7632;0;0;558.7664;24.42997;-26.93263;554.5831;550.7111;-0.3680709;-0.0725453;0;
185.642;0;0;227.8085;26.74898;-30.85744;191.583;188.527;-0.172799;-0.007505071;0;
216.4399;0;0;254.8159;16.87646;-26.60663;221.5629;221.5709;-0.2375927;0.3173392;0;
-44.58396;0;0;16.05479;14.04646;-26.64688;-34.53115;-33.71103;-0.1723866;0.446955;0;
-603.1959;0;0;-526.3137;15.17045;-33.9881;-586.6564;-586.8366;0.08765595;0.1216692;0;
-543.8068;0;0;-509.1058;11.27044;-35.02555;-530.6573;-531.0872;-0.04236682;0.2514816;0;
-216.2997;0;0;-211.3686;19.22972;-34.11958;-206.2244;-208.4654;0.1525778;0.446131;0;
-249.6905;0;0;-237.518;21.08641;-33.68353;-237.5638;-242.8011;0.2173918;-0.1390234;0;
40.41469;0;0;28.21222;7.200118;-32.84588;46.3448;42.54956;-0.3675327;-0.203851;0;
643.196;0;0;607.7675;5.049429;-32.81288;640.9368;639.3318;-0.3671634;0.2511252;0;
548.2222;0;0;555.3079;4.977007;-24.13923;550.0881;546.6732;0.08797692;0.3158402;0;
167.9247;0;0;211.9223;2.360038;-21.7707;173.2246;170.9999;0.3477579;0.1206208;0;
212.2336;0;0;251.6268;9.323892;-19.8733;214.5921;216.1178;0.4123758;-0.1393698;0;
-23.86105;0;0;36.41948;9.380896;-15.96844;-15.88273;-15.7329;0.4119614;-0.07426239;0;
-602.9835;0;0;-525.897;11.44855;-29.48258;-587.1421;-587.4297;0.2816128;0.1856816;0;
-560.2737;0;0;-524.7439;12.97729;-32.73512;-547.5093;-545.6727;0.2163625;0.2504624;0;
-214.0096;0;0;-211.0615;9.481625;-23.92759;-204.5063;-206.1697;0.1511778;0.05530869;0;
-244.9039;0;0;-237.586;12.08407;-24.17148;-233.2238;-238.946;-0.3687129;0.05525312;0;
41.8232;0;0;25.95787;-2.262668;-24.75004;48.3067;43.71463;-0.4333097;0.1851323;0;
643.6661;0;0;605.9528;-6.010463;-24.79215;643.3965;638.6841;-0.173005;0.3148809;0;
546.5679;0;0;549.8093;8.663984;-23.29374;549.9217;544.5269;-0.1728311;-0.01027217;0;
183.0136;0;0;222.8584;9.99445;-22.33257;189.4875;187.6588;0.1521792;-0.2051639;0;
219.8736;0;0;253.6814;17.55384;-24.18553;223.9672;225.3887;0.3469284;0.3797484;0;
-41.96581;0;0;12.29767;21.48832;-23.15661;-32.69146;-32.58319;0.2816124;0.1844648;0;
-608.6388;0;0;-531.8162;19.32328;-28.42475;-591.6276;-592.3316;0.3462968;-0.270492;0;
-555.0538;0;0;-516.8516;19.706;-31.20947;-541.8704;-540.8245;0.02111212;0.1195839;0;
-218.3526;0;0;-212.9222;20.8243;-19.45634;-209.7426;-210.1345;-0.4336805;0.1194637;0;
-241.8088;0;0;-234.6973;20.87073;-17.62837;-232.3953;-235.7854;-0.30331;-0.2704604;0;
50.53736;0;0;30.59285;8.793314;-22.96917;53.81943;51.74463;0.2817008;-0.335156;0;
650.9973;0;0;609.7709;4.832364;-23.34787;647.2795;646.2063;0.1514831;0.1199522;0;
556.7027;0;0;557.934;1.210186;-25.26691;557.3615;553.4783;0.08636351;0.2497663;0;
180.8944;0;0;218.9185;-2.743145;-26.44722;186.1128;182.8582;0.4111134;0.184548;0;
215.2578;0;0;247.3092;1.814939;-30.57346;218.4719;220.1556;0.2157983;0.3142973;0;
-31.14725;0;0;22.23618;1.879488;-32.88715;-22.93886;-21.50677;0.08564681;-0.07582258;0;
-603.5157;0;0;-528.6343;3.418817;-32.0503;-588.0068;-588.2003;0.2804628;-0.2706484;0;
-555.3707;0;0;-522.4809;4.084967;-32.68793;-543.563;-541.5699;0.280181;-0.0105071;0;
-206.1129;0;0;-206.7394;11.78402;-33.99462;-197.4405;-198.1356;-0.04493727;0.1844055;0;
-238.2021;0;0;-230.6445;15.32215;-34.56331;-226.4774;-231.4821;-0.2397941;0.7039589;0;
38.46078;0;0;23.27221;8.139462;-31.51447;44.48905;41.42588;-0.1745858;0.5733169;0;
646.4915;0;0;606.3307;7.729143;-31.08091;644.0804;642.0823;0.08545894;-0.2718346;0;
558.6982;0;0;559.6821;6.583276;-28.63829;561.412;556.6672;0.08537307;-0.3365288;0;
186.5736;0;0;225.9122;4.901722;-27.06903;194.2821;190.9165;-0.0446474;0.1185807;0;
221.3061;0;0;254.3583;5.633731;-31.52957;226.0084;226.4567;0.02036481;0.2483963;0;
-38.91062;0;0;14.53568;6.163934;-31.8328;-29.71529;-29.95459;-0.044623;0.118212;0;
-610.3343;0;0;-533.6409;-2.215004;-32.73857;-593.9019;-594.4532;-0.1745128;0.05312587;0;
-558.0594;0;0;-519.2366;-5.495308;-33.3084;-544.0173;-542.5067;-0.1743375;-0.07686221;0;
-221.9174;0;0;-216.4294;7.103493;-32.67221;-211.8249;-211.8775;0.1506744;-0.4016217;0;
-245.4325;0;0;-237.5762;8.770318;-32.84021;-234.6005;-238.5261;-0.04437903;-0.5961201;0;
50.72787;0;0;32.58938;9.833233;-28.98931;56.80135;52.62981;-0.3691711;-0.4006191;0;
649.8132;0;0;610.9534;13.10588;-27.21874;648.6967;644.9042;-0.0439635;-0.2702819;0;
551.8967;0;0;555.5546;3.313449;-28.46395;553.5924;548.8666;0.3458847;-0.205043;0;
185.9633;0;0;224.2876;1.031968;-28.36836;190.4684;188.6834;0.1506352;0.2499344;0;
223.3825;0;0;257.6078;3.710248;-22.84738;225.6967;227.4117;0.02054911;0.184716;0;
-37.0861;0;0;20.40558;0.09017398;-21.01601;-29.65184;-29.68764;0.08549581;-0.07533903;0;
-608.5116;0;0;-530.5255;7.725893;-25.68357;-593.5261;-595.2485;0.1503772;-0.205198;0;
-555.8013;0;0;-519.3103;9.12465;-25.72475;-543.7045;-543.9883;0.2151935;-0.07505714;0;
-216.9129;0;0;-216.5029;-5.352832;-26.83761;-209.5758;-210.6091;-0.1098595;0.249855;0;
-245.8678;0;0;-240.8356;-7.156114;-27.14556;-237.0388;-241.2569;-0.4345858;0.3145713;0;
41.9222;0;0;24.96046;-12.30649;-26.78337;46.86926;41.90577;-0.2392471;0.3792225;0;
647.6381;0;0;609.3291;-15.03981;-26.62249;645.6462;640.6877;-0.04410465;0.1839395;0;
556.4703;0;0;561.6155;-9.800763;-23.24659;557.7288;552.0256;-0.3039297;-0.1410821;0;
184.348;0;0;227.8437;-10.66157;-22.08465;190.0404;187.2166;-0.3685916;-0.01100563;0;
221.7064;0;0;259.7236;1.606652;-17.70856;226.3936;227.0708;-0.3032539;0.1189401;0;
-36.32433;0;0;21.33237;5.490779;-15.27951;-27.0816;-26.77987;-0.1730146;0.3137226;0;
-610.1244;0;0;-531.7861;4.547257;-17.20654;-593.832;-594.0928;0.151996;0.3783748;0;
-559.7863;0;0;-522.1938;7.891591;-16.85446;-546.5713;-546.3945;0.2168106;-0.0118095;0;
-223.5801;0;0;-219.9457;-0.1542907;-15.69881;-214.0015;-215.8864;0.5414295;-0.1417323;0;
-242.9706;0;0;-234.2174;-0.5562772;-15.4151;-231.6525;-236.3465;0.4109508;-0.01165522;0;
50.00145;0;0;34.32055;-4.172065;-20.0883;54.6865;51.18404;-0.1092009;-0.07661086;0;
645.5269;0;0;609.2471;-6.646119;-22.0776;642.3986;639.6493;-0.04412383;-0.3364033;0;
556.4227;0;0;561.9708;-3.089468;-20.44783;557.9203;552.3002;0.2157899;-0.3360652;0;
190.6721;0;0;231.572;-5.229817;-21.76694;196.541;191.9885;0.1506057;0.1840112;0;
226.0877;0;0;265.3847;5.090566;-20.53938;229.7018;229.4642;-0.1743823;0.2487936;0;
-28.63659;0;0;31.29803;7.228904;-19.78193;-19.96615;-20.64078;-0.3041418;-0.1412604;0;
-604.3184;0;0;-526.9528;7.288013;-28.20165;-588.3479;-589.8339;0.4108046;-0.2060858;0;
-556.9847;0;0;-519.177;13.04147;-31.92436;-546.1526;-544.7011;0.3454244;0.118958;0;
-211.8482;0;0;-208.1864;-13.0269;-21.30923;-204.5878;-205.3866;-0.1746614;0.3137405;0;
-238.8717;0;0;-230.6533;-20.5159;-20.41703;-227.8704;-233.7908;-0.1095185;0.1834906;0;
46.35009;0;0;29.19798;4.28718;-26.55883;51.78064;46.61573;-0.1743758;-0.07656319;0;
653.6857;0;0;612.5004;6.292604;-26.66611;651.4272;647.8292;-0.1092333;-0.2713883;0;
560.263;0;0;563.8466;6.554701;-32.3996;562.0048;557.036;-0.04415618;-0.1411809;0;
185.0134;0;0;225.8872;10.16446;-34.24257;190.3141;187.5368;0.02085553;-0.01110437;0;
223.8079;0;0;257.769;6.737997;-34.34212;227.7914;228.5151;0.08580192;-0.01109321;0;
-30.41431;0;0;22.62811;8.607237;-36.25013;-21.56225;-22.21356;-0.04421898;-0.1410168;0;
-608.2183;0;0;-535.0518;5.7182;-26.83621;-592.5036;-593.7164;-0.1091419;-0.4007444;0;
-558.3195;0;0;-522.9575;4.97552;-22.99134;-545.619;-544.5818;0.02090246;-0.2704071;0;
-212.0572;0;0;-209.9641;8.051979;-30.8721;-203.2426;-204.4553;0.0858488;0.3145707;0;
-236.9565;0;0;-230.1179;6.904813;-30.23824;-225.5271;-230.4242;0.0207952;0.3142546;0;
51.88653;0;0;35.1676;14.06517;-24.17951;57.80724;54.47676;-0.1091604;-0.07586519;0;
648.2846;0;0;611.4676;16.46194;-22.74857;645.6412;643.1886;-0.174018;0.1840804;0;
550.9318;0;0;558.442;8.273721;-17.16625;551.7892;546.9653;0.08602618;0.4437648;0;
188.1853;0;0;231.9822;7.663171;-13.79998;193.727;190.3447;-0.3038643;0.1184822;0;
223.7907;0;0;263.6081;4.574012;-17.06816;228.2649;228.6966;-0.5634283;-0.2064735;0;
-34.36703;0;0;24.58822;1.487957;-15.84544;-25.39957;-24.90585;0.0868112;-0.3362008;0;
-597.1746;0;0;-520.6;9.25697;-15.4946;-582.0317;-581.4136;0.281626;-0.1409609;0;
-548.0989;0;0;-507.833;10.45312;-15.14412;-536.2197;-534.915;-0.04349369;-0.01088461;0;
-214.7155;0;0;-206.349;5.486121;-12.3826;-206.3464;-208.1664;0.02151736;-0.3357104;0;
-236.2388;0;0;-227.1936;6.351265;-11.56636;-225.9416;-231.7578;0.3463324;-0.2054384;0;
53.4156;0;0;36.33984;1.053597;-11.48776;58.01781;52.7072;0.02114774;-0.1402646;0;
653.4977;0;0;614.1379;-1.827849;-12.07906;650.4742;646.7306;-0.1737755;-0.205091;0;
562.9488;0;0;562.8588;9.42712;-7.37824;564.8633;559.3119;0.4111052;-0.2048849;0;
184.6355;0;0;219.2156;10.2883;-6.834962;190.9209;187.4365;0.08585536;-0.009777037;0;
217.8707;0;0;249.4176;7.73237;-9.708361;221.2762;221.9807;-0.2390676;-0.009767213;0;
-26.22561;0;0;26.77874;7.322459;-9.296708;-18.9505;-19.12123;0.3458787;-0.1396921;0;
-603.4716;0;0;-529.5311;4.434713;-17.65999;-589.3323;-590.1275;0.1506291;0.05535032;0;
-559.0747;0;0;-524.1264;4.095465;-19.45078;-548.0106;-546.4937;-0.1743589;-0.269542;0;
-206.7523;0;0;-205.4472;-7.4956;-18.09158;-198.8851;-199.3063;-0.04424907;-0.4641732;0;
-234.7803;0;0;-227.8544;-11.37381;-18.40832;-225.2344;-229.903;0.02076273;-0.1388701;0;
43.19095;0;0;26.18447;-8.213573;-12.96432;45.79325;41.94145;-0.1091928;-0.008795874;0;
646.0945;0;0;607.4285;-9.947609;-10.674;641.0106;638.5369;0.08581893;0.2510823;0;
557.427;0;0;560.9662;-3.238832;-6.912231;557.1583;552.4382;0.5405041;0.1858627;0;
187.8649;0;0;227.4449;-1.159473;-5.766697;191.7193;188.1285;0.4749936;-0.07419343;0;
222.1588;0;0;256.5766;-0.08658107;3.013739;224.1353;223.9214;0.214647;0.3156852;0;
-37.43405;0;0;17.56379;1.923238;5.823872;-30.71192;-31.98759;0.2793987;0.3803353;0;
-607.9222;0;0;-531.8652;4.600623;-3.626329;-594.5851;-596.3593;0.3440853;-0.009850895;0;
-552.7137;0;0;-517.4628;7.61011;-5.431225;-543.2007;-543.099;0.2138048;0.185061;0;
-219.5756;0;0;-217.9056;0.7035873;-13.46348;-212.7582;-215.2803;0.08365534;0.4447445;0;
-241.6562;0;0;-235.865;0.5018095;-17.53578;-232.1596;-239.1144;0.1485386;0.05449353;0;
58.24846;0;0;38.35926;1.037169;-24.55125;61.55119;55.47792;-0.04651266;-0.2054306;0;
651.4542;0;0;610.7205;-0.3040201;-30.22001;646.5703;641.9399;-0.1764006;0.3794819;0;
556.1597;0;0;558.6327;7.935308;-22.15181;555.0912;548.0292;0.08364601;0.3141333;0;
186.1616;0;0;224.614;9.534925;-22.46447;189.8418;183.599;0.08356196;-0.07598645;0;
220.5197;0;0;251.6246;9.324273;-20.83443;222.5095;219.9586;-0.111424;0.1839593;0;
-27.26498;0;0;25.04806;10.31928;-18.53607;-20.71692;-22.89045;-0.04634473;0.2487418;0;
-603.5104;0;0;-525.8252;10.30891;-20.05806;-589.4727;-591.0193;-0.04629816;0.3134592;0;
-556.7397;0;0;-517.176;12.04084;-17.62652;-546.0894;-545.7604;-0.1761863;0.3781115;0;
-208.1053;0;0;-203.3763;3.722373;-21.35973;-201.0264;-203.8212;0.2137948;0.3127643;0;
-235.7571;0;0;-229.4087;2.379462;-21.74016;-226.0617;-233.4764;0.3435146;0.3774174;0;
47.2751;0;0;26.38083;4.051034;-17.1636;51.08876;45.36819;-0.306504;-0.1427006;0;
649.7997;0;0;608.8115;2.17193;-17.81618;645.7385;642.2725;-0.4361307;-0.9221653;0;
554.3195;0;0;557.5378;14.09247;-10.22945;554.885;549.486;0.1490136;-0.5314347;0;
181.2622;0;0;219.3348;16.89134;-7.874774;185.5128;181.9308;0.2138312;-0.206064;0;
220.8101;0;0;253.3472;15.5352;-16.30647;221.9955;222.4151;0.01871436;-0.1408896;0;
-31.90985;0;0;23.08323;18.19891;-17.49578;-25.41582;-26.87069;0.0836629;0.1191214;0;
-598.2181;0;0;-522.5407;11.14705;-21.2961;-583.0475;-585.313;0.2135135;-0.01093304;0;
-550.2658;0;0;-512.6454;10.46626;-24.4229;-536.6721;-536.9363;0.213299;0.3139147;0;
-224.0016;0;0;-214.5298;9.986256;-22.85775;-212.4831;-215.4957;0.08314997;0.638436;0;
-243.0793;0;0;-228.4947;8.7044;-23.77254;-230.5729;-236.7683;0.01809908;0.1180557;0;
57.63886;0;0;44.84765;11.84348;-24.08357;62.1368;57.63422;0.08304823;0.05296976;0;
645.9102;0;0;609.4562;11.69786;-22.25083;641.3457;637.2225;0.1479321;0.05291653;0;
548.8097;0;0;549.1863;15.10138;-26.31431;547.5606;540.3181;0.08281615;-0.2719734;0;
188.3142;0;0;220.362;15.62207;-25.88597;191.0643;185.2658;0.1477003;0.05313664;0;
222.92;0;0;249.9381;17.54974;-15.54496;223.2935;222.0611;0.2125192;0.1830179;0;
-32.23839;0;0;15.17988;18.80392;-12.11321;-28.61683;-29.84803;-0.112531;-0.20697;0;
-604.1685;0;0;-535.746;13.69481;-4.934109;-595.3032;-596.5956;-0.2423526;0.05310732;0;
-557.4596;0;0;-526.587;13.88212;0.09444682;-551.2894;-551.1437;-0.3720438;0.1829886;0;
-209.1992;0;0;-210.8413;4.423704;0.3622836;-204.8468;-207.6998;-0.04683328;-0.336934;0;
-233.7266;0;0;-231.9937;-0.001370199;4.112964;-226.505;-232.9158;0.2780505;-0.2066607;0;
47.74189;0;0;25.23523;11.38549;-1.986494;49.52149;44.36646;-0.501837;0.183351;0;
658.0746;0;0;614.6636;12.44577;-3.391139;652.2313;646.8315;-0.5013328;0.05323206;0;
564.9598;0;0;564.1335;9.48553;2.774576;564.6196;556.8515;0.2787791;-0.01178878;0;
183.5836;0;0;218.0529;9.475999;2.436873;188.3661;183.1046;0.08359694;-0.01177694;0;
224.1286;0;0;252.0041;14.82511;2.769339;226.5325;225.5866;-0.1763564;0.3130716;0;
-30.6561;0;0;21.11682;17.82433;2.632591;-23.06972;-24.70186;0.1486575;0.312757;0;
-601.151;0;0;-527.1913;8.630363;-0.4511472;-586.9506;-589.6431;0.08354077;-0.2722633;0;
-552.5711;0;0;-521.1019;7.952106;-1.790352;-542.3204;-543.8233;-0.2413799;-0.142055;0;
-226.9293;0;0;-229.1622;9.952872;-2.793298;-219.4376;-223.0628;0.01873203;0.1829244;0;
-245.2544;0;0;-243.5496;9.005842;-3.795235;-235.7712;-243.2035;0.2136152;0.05280592;0;
56.46547;0;0;32.74383;14.55552;-6.403634;60.25448;53.76676;-0.2413708;-0.1421492;0;
652.6091;0;0;609.0462;15.14411;-7.267977;649.5852;643.4788;-0.5009976;0.1828304;0;
559.1874;0;0;559.9586;17.94193;-8.935247;559.9772;551.1908;0.08421185;0.7673528;0;
191.7475;0;0;229.4993;19.53149;-10.39989;195.0352;189.2561;0.4739313;0.1169083;0;
222.9765;0;0;254.6934;14.89017;-6.504434;223.5123;222.8614;0.3435204;-0.2080459;0;
-35.61767;0;0;15.55757;14.80786;-7.167728;-29.52272;-30.98501;0.6030446;0.1819672;0;
-608.4814;0;0;-535.8684;7.760381;-2.337877;-594.9588;-597.669;0.667406;-0.5328564;0;
-560.144;0;0;-525.4599;4.135261;0.008753159;-549.9458;-551.5289;0.0820293;-0.8571577;0;
-215.4417;0;0;-214.8378;8.016848;-9.904486;-207.69;-212.2075;-0.2428898;-0.1416557;0;
-242.5239;0;0;-237.298;5.730641;-10.76519;-232.1564;-240.7298;0.01722359;0.2482907;0;
42.51409;0;0;24.49644;7.2661;-14.30447;47.06163;39.37141;0.342043;0.1830739;0;
656.7876;0;0;615.8621;6.253445;-16.83533;653.2721;646.7765;0.2117646;0.05295527;0;
565.923;0;0;566.4553;5.778647;-11.19196;565.7844;557.9835;-0.1782522;0.1178694;0;
183.109;0;0;220.2473;7.380431;-11.18072;186.5937;181.2369;0.01682892;-0.1421184;0;
220.0938;0;0;254.3213;-6.760506;-6.681749;221.6385;220.7848;0.1467467;-0.401845;0;
-33.74986;0;0;22.68204;-10.10262;-4.196789;-27.70903;-29.49886;-0.04830278;-0.2715065;0;
-607.8024;0;0;-531.1874;-1.652371;-8.412374;-594.7087;-597.996;0.3415498;0.1835377;0;
-555.2803;0;0;-519.0345;-0.5126104;-9.006768;-545.573;-546.6081;0.2762393;0.50819;0;
-217.9541;0;0;-215.9775;-0.5120954;-5.84952;-211.7548;-215.2876;-0.048875;0.3127773;0;
-241.4731;0;0;-234.3761;-0.4442318;-6.178557;-233.0313;-241.0583;0.2760108;0.2474957;0;
52.93412;0;0;37.78519;14.89518;-8.181837;56.49499;50.22517;0.2107661;0.247247;0;
651.3301;0;0;615.8317;21.37695;-8.03965;647.9534;643.0642;-0.244217;-0.1428055;0;
556.0357;0;0;562.177;9.633825;-16.80609;556.2231;549.5272;-0.1790043;-0.142662;0;
189.1611;0;0;229.0293;10.22736;-19.66947;192.8466;187.4693;-0.04888976;0.0523834;0;
228.2014;0;0;261.2829;8.542141;-16.36754;229.8216;228.3852;0.1460614;0.05233077;0;
