Fp1;Fp2;O1;O2;POLY3;POLY4;A1;A2;Video;Audio;event;
56.17626;0;0;117.6151;-3.718139;6.859542;76.90422;74.92371;0.3332825;0.3900639;0;12:38:02 Рука;
-528.7112;0;0;-419.1708;-2.174161;7.857393;-498.8212;-502.6738;0.3979149;0.1298026;0;
-643.497;0;0;-571.5478;-6.056743;4.969232;-616.2607;-617.1734;0.2026131;0.1946395;0;
-266.3522;0;0;-257.9434;-6.988662;5.165188;-244.8279;-245.8646;-0.3173293;0.389346;0;
-215.9222;0;0;-211.4574;-1.019793;-1.136154;-191.6085;-197.7041;-0.2520431;0.1290854;0;
-43.72923;0;0;-58.25933;-0.01439024;-3.680363;-22.50087;-29.15258;-0.1218551;0.193923;0;
567.8823;0;0;460.2886;3.468249;-2.738904;579.6566;574.0735;-0.2516674;0.5835322;0;
633.9032;0;0;528.7289;6.010359;-4.343743;646.6027;639.1512;-0.1864471;0.4530112;0;
220.099;0;0;242.9036;3.458724;-2.195924;237.3459;231.9633;-0.5760639;0.1277193;0;
188.0813;0;0;242.2847;4.192183;-1.858803;203.6242;203.0571;-0.5105177;-0.00234371;0;
43.90217;0;0;106.1096;4.522764;-1.05314;62.74032;63.17333;0.07470137;-0.002341355;0;
-534.1639;0;0;-424.4804;3.714912;0.7563351;-507.8484;-507.7282;0.3344957;0.3224977;0;
-637.7623;0;0;-565.4828;7.595945;-2.392501;-613.16;-611.6031;0.5290616;0.1272717;0;
-277.4898;0;0;-267.3766;7.789384;-2.323114;-257.3474;-257.2913;0.5934973;-0.2626603;0;
-226.6114;0;0;-224.1296;4.767447;2.50187;-205.1774;-209.2443;0.2030969;0.1274077;0;
-44.47511;0;0;-59.29961;4.159444;3.638066;-26.12364;-30.124;0.1379255;0.5170837;0;
561.8273;0;0;458.0624;-0.06429388;5.978691;572.4767;569.7922;0.2677216;0.3866295;0;
635.413;0;0;528.1917;-1.939263;7.580274;647.9258;641.9956;0.2674526;0.2563063;0;
223.8561;0;0;241.6172;-1.536149;5.563169;241.6037;235.6795;0.4620859;-0.1337553;0;
182.7767;0;0;234.8153;-2.070469;5.423613;198.2576;198.024;0.3316869;-0.06865357;0;
47.53596;0;0;105.7066;-2.604252;6.757822;65.31258;67.01573;-0.1234178;0.1263175;0;
-530.5338;0;0;-424.3832;-2.735357;6.884998;-505.2788;-504.0771;0.2665103;-0.003744167;0;
-644.6306;0;0;-576.0678;-0.6565039;3.730004;-620.6503;-618.8251;0.3961772;-0.06870775;0;
-272.7944;0;0;-267.4563;-0.7895661;2.45358;-252.4614;-253.6366;-0.05899228;-0.133606;0;
-218.485;0;0;-218.8369;5.641589;3.589825;-196.2984;-201.9076;0.006034334;-0.1984391;0;
-48.72565;0;0;-67.19312;8.448959;3.117337;-29.99712;-35.60073;-0.05893907;-0.06830507;0;
557.5186;0;0;452.6756;1.273174;4.788778;568.1074;563.8212;-0.1238472;0.06169827;0;
634.2321;0;0;531.2435;1.472965;6.726349;646.8092;641.403;0.2660813;0.2565383;0;
230.4849;0;0;251.4126;-4.020871;1.361078;248.7341;244.0204;0.3307813;0.1263458;0;
189.3364;0;0;244.4759;-7.700526;1.292728;205.5057;203.9827;0.005612205;-0.003715811;0;
39.47137;0;0;102.364;3.158202;6.114078;57.81088;57.35133;0.1355412;-0.003712077;0;
-530.4693;0;0;-424.9738;4.4942;6.2419;-504.0273;-504.424;0.2003724;-0.3935124;0;
-634.7586;0;0;-570.2236;1.810367;13.53665;-609.5926;-608.8019;-0.1246656;-0.1332476;0;
-283.6095;0;0;-277.7973;4.28777;14.79572;-263.7161;-263.5509;-0.1245404;-0.0681464;0;
-233.537;0;0;-230.4793;-6.567529;15.51754;-212.5392;-215.9349;-0.0594479;-0.3279473;0;
-42.83563;0;0;-57.77192;-10.71412;16.57368;-25.29465;-29.24913;0.07054652;-0.00278106;0;
567.5881;0;0;461.775;5.97479;6.97871;577.6777;574.102;0.2653776;0.06218909;0;
642.4174;0;0;531.9005;8.245962;5.163158;654.0585;648.2376;0.005241637;0.1270939;0;
229.2917;0;0;246.5093;4.553981;-3.013704;245.0441;239.9786;-0.3196003;-0.0679358;0;
177.2124;0;0;233.1432;7.362444;-6.82858;192.0744;190.3873;-0.1243772;-0.4576716;0;
44.47595;0;0;103.474;-3.026454;-3.941575;61.69683;60.63611;0.3305192;-0.3922444;0;
-526.6567;0;0;-423.6151;-4.36356;-5.612066;-502.2692;-503.5787;0.135285;-0.002046196;0;
-650.7523;0;0;-582.5469;0.463596;3.837923;-626.202;-625.761;-0.0597529;0.3877599;0;
-281.7211;0;0;-273.2417;0.4631301;6.714211;-261.6932;-262.1273;0.07024182;0.322403;0;
-222.905;0;0;-215.4336;7.696333;9.989506;-201.6478;-205.892;-0.05976344;0.127177;0;
-56.01478;0;0;-65.66727;9.966752;14.40034;-37.27768;-42.14234;-0.1246707;-0.002885503;0;
554.9219;0;0;451.0765;12.36763;8.893394;565.3943;560.8469;-0.3844148;-0.002882604;0;
635.0738;0;0;531.8325;13.42693;9.822219;646.4102;639.8059;-0.7738326;0.5168591;0;
220.2688;0;0;244.5047;16.42755;9.477434;236.2166;231.6179;-0.578153;0.191503;0;
180.3175;0;0;235.5759;17.95129;8.798082;194.6875;194.4037;-0.2527354;-0.5882975;0;
39.83183;0;0;103.9677;7.685472;10.39671;57.37329;56.34021;-0.1225468;-0.5227391;0;
-535.8563;0;0;-422.747;5.601645;9.180693;-510.1491;-512.1182;0.07247839;-0.1973771;0;
-641.1397;0;0;-569.9355;-2.174492;14.32903;-616.3953;-616.301;0.2023402;-0.002276773;0;
-281.9258;0;0;-272.762;-7.664664;15.65417;-261.8289;-263.1714;0.07220225;0.2575949;0;
-237.4147;0;0;-230.9463;0.3809898;10.21295;-216.0262;-221.6152;0.2020644;0.1274014;0;
-53.51845;0;0;-65.48479;-0.5573981;9.599959;-35.08749;-40.79583;0.331796;0.1922407;0;
558.3528;0;0;458.755;2.122479;8.719535;569.0191;564.8158;-0.05834141;-0.002854495;0;
630.88;0;0;530.5078;4.464871;7.906979;643.2223;636.7118;-0.2531848;-0.3926557;0;
224.7;0;0;245.1179;-1.969977;5.621614;241.4026;235.1486;-0.05802839;0.1274776;0;
184.4318;0;0;235.6263;-2.235441;3.606599;199.2436;197.2437;0.331834;0.1923169;0;
51.3133;0;0;108.8281;-0.08974084;7.42088;68.48406;67.42319;0.6563372;-0.2626478;0;
-522.5123;0;0;-415.1429;-0.6928631;6.877561;-497.3629;-499.1723;0.4607757;0.06245285;0;
-646.2998;0;0;-575.6449;3.058877;7.272547;-621.2381;-621.9213;0.2004434;0.0623901;0;
-275.7738;0;0;-268.2832;4.394974;8.069036;-255.235;-256.7296;0.07030729;-0.06760729;0;
-219.1501;0;0;-214.478;-1.101798;1.831637;-197.5075;-202.5612;0.2001713;0.06239534;0;
-60.25963;0;0;-71.20942;-2.105069;0.9590181;-41.69972;-47.37312;-0.1248665;-0.002634712;0;
548.5574;0;0;447.7263;1.64809;-3.0608;558.8528;554.1846;-0.3846104;-0.002632065;0;
637.4612;0;0;533.5456;3.320398;-6.406749;649.0582;643.2702;0.3304168;-0.1325641;0;
224.2156;0;0;245.8413;-2.241668;0.9675674;240.5485;236.1407;0.6549215;-0.002496219;0;
184.8225;0;0;239.2225;-2.708906;0.02883418;199.2025;199.0469;0.2644594;0.2573757;0;
64.94699;0;0;125.1643;3.523106;3.043037;81.74874;82.09312;-0.3854797;0.06221503;0;
-514.4521;0;0;-402.0715;4.390223;5.049345;-489.2339;-489.8269;-0.1901904;-0.06778218;0;
-652.3031;0;0;-577.4541;9.007511;-7.548153;-628.1098;-627.2654;0.1998048;-0.1976487;0;
-293.0154;0;0;-284.0836;10.20489;-9.483074;-273.4691;-274.4372;0.2645713;-0.3273848;0;
-241.7466;0;0;-237.3839;12.60553;-12.35369;-219.5963;-225.4984;0.3942402;-0.06718651;0;
-72.0264;0;0;-83.34772;14.33418;-15.42249;-53.02174;-58.91792;-0.1258947;0.1927504;0;
552.2322;0;0;446.9695;5.277442;-7.905028;562.5347;558.3935;-0.1907355;0.1275894;0;
648.0664;0;0;534.4137;3.397105;-6.490444;659.358;653.1595;0.1992602;-0.2623429;0;
238.933;0;0;253.9549;0.7143748;-7.488666;253.5866;248.3314;-0.1257768;-0.197112;0;
196.9639;0;0;248.3275;-0.8939334;-6.610363;209.104;208.2269;-0.1256504;-0.00201188;0;
63.45803;0;0;121.579;-2.701696;-0.03963782;78.77179;78.58273;0.004410557;-0.2618792;0;
-527.3088;0;0;-415.8356;-4.373921;3.175583;-502.7651;-503.7036;0.06937347;-0.1966487;0;
-660.3993;0;0;-585.3323;3.333633;-1.114394;-636.2551;-636.6929;0.3941405;-0.06651647;0;
-285.174;0;0;-274.9624;3.933496;-0.5104276;-267.051;-269.4249;0.003940385;-0.2613516;0;
-232.4138;0;0;-226.148;11.23056;-0.3090879;-213.5594;-219.4916;-0.3209003;-0.3260564;0;
-73.01032;0;0;-85.92864;14.43446;-0.3087774;-57.36074;-62.97465;0.1341936;-0.1957941;0;
556.7465;0;0;443.0793;9.597182;-1.848953;563.8846;559.2759;-0.3207127;0.06427203;0;
658.6981;0;0;537.1491;11.39522;-3.655634;668.0779;661.4748;-0.8401291;-0.06572725;0;
234.5616;0;0;249.8785;-2.011836;2.57733;249.7415;244.332;-0.1896116;-0.06566121;0;
182.9767;0;0;237.4461;-6.899935;3.177587;196.08;194.9861;0.005480971;0.2592415;0;
56.10652;0;0;114.6441;0.475365;-1.313341;72.38251;71.35226;-0.05949188;0.06407898;0;
-523.2836;0;0;-413.4557;-1.534845;-2.249782;-498.7157;-500.3071;0.4603066;-0.0009527611;0;
-649.4442;0;0;-578.0823;3.959054;-4.591924;-626.5251;-626.0535;0.07004006;-0.06591915;0;
-285.5992;0;0;-274.966;6.768115;-5.926847;-267.1384;-267.167;-0.449769;-0.3906896;0;
-231.0894;0;0;-219.2801;-3.084322;-8.935123;-211.0855;-215.0496;-0.1894477;-0.195395;0;
-59.19354;0;0;-64.69985;-4.756163;-10.66758;-42.27064;-47.29272;-0.2542247;-0.0002966673;0;
549.1227;0;0;453.1049;2.348563;-11.05876;558.345;554.265;-0.1240346;-0.06526371;0;
637.7761;0;0;534.6085;2.145133;-12.7892;647.6762;641.9761;-0.05894263;-0.1301655;0;
229.1528;0;0;246.6532;4.35378;-6.614044;243.7282;238.721;-0.2537854;-0.0001000011;0;
177.7608;0;0;231.4754;5.755925;-4.531049;190.26;189.5682;0.1362736;0.3247368;0;
49.95882;0;0;109.7414;-3.091118;-8.880265;64.00722;64.37804;0.07116935;0.3893779;0;
-517.8685;0;0;-411.6069;-4.829324;-7.330735;-495.0261;-494.9055;-0.1887715;0.2590519;0;
-652.4677;0;0;-581.3578;-3.216881;-9.131908;-629.5858;-627.2165;0.006320181;0.128857;0;
-293.4297;0;0;-281.9863;-2.677785;-8.318937;-275.5059;-273.8886;-0.2535555;-0.001207219;0;
-227.9801;0;0;-221.1084;-7.632564;-3.019048;-208.7625;-211.582;-0.3832355;-0.1311407;0;
-66.33221;0;0;-78.08303;-9.633651;-0.6046295;-50.75702;-54.32339;0.1368884;-0.3908783;0;
543.9902;0;0;438.2359;4.575923;4.888334;550.7416;547.991;0.07178348;-0.06564882;0;
650.7646;0;0;536.8708;8.121299;8.433518;659.5708;653.637;-0.2531254;0.4541559;0;
234.0699;0;0;249.7254;8.44793;12.51088;249.0516;243.9358;-0.05796899;0.2587975;0;
176.8633;0;0;231.2961;12.59263;15.9813;189.706;190.3425;-0.4477148;0.3235048;0;
57.93279;0;0;117.0585;5.948543;15.29541;71.63715;73.4599;-0.5122322;0.5830491;0;
-516.2743;0;0;-408.7948;6.143636;16.08384;-494.5877;-494.391;0.0729885;0.1926592;0;
-655.6852;0;0;-585.8574;8.81678;15.66578;-633.4583;-632.637;0.007947816;-0.002436388;0;
-286.649;0;0;-277.361;8.874294;14.04257;-268.7547;-268.8714;-0.3818642;-0.06740128;0;
-226.2662;0;0;-217.1124;10.13818;16.97559;-206.0786;-209.5059;-0.3165132;-0.002366215;0;
-71.55404;0;0;-80.02557;8.520398;17.42741;-54.07278;-57.55916;0.07360891;-0.06733118;0;
543.8336;0;0;440.8556;18.22473;5.018302;552.1144;549.8184;0.2034696;-0.002296183;0;
647.5472;0;0;537.5513;20.68466;0.3915592;657.4439;653.4636;0.2682325;0.1276408;0;
232.4799;0;0;251.4047;9.544467;5.481747;248.3636;245.4492;0.267963;-0.06738947;0;
182.3963;0;0;241.0322;7.458772;3.198941;197.2646;198.1013;0.07279173;-0.002354416;0;
56.08895;0;0;120.1631;3.16437;6.276819;73.37854;73.83958;0.007751239;-0.002352051;0;
-525.1753;0;0;-412.9397;-0.9246469;8.146034;-500.969;-500.9457;0.1376781;-0.002349687;0;
-654.8946;0;0;-580.4404;0.4828017;-1.976329;-632.1495;-629.6899;0.007605111;0.06262003;0;
-282.4235;0;0;-269.4507;-1.125274;-3.113054;-263.7616;-263.0537;0.00759747;-0.5871163;0;
-233.6016;0;0;-219.6423;-2.999177;-0.02883258;-212.897;-216.5001;0.2674592;-0.3916244;0;
-79.75655;0;0;-83.0527;-2.527649;-0.4307012;-62.38366;-66.0456;-0.05764625;0.1285079;0;
540.3869;0;0;441.9544;-5.941361;7.33963;549.1217;546.8377;-0.5123597;-0.06652327;0;
644.2289;0;0;538.3991;-6.471254;10.48033;654.7665;650.9857;-0.3819102;0.06347827;0;
225.1669;0;0;246.0673;3.716654;10.0679;241.0662;237.2267;-0.3165591;0.2583165;0;
167.0323;0;0;226.0175;7.262893;13.139;180.7292;180.6416;-0.121339;0.3879916;0;
56.6074;0;0;122.0301;6.853453;11.38424;72.47694;73.88869;0.2036196;-0.06716962;0;
-510.7893;0;0;-395.7074;8.923648;12.64548;-486.6898;-485.8417;-0.05645436;-0.5218735;0;
-659.2012;0;0;-580.4042;10.58864;15.31197;-635.6257;-632.9669;0.008569711;-0.00161041;0;
-282.9776;0;0;-269.0398;11.0475;16.10038;-264.6107;-263.2039;0.07352844;0.06335857;0;
-224.1602;0;0;-213.4847;13.1125;19.56731;-204.9996;-208.092;0.07345456;-0.0666398;0;
-90.68944;0;0;-96.95367;14.57319;20.21736;-74.73404;-77.26107;0.2033154;0.2582639;0;
535.462;0;0;429.879;4.444493;23.81412;543.0306;541.9429;-0.3166276;0.3229717;0;
653.6143;0;0;539.954;1.827083;25.73258;662.737;659.4015;-0.3812768;0.06277783;0;
221.0496;0;0;241.5612;4.571913;18.74074;235.3481;232.828;0.008910377;-0.1321873;0;
163.2315;0;0;222.2655;3.227172;17.44923;174.8918;176.997;-0.1860006;-0.1970218;0;
55.80888;0;0;118.5317;6.372738;16.49394;69.64393;72.12179;-0.1208464;-0.06688915;0;
-512.524;0;0;-399.577;6.566429;14.26705;-491.5815;-490.293;-0.0557576;-0.1967566;0;
-654.6249;0;0;-578.7103;7.899978;16.39605;-634.6404;-631.7915;-0.315571;-0.3264936;0;
-287.8387;0;0;-279.2165;7.959389;15.57578;-271.1851;-269.5259;-0.2502865;-0.4561002;0;
-228.0168;0;0;-227.087;9.692703;13.21585;-208.6314;-211.4717;-0.3150024;-0.3257073;0;
-79.86209;0;0;-94.17555;10.88841;11.66196;-63.05732;-66.5819;0.07511821;0.1293914;0;
532.4729;0;0;433.9037;0.6296935;11.51628;539.7031;537.6813;0.2699448;0.1942288;0;
641.3829;0;0;538.9772;-2.385049;9.763148;648.7307;644.7744;-0.2500652;0.3239683;0;
223.5106;0;0;243.4589;-0.5076185;8.681733;236.4108;233.0207;-0.1848466;0.6484795;0;
168.9384;0;0;223.9114;-1.846279;7.668265;179.4518;181.125;0.2051432;0.3229912;0;
61.82236;0;0;118.4269;-4.925883;1.230321;73.51212;76.12072;0.3998391;0.06279725;0;
-508.5781;0;0;-404.9291;-7.131736;-0.7134204;-488.2169;-487.2351;0.4644046;-0.00223321;0;
-659.2411;0;0;-587.0555;0.04272566;-3.257933;-638.5256;-635.6082;0.269036;0.3226058;0;
-283.5172;0;0;-273.1231;1.449202;-4.795267;-267.695;-265.4053;0.008896288;0.4522163;0;
-222.2005;0;0;-218.501;-1.499015;-2.847944;-205.5822;-207.9799;0.07385469;0.1269252;0;
-91.41784;0;0;-103.0269;-0.3594088;-3.179996;-78.50186;-81.70927;-0.1211215;0.191765;0;
529.0497;0;0;426.9978;-3.909021;4.392026;533.2071;532.2518;-0.4458365;0.1915723;0;
651.2689;0;0;539.7618;-4.307235;7.73676;656.4216;654.5302;-0.1855192;-0.1334569;0;
222.4547;0;0;240.1823;-4.235558;3.509183;233.5992;231.0851;-0.2503001;0.1915139;0;
165.2598;0;0;225.0109;-5.369402;3.57264;175.5186;176.6926;-0.1201139;0.2562888;0;
62.83267;0;0;126.1469;-0.8770043;8.056785;75.39246;77.37739;0.3347781;0.191064;0;
-502.8836;0;0;-392.1569;-0.8761231;8.852484;-481.7783;-482.2941;0.2694744;0.1259046;0;
-649.1796;0;0;-572.1097;0.4649039;4.489698;-627.3458;-627.049;0.3991383;-0.3289933;0;
-285.2723;0;0;-269.4991;0.7318805;3.681514;-268.0207;-267.7242;-0.1859688;-0.2636954;0;
-224.5786;0;0;-214.6933;-2.484036;-1.144834;-206.0949;-209.7967;-0.6405534;0.191341;0;
-79.55069;0;0;-85.85468;-2.950054;-4.157916;-63.52185;-68.34436;0.1396984;0.1261814;0;
531.3472;0;0;436.1567;-11.18611;-0.4697987;538.1146;534.109;0.2694927;-0.1338148;0;
645.8805;0;0;541.103;-15.05964;-1.072051;653.5156;647.5775;0.07431989;-0.1336803;0;
234.6879;0;0;253.7035;-9.819594;-2.34365;247.6252;242.755;-0.05568947;0.06135605;0;
177.7305;0;0;235.645;-9.877076;-2.274312;188.7808;188.1634;-0.1206008;-0.1336076;0;
61.73518;0;0;122.59;-13.2834;-3.410736;75.64787;75.59332;0.6591284;-0.4583101;0;
-505.1669;0;0;-398.7712;-12.66684;-3.608258;-484.0219;-485.0758;0.3985968;-0.1330129;0;
-651.3981;0;0;-580.4665;-11.58239;-2.599888;-632.0858;-631.577;0.07335955;0.06202282;0;
-279.3677;0;0;-271.4133;-10.29795;-2.664259;-265.5097;-265.4387;0.4630899;-0.1329415;0;
-214.432;0;0;-210.4211;-4.527806;-1.723821;-199.0886;-202.9532;0.2027552;-0.002873282;0;
-88.84207;0;0;-96.39188;-1.509146;-1.588123;-74.63853;-79.06147;-0.3821546;-0.1328051;0;
522.1901;0;0;422.4442;-0.2348321;-2.658254;528.2584;525.5891;-0.5766726;-0.3275737;0;
657.9094;0;0;544.3958;0.7034089;-3.057481;664.1591;660.4304;-0.3811912;-0.06737515;0;
236.5223;0;0;253.2448;7.400507;-2.652511;248.0755;244.7879;0.008995905;0.2575293;0;
170.6926;0;0;228.3777;9.536525;-1.980016;180.3602;180.1993;0.2688562;0.06236849;0;
68.88472;0;0;126.8866;1.55634;-5.662088;80.72894;81.13043;0.4634881;-0.2625309;0;
-503.0845;0;0;-394.9161;-0.1191873;-5.723382;-482.7565;-481.8557;0.2681204;-0.1323324;0;
-655.6271;0;0;-579.7387;-2.59829;-4.77987;-635.1945;-632.3581;-0.2518878;0.06270257;0;
-284.9043;0;0;-270.0616;-4.203269;-5.109982;-269.1775;-267.4683;-0.1217;0.3874763;0;
-221.5248;0;0;-211.3196;-8.686049;2.330137;-204.7517;-207.3546;0.1382917;0.5170216;0;
-78.74884;0;0;-83.54638;-10.55333;4.203317;-65.49088;-68.52843;0.07318536;0.1266981;0;
529.0248;0;0;436.4637;-5.786329;6.20846;532.7742;531.239;-0.05682286;-0.393168;0;
649.5574;0;0;543.3462;-4.977207;8.747573;654.4899;650.395;-0.2516678;-0.4577403;0;
244.2331;0;0;262.3163;-1.153813;3.514236;255.2202;250.942;-0.05651288;-0.002508937;0;
180.7695;0;0;242.8748;-0.1482758;3.37674;189.9964;189.9703;0.008511241;0.452265;0;
59.89854;0;0;124.6901;9.095274;1.765756;70.9902;71.90121;-0.121432;0.2569085;0;
-508.3136;0;0;-396.4234;13.64049;0.3573404;-489.1746;-488.8892;0.008624705;-0.198121;0;
-658.2272;0;0;-578.2459;0.7670333;2.098538;-639.2949;-637.6354;0.2035181;-0.392824;0;
-288.6887;0;0;-273.2554;-1.176121;0.9577191;-274.7729;-273.2401;0.3982156;-0.3274619;0;
-214.6232;0;0;-209.3878;-2.849878;3.100211;-198.7849;-200.5644;0.4627828;-0.2621655;0;
-80.41244;0;0;-93.17323;-7.468715;2.2933;-66.58897;-69.49117;0.07251375;-0.06700009;0;
528.8621;0;0;423.5982;-3.509095;3.362723;533.1765;531.5891;-0.1874285;0.06300192;0;
663.3254;0;0;544.2991;-5.58265;3.627276;668.4475;665.05;-0.05730547;-0.06699608;0;
234.749;0;0;243.0284;-8.858594;-4.146267;246.1752;242.7812;0.0726868;-0.001961417;0;
169.2334;0;0;219.4834;-8.983415;-6.285433;179.149;179.8188;0.3324831;0.1279753;0;
83.16904;0;0;136.1172;-19.35686;-10.49904;94.57387;95.11811;0.3321491;-0.06705537;0;
-489.0645;0;0;-384.6954;-21.61459;-13.77053;-470.3622;-470.8805;0.2018806;0.0629467;0;
-654.1148;0;0;-580.7726;-19.78421;-12.01514;-635.9937;-633.5129;0.006775742;0.1278508;0;
-282.7064;0;0;-272.1563;-21.30555;-14.07954;-268.7888;-266.5605;-0.05819841;-0.002212373;0;
-217.5175;0;0;-211.4133;-11.77232;-9.84559;-201.5524;-203.5741;0.006827412;-0.1321448;0;
-81.30477;0;0;-86.88834;-9.951831;-8.696986;-67.29227;-70.249;-0.1880815;-0.06704471;0;
525.0347;0;0;432.9377;-3.311375;-12.43917;530.9122;529.1453;-0.1229251;-0.1319447;0;
652.9426;0;0;545.8832;2.184309;-11.02003;659.3764;655.4249;0.007133053;-0.2617468;0;
254.0492;0;0;271.0975;-14.5624;-15.22888;265.5989;262.2761;-0.1228088;0.258255;0;
189.5137;0;0;252.147;-18.36616;-15.07961;199.4277;201.1057;-0.1876527;0.5178648;0;
68.3216;0;0;133.7031;-7.965229;-12.72006;80.41203;82.58809;-0.2524315;0.1275404;0;
-499.899;0;0;-388.2315;-8.292018;-12.90823;-479.8872;-478.213;-0.1222432;0.1274123;0;
-653.819;0;0;-576.2466;-10.76193;-1.910299;-635.0767;-631.2803;-0.1870877;0.452121;0;
-284.7848;0;0;-271.1957;-9.210877;1.440645;-271.4336;-268.1407;-0.3818018;0.3866993;0;
-215.7207;0;0;-207.4551;-17.84279;0.9033341;-200.4464;-200.78;-0.2514834;-0.003493297;0;
-94.00248;0;0;-97.7392;-18.69551;2.911914;-80.99242;-83.07487;-0.2512307;-0.06845713;0;
513.9739;0;0;417.7249;-14.32247;-1.042883;518.7875;517.1445;-0.186011;-0.1333557;0;
664.2567;0;0;547.7397;-15.84832;-2.247527;670.5647;666.7993;0.20398;-0.3281237;0;
248.9227;0;0;261.8952;2.453332;-3.316996;260.5966;256.7726;0.2687424;-0.132892;0;
181.8936;0;0;242.8915;7.875875;-4.653322;191.4319;192.3593;-0.1213317;-0.002823774;0;
88.8825;0;0;150.5687;0.1657777;-9.672244;99.84801;101.7115;-0.1861771;-0.1327556;0;
-498.9739;0;0;-387.6247;2.241716;-12.14077;-479.3362;-477.5371;0.008911964;-0.2625569;0;
-679.6314;0;0;-601.1901;-7.941942;-10.65507;-658.7017;-655.1552;-0.05606433;-0.2622931;0;
-302.013;0;0;-289.9297;-11.81873;-11.91692;-286.2892;-284.1206;-0.1209753;-0.1320949;0;
-231.9321;0;0;-224.9834;-7.922087;-9.158765;-215.3495;-217.3685;-0.1858211;-0.06699479;0;
-104.0757;0;0;-107.941;-9.253297;-9.350512;-89.75867;-93.08746;-0.1206671;0.06300723;0;
516.9667;0;0;419.7148;-14.53626;-5.322262;521.8991;519.8231;-0.05557848;-0.002023435;0;
667.8087;0;0;549.7899;-17.33469;-2.503631;673.6107;669.6627;-0.315392;-0.3268581;0;
266.2142;0;0;276.9369;-11.62385;-11.34262;277.4451;273.8759;0.009761613;-0.2615623;0;
195.9819;0;0;254.2948;-12.41548;-11.46519;204.8902;206.1346;0.5294905;-0.1313648;0;
74.65836;0;0;137.7853;-6.977993;-11.98953;85.9315;87.73687;0.2690891;-0.1312328;0;
-504.563;0;0;-390.2129;-3.755801;-12.64731;-484.743;-483.814;0.4637208;-0.131101;0;
-666.4744;0;0;-588.4084;-17.61713;-7.142126;-647.8612;-643.8098;0.2683528;-0.455806;0;
-295.6783;0;0;-284.2198;-19.80925;-6.599086;-282.2062;-279.0334;-0.5115249;-0.3903806;0;
-221.106;0;0;-215.4062;-18.65125;2.918877;-206.5231;-208.1635;0.00872778;-0.4549557;0;
-88.45043;0;0;-94.62533;-20.90968;7.470662;-77.19296;-78.83171;0.3335557;-0.3895312;0;
515.3975;0;0;423.7717;-15.32897;1.032916;518.2104;517.2604;-0.1865182;0.0006642324;0;
658.8073;0;0;550.5945;-14.30919;2.304554;663.6163;659.9187;-0.5111675;-0.1292711;0;
253.0364;0;0;267.9955;-16.90678;1.230511;264.5872;261.518;-0.1858171;-0.3240432;0;
179.0067;0;0;236.0546;-17.35928;0.6264281;188.2346;189.229;-0.05569574;-0.2587503;0;
75.37886;0;0;132.307;-11.78213;4.778618;85.22218;86.96513;-0.1855745;-0.583327;0;
-497.5964;0;0;-388.6892;-9.224699;6.180459;-478.9549;-478.3381;0.3343507;-0.5177735;0;
-666.8236;0;0;-588.6354;-18.32511;2.557292;-647.5137;-646.0229;0.009178071;-0.2573839;0;
-288.9057;0;0;-274.9513;-19.64587;1.683944;-274.3628;-273.6232;-0.5105699;0.06771142;0;
-210.6546;0;0;-200.3374;-12.92832;8.179475;-194.6271;-197.4489;0.1396165;0.1975781;0;
-86.25536;0;0;-88.87954;-10.16964;8.640137;-73.42982;-76.7486;-0.1853604;0.06744485;0;
514.2795;0;0;422.5777;-16.45509;10.7078;517.472;516.218;-0.5100109;0.002409729;0;
659.8768;0;0;548.5895;-16.77334;12.23765;663.8782;660.564;-0.1196944;0.132342;0;
256.4787;0;0;265.3055;-7.111923;3.517818;266.598;262.475;-0.05460678;0.2621437;0;
178.0728;0;0;234.2419;-6.501565;1.236864;187.6821;188.9356;0.1403501;-0.2578584;0;
67.82416;0;0;129.3091;6.298342;-0.1710206;79.54779;83.36124;0.2051764;-0.582436;0;
-492.5249;0;0;-382.5636;12.25386;-3.385907;-474.6286;-472.0059;-0.1198664;-0.2570141;0;
-655.8226;0;0;-578.0807;-1.824624;0.2344511;-638.9438;-635.5742;-0.119746;-0.1268212;0;
-292.471;0;0;-279.5246;-1.62172;0.5691301;-280.4193;-277.5527;0.07527635;-0.3865631;0;
-215.1533;0;0;-209.5288;-7.247145;-7.000269;-201.6145;-202.5614;-0.1846686;-0.7110114;0;
-85.31478;0;0;-92.56446;-10.58877;-9.069706;-73.97593;-76.04632;-0.3793851;-0.1905582;0;
512.4705;0;0;422.2698;-3.41083;-4.505876;515.3647;514.4833;-0.3140366;0.3943393;0;
655.2585;0;0;549.1565;-3.608474;-5.104194;658.8995;655.895;-0.4436557;0.2640084;0;
253.989;0;0;264.4975;-0.7244595;-3.022595;261.9366;258.6853;-0.2483079;0.5885798;0;
190.703;0;0;244.804;-0.1878681;-2.282745;197.0184;197.8933;0.1417457;0.7828904;0;
90.68653;0;0;147.0446;4.500394;-6.098357;98.99461;101.8676;0.1416032;0.1973977;0;
-487.3016;0;0;-383.2117;6.505604;-6.226195;-470.8185;-468.3232;0.2064283;-0.3875067;0;
-663.5981;0;0;-591.4093;0.06870547;-11.24354;-647.2565;-643.8892;0.01131884;-0.06228063;0;
-289.2441;0;0;-284.7189;-0.8693686;-13.30871;-278.8535;-276.1767;-0.1186272;0.1976513;0;
-212.6169;0;0;-213.4685;-5.422846;-11.68775;-200.7374;-201.4991;0.1413614;-0.127384;0;
-91.77638;0;0;-101.6226;-7.493503;-13.28359;-81.40809;-83.23093;0.01128463;-0.06228865;0;
518.4467;0;0;417.2812;-11.70651;-8.715528;519.7466;518.4878;-0.05369405;-0.3220954;0;
672.473;0;0;552.1689;-15.11002;-7.367113;673.7717;670.89;0.2062293;-0.5166738;0;
258.9424;0;0;267.7567;-8.06224;-11.17762;265.612;263.92;0.4009241;-0.3212526;0;
182.6579;0;0;241.4383;-7.450927;-10.63064;188.946;191.1288;0.2705865;-0.1909952;0;
89.02132;0;0;150.6162;-8.984657;-12.62933;97.86431;100.1699;0.07541262;0.1340335;0;
-481.8437;0;0;-371.96;-9.243073;-13.1525;-465.9507;-464.0847;0.2702389;0.4587355;0;
-664.9548;0;0;-588.2274;-4.008873;-9.924226;-649.9523;-646.0892;0.2699673;0.5882093;0;
-295.597;0;0;-284.9135;-1.125433;-9.311407;-285.607;-282.8097;-0.2500426;0.1978142;0;
-213.3411;0;0;-208.6029;-11.97529;-8.163342;-202.2368;-203.4403;-0.1198567;-0.1921887;0;
-88.12711;0;0;-93.95082;-12.90029;-7.552292;-78.72055;-80.42262;0.4649698;-0.3219302;0;
516.2202;0;0;421.7594;-12.68723;-6.138062;517.434;516.9829;0.1396659;-0.5165088;0;
665.1888;0;0;551.7076;-14.2811;-5.79698;666.8386;664.0143;-0.1853112;-0.1911531;0;
254.7265;0;0;267.2334;-5.62656;-7.934609;262.0592;259.2377;-0.0551903;-0.385863;0;
185.6301;0;0;244.2263;-4.080665;-9.400261;191.1439;193.885;0.009832498;-0.51541;0;
89.17949;0;0;147.4045;0.6124842;-9.055901;96.62428;99.79984;0.07478996;0.06981397;0;
-489.2444;0;0;-384.7262;4.898777;-9.716631;-473.4363;-472.7002;0.3345842;-0.06019087;0;
-670.5989;0;0;-599.7314;-2.943027;-15.73509;-655.4314;-652.5721;0.3992153;0.3296737;0;
-302.4848;0;0;-296.8432;-2.672626;-17.12592;-293.0172;-289.8484;0.1389448;0.4592771;0;
-225.7193;0;0;-224.5186;-0.5264868;-20.32389;-215.0742;-214.9072;0.07383787;-0.06092313;0;
-101.5548;0;0;-111.6622;-0.5923306;-22.11189;-92.35721;-93.12733;0.2036984;-0.1907966;0;
514.9249;0;0;411.3747;3.293031;-15.39162;515.5551;514.6608;0.073559;-0.1256375;0;
674.7644;0;0;551.2034;4.829963;-13.50063;674.4569;671.3146;0.2683871;-0.06054396;0;
258.4828;0;0;263.4814;4.82511;-11.34361;262.9857;259.8466;0.3980521;0.06945157;0;
187.6336;0;0;239.4785;5.758267;-8.318104;190.945;192.3693;-0.1870539;0.3292511;0;
97.99002;0;0;150.9698;6.555788;-7.171036;103.547;105.9693;-0.3168007;0.1340183;0;
-480.7551;0;0;-376.0421;5.879615;-5.221447;-466.2082;-465.475;0.07332172;-0.06101841;0;
-667.8652;0;0;-590.119;10.42904;-3.206713;-653.3954;-650.6639;0.07324805;0.1989123;0;
-300.0037;0;0;-287.053;11.08814;-2.801593;-290.9208;-288.6293;0.07317445;0.06877773;0;
-218.3681;0;0;-214.301;3.039048;-0.5883415;-207.6702;-210.3785;0.2030356;-0.1261934;0;
-92.46191;0;0;-100.018;0.02188425;-0.4537844;-84.33588;-87.47875;0.1378643;-0.06109927;0;
513.389;0;0;417.9471;-2.121592;-5.409944;512.1366;511.3707;-0.0571763;-0.3858746;0;
667.6078;0;0;553.1465;-5.200919;-7.146064;666.3567;662.9679;-0.2520209;-0.1905848;0;
264.2645;0;0;269.7329;-7.540217;-10.95679;267.6997;263.5022;0.1380364;0.2643781;0;
189.7238;0;0;237.353;-8.93916;-13.02225;192.0936;192.7104;0.5277017;0.1991451;0;
85.64784;0;0;134.1663;-13.48453;-14.95167;90.76391;92.9418;0.2673022;0.3288797;0;
-483.902;0;0;-386.7693;-14.8775;-16.07524;-470.5452;-469.3065;-0.05780314;0.2635819;0;
-660.5767;0;0;-591.2776;-10.44192;-13.58084;-647.2333;-644.1843;-0.3825818;-0.2564217;0;
-294.7215;0;0;-288.8977;-9.427052;-12.62943;-286.3266;-284.0302;-0.05736064;-0.1911967;0;
-214.528;0;0;-215.6441;-4.862252;-7.526157;-204.7672;-206.6586;0.137599;0.1987994;0;
-93.37327;0;0;-104.3583;-2.245398;-4.102588;-86.12101;-87.94802;-0.1873759;0.263567;0;
513.2282;0;0;411.9247;-0.1670367;-4.299414;511.5402;511.4641;-0.05725298;0.003432814;0;
675.2558;0;0;554.0641;2.512448;-2.955435;674.3815;671.7443;-0.1221628;0.1333641;0;
261.3475;0;0;266.5266;0.6348898;2.606996;266.2837;263.2744;-0.12204;0.3930994;0;
185.8727;0;0;237.5233;1.90705;3.944035;189.0548;190.7961;-0.1219174;0.002900372;0;
104.5392;0;0;158.1369;-2.650194;3.806106;108.3428;112.2063;0.008139765;0.1328322;0;
-474.3374;0;0;-369.8192;-5.125778;4.874009;-462.6041;-459.9314;0.3329683;0.5225027;0;
-672.7608;0;0;-598.9573;3.252117;-6.249812;-660.6645;-656.6826;-0.05717032;0.002238974;0;
-296.8984;0;0;-290.0104;3.650991;-10.79825;-290.0616;-286.2711;0.1377891;0.06720408;0;
-211.0181;0;0;-214.4444;-0.03637258;-6.098716;-202.8138;-203.0252;0.5274547;-0.06279814;0;
-97.48801;0;0;-114.8413;-1.04169;-8.102076;-92.04063;-92.814;-0.05778132;0.002232297;0;
511.304;0;0;408.6985;-1.107016;-9.902474;507.3131;507.7899;-0.38256;0.5219688;0;
676.2695;0;0;555.089;-1.039531;-9.959507;673.657;671.8845;-0.1223062;0.001705577;0;
269.2318;0;0;270.3616;-8.94174;-14.03534;272.3065;271.5352;0.2026534;0.001703863;0;
195.3732;0;0;244.103;-11.27728;-13.88727;197.1331;200.423;0.007547747;0.3915062;0;
97.85086;0;0;147.8435;-9.390915;-12.33271;101.2955;104.7071;-0.05742718;-0.06365858;0;
-465.9641;0;0;-367.6086;-10.72065;-11.44954;-455.6513;-452.8054;0.2674672;0.06634008;0;
-643.2816;0;0;-574.6974;-3.877374;-5.141758;-632.1671;-627.8247;0.07229646;0.3911101;0;
-293.3732;0;0;-287.7639;-1.060439;-3.060243;-286.7052;-283.3667;0.07222381;0.1958151;0;
-212.7438;0;0;-213.9492;-6.485357;4.042901;-205.3328;-206.2456;0.2670533;0.130651;0;
-84.40696;0;0;-95.04388;-6.880982;8.057693;-79.06488;-81.53844;0.006915562;0.0005850458;0;
512.253;0;0;414.7954;-0.7111503;4.566606;508.3443;507.1851;-0.1879934;-0.1293502;0;
680.5284;0;0;556.3073;-0.04085041;6.839315;676.6237;673.4667;0.3319342;-0.3890896;0;
273.9861;0;0;275.0144;-1.514678;0.06728857;276.3947;272.6786;0.5914701;-0.3886987;0;
188.3163;0;0;241.8796;-1.378458;-2.210077;190.2851;191.6327;-0.05879767;0.3263327;0;
108.0423;0;0;160.3024;-7.472642;4.624281;111.8207;115.041;-0.51351;0.3909721;0;
-470.7754;0;0;-366.7188;-9.407516;4.485669;-458.8174;-457.0995;-0.12319;-0.6488982;0;
-680.5717;0;0;-604.3557;-7.991544;7.562254;-668.4382;-665.1605;-0.05809883;-0.4533442;0;
-300.8908;0;0;-293.4044;-6.845414;9.430178;-294.5167;-291.8044;-0.1230078;0.0668501;0;
-209.1969;0;0;-205.9035;-18.49283;6.875351;-202.0796;-203.0557;0.007050485;-0.1930865;0;
-102.2903;0;0;-110.4944;-24.70354;8.275084;-97.24162;-98.52907;-0.05792394;-0.06295776;0;
513.1281;0;0;404.7951;0.9080272;5.989349;508.9265;508.9521;0.07206894;-0.1278618;0;
687.9619;0;0;557.2491;4.59081;5.380485;683.7645;681.8536;0.007029188;-0.06276602;0;
273.4786;0;0;274.2686;-3.450778;11.20247;274.5327;273.0611;-0.3178146;0.1321991;0;
188.9337;0;0;239.3229;-1.170136;12.26294;188.3626;191.0153;-0.3824626;0.06709891;0;
94.10394;0;0;145.8793;-18.24924;11.51381;95.03262;99.2444;-0.2521436;-0.06290321;0;
-466.7712;0;0;-367.8216;-23.58954;11.10034;-457.5352;-454.3896;0.007979122;-0.1278073;0;
-655.2698;0;0;-584.0306;-19.48;15.17515;-645.4183;-640.964;-0.1869309;0.00225576;0;
-301.7887;0;0;-290.1537;-21.33546;16.83435;-296.3199;-292.3074;-0.3166778;-0.06271385;0;
-211.0309;0;0;-207.1538;-22.25203;7.373085;-204.2558;-204.4952;-0.2513922;-0.1276182;0;
-86.56882;0;0;-94.12734;-22.0286;5.557137;-82.36171;-84.03764;0.008729733;-0.2574246;0;
513.9664;0;0;415.5861;-18.79128;4.881846;509.4236;508.2491;0.3335577;-0.3871006;0;
679.429;0;0;556.285;-17.90174;2.599522;675.3906;672.5931;0.1383205;-0.451679;0;
267.5155;0;0;270.432;-5.02401;8.089388;268.9159;267.1207;0.008246816;0.06851356;0;
185.7252;0;0;236.5522;0.8091636;8.885055;185.5625;187.9545;0.2031406;0.3932814;0;
102.5178;0;0;152.7315;-5.42094;9.947854;104.4792;107.431;0.3328711;-0.4516892;0;
-467.5487;0;0;-364.8494;-3.071945;12.48309;-457.0936;-456.0188;0.1376346;-0.6461374;0;
-670.1019;0;0;-592.743;-6.685204;5.839356;-659.9071;-657.1467;-0.317275;0.1990873;0;
-299.1772;0;0;-287.2382;-7.750214;3.824123;-294.3025;-291.8572;-0.2519889;0.06895261;0;
-206.9852;0;0;-205.4905;-4.527246;13.93446;-200.2414;-201.6716;0.07310098;-0.1909861;0;
-105.3283;0;0;-116.7036;-5.05856;14.65727;-99.96549;-101.7691;0.07302754;-0.3207288;0;
501.0978;0;0;399.5292;-0.7665695;13.16892;497.3348;496.9073;-0.2518826;-0.5153086;0;
685.6263;0;0;560.0469;1.444027;14.09345;681.1799;678.4415;-0.05672744;-0.1249868;0;
269.8335;0;0;270.3795;-4.116153;5.773524;271.2012;268.4655;0.5280356;-0.2547958;0;
181.5441;0;0;235.6251;-4.9163;4.160254;181.7235;183.6757;0.2026684;-0.2545398;0;
101.5893;0;0;158.2397;1.11686;0.4050301;102.2058;105.4679;-0.05740465;0.525324;0;
-457.7941;0;0;-358.4097;1.249459;-2.877419;-450.4941;-448.1723;0.4623918;0.1999595;0;
-653.2982;0;0;-590.058;5.535111;5.36413;-645.7556;-640.75;0.5918618;-0.1250782;0;
-300.1938;0;0;-298.9236;8.611009;5.961586;-297.0942;-291.6563;0.3313978;0.4597536;0;
-209.75;0;0;-214.2282;-2.449705;7.496203;-206.4661;-205.5314;-0.05873928;0.2643896;0;
-86.22626;0;0;-104.8803;-3.385249;9.699107;-85.75668;-85.82245;-0.3185496;-0.06071275;0;
513.1841;0;0;406.718;-2.711286;4.1299;505.1575;506.3412;0.1365418;-0.1256191;0;
685.4566;0;0;556.0466;-4.517223;2.786092;677.2507;676.3092;0.201372;-0.06052553;0;
276.723;0;0;269.4441;5.332953;6.400249;273.3978;273.0195;0.1362023;-0.06046471;0;
189.2388;0;0;232.3794;7.337326;5.924937;184.1678;187.9753;0.3959348;0.004563386;0;
108.4017;0;0;153.8103;5.521293;2.569959;103.898;108.139;0.005732935;0.6542322;0;
-455.2365;0;0;-358.0871;5.583094;1.02677;-453.0515;-450.1891;0.07069451;0.1338361;0;
-662.0499;0;0;-594.983;9.797043;-2.524235;-659.7421;-656.0081;0.3304929;-0.6459064;0;
-301.0658;0;0;-303.5313;12.60024;-5.000068;-303.5704;-301.3394;0.1352587;0.004415956;0;
-202.9374;0;0;-211.0852;-1.210175;-4.325214;-206.5015;-207.3337;0.07015549;0.3292482;0;
-92.53892;0;0;-112.2352;-3.08497;-4.990697;-100.972;-101.4909;-0.2547517;0.2639501;0;
512.0002;0;0;397.1841;-1.942794;-8.736605;493.8306;493.7494;-0.1895284;0.1987175;0;
697.6422;0;0;558.4537;-3.548432;-10.0005;678.991;676.9734;0.4603355;-0.06135155;0;
277.0898;0;0;264.4151;4.090944;-6.239409;264.0795;263.1884;0.5898076;-0.1912246;0;
187.6686;0;0;222.358;4.355253;-4.960586;173.547;176.4049;0.06947622;-0.2559998;0;
120.2014;0;0;151.4825;14.19651;-7.768763;106.4063;110.1358;0.004439074;0.06909417;0;
-446.0723;0;0;-363.9107;17.46478;-8.296821;-454.981;-450.9428;0.264304;0.06902475;0;
-656.5806;0;0;-603.0496;13.96363;-2.528074;-667.1669;-661.5711;-0.0607983;-0.1259466;0;
-299.0377;0;0;-311.4649;16.36147;-1.654755;-313.7989;-309.7079;-0.4505413;-0.06085275;0;
-209.3447;0;0;-227.2567;-0.7352495;-2.992751;-223.8411;-224.0646;-0.1252518;0.1341104;0;
-90.94373;0;0;-121.0191;-6.629009;-3.056727;-110.2981;-111.1461;0.00480869;0.1339757;0;
513.4064;0;0;400.403;-0.7951988;-4.862195;483.8891;484.1039;-0.3850002;0.06887371;0;
690.114;0;0;557.4215;-3.942232;-4.455411;661.6258;660.0288;-0.05977663;0.003837153;0;
283.9993;0;0;263.259;-1.191604;-12.55563;262.0365;261.0658;0.1351855;-0.1261014;0;
196.8826;0;0;219.8911;-0.7892413;-14.68646;171.631;174.5344;-0.1897871;-0.190942;0;
118.5366;0;0;144.2706;-3.868931;-10.45178;92.56071;95.89843;-0.05966171;-0.1257828;0;
-441.3012;0;0;-365.6181;-3.731322;-10.97714;-460.1295;-457.7946;0.1353003;0.004278251;0;
-649.8152;0;0;-604.3181;-2.655845;-2.392542;-669.9365;-665.605;-0.05973771;-0.1906281;0;
-291.8419;0;0;-314.044;-2.050941;1.159836;-317.6901;-313.7377;-0.4494817;-0.3203712;0;
-193.2856;0;0;-224.086;-0.6413841;-1.386559;-217.6085;-218.0954;-0.3190954;-0.06017993;0;
-80.64788;0;0;-123.8486;1.166945;-0.1126124;-107.9449;-108.8061;0.006061929;-0.3849562;0;
517.6949;0;0;392.7038;-0.4418175;2.432852;480.6178;481.2567;-0.1238788;-0.6444387;0;
700.3327;0;0;558.6006;0.8314242;3.234203;663.4178;662.057;0.2660497;0.005882217;0;
286.8365;0;0;260.189;0.9652867;1.355431;255.4559;254.0965;0.005912984;0.525615;0;
196.3436;0;0;211.452;0.4948262;1.354069;162.4333;165.2607;-0.6437663;0.005348166;0;
131.3664;0;0;144.7729;9.470286;-2.599163;96.05341;100.8145;-0.05841344;-0.1245919;0;
-427.7346;0;0;-365.3038;11.06836;-3.467329;-457.39;-453.3833;0.3314493;0.395272;0;
-641.5097;0;0;-605.4408;11.32468;-2.860999;-672.1347;-666.8827;0.3311163;0.2649402;0;
-286.5432;0;0;-313.9162;12.71982;-2.657175;-322.947;-318.325;0.5256856;0.3946087;0;
-198.1121;0;0;-233.7034;2.258193;0.09167311;-232.9176;-232.7979;0.46019;0.4591795;0;
-87.28112;0;0;-135.7677;-1.762564;0.6944274;-122.9887;-123.0566;0.1348909;-0.06102064;0;
518.0024;0;0;388.3553;-0.2879007;8.128713;474.5845;476.2659;-0.06014664;0.1989101;0;
702.0766;0;0;556.5679;-3.168;10.33086;659.2646;658.6954;0.004881131;0.5235469;0;
292.4517;0;0;263.5931;-5.977855;11.59315;254.118;254.7363;0.06984357;0.3281188;0;
201.8907;0;0;213.166;-7.378368;13.59099;159.2852;164.9628;-0.2550633;0.002952398;0;
126.6006;0;0;133.1794;-14.26983;5.941406;82.47617;88.273;-0.1248723;-0.3218873;0;
-430.4342;0;0;-375.6363;-18.00654;4.060036;-467.143;-463.7258;0.2000898;-0.1266618;0;
-642.8322;0;0;-610.6405;-8.61132;2.448366;-677.8799;-672.5296;0.1349214;0.3282368;0;
-292.4871;0;0;-321.422;-7.32987;0.4364178;-332.8719;-326.5275;-0.1250835;0.3279071;0;
-203.1754;0;0;-245.512;-10.60406;0.3689964;-244.2068;-241.1171;-0.1899251;0.3275776;0;
-103.2714;0;0;-158.6214;-9.320606;0.5025914;-145.9482;-144.2984;-0.2547016;0.3272484;0;
508.8372;0;0;372.3961;-11.58939;-1.708228;458.5197;460.6676;-0.124511;-0.1928192;0;
719.6572;0;0;558.928;-10.37132;-2.309358;669.2653;669.6619;0.3303854;-0.2575928;0;
306.1416;0;0;265.7635;-13.97822;7.271277;261.6724;262.6933;0.07018411;0.0675028;0;
211.6314;0;0;222.7054;-15.63912;9.809322;166.3322;172.2247;-0.1897558;0.002467616;0;
149.6373;0;0;158.7637;-3.298544;13.34944;105.5081;112.2691;0.005336918;-0.06250221;0;
-419.9768;0;0;-358.6358;-0.2811197;17.35488;-457.44;-451.6228;-0.2545378;-0.1274067;0;
-644.8791;0;0;-608.1499;0.3223752;9.031802;-683.9913;-675.4937;-0.1893147;-0.1272787;0;
-283.0377;0;0;-315.0608;4.54161;7.750051;-328.9196;-319.8684;0.2006796;-0.06218349;0;
-189.4252;0;0;-230.8489;-3.433556;10.35448;-234.8862;-229.7171;0.2654453;-0.06212101;0;
-89.59742;0;0;-141.0995;-3.899597;8.334706;-135.8249;-131.9104;-0.1246255;-0.1270259;0;
517.4375;0;0;383.3413;2.869476;11.00553;463.1981;468.7953;-0.3194023;-0.3218003;0;
714.5058;0;0;558.4304;3.067663;11.12843;660.3209;663.7885;0.005755337;-0.1265749;0;
302.1823;0;0;262.5178;10.49932;3.816357;255.0482;257.5754;0.2006516;-0.06148043;0;
207.4261;0;0;215.8398;13.90502;2.070966;159.8397;166.4872;0.005547938;-0.126386;0;
138.2523;0;0;145.0959;4.581276;0.1933626;91.02608;97.85433;-0.1893597;-0.126259;0;
-419.169;0;0;-364.2939;1.762658;-2.352061;-459.851;-454.7163;-0.05923471;-0.1910995;0;
-635.5139;0;0;-607.493;10.3347;3.611661;-677.4044;-669.8385;0.1357268;-0.06097277;0;
-281.9901;0;0;-320.589;9.855803;4.74662;-331.2724;-322.902;0.1355905;0.004055834;0;
-181.882;0;0;-227.2511;3.281817;0.0531674;-230.49;-225.6263;-0.05944781;0.06901912;0;
-75.93988;0;0;-128.6347;1.537207;-0.2148177;-124.624;-120.8896;-0.1893228;0.1988844;0;
511.841;0;0;383.7371;-4.962048;1.326006;455.8345;460.2523;0.005769498;0.06874993;0;
703.9799;0;0;557.0142;-6.430931;1.25769;647.1551;649.8818;-0.1891383;-0.1911885;0;
303.2236;0;0;261.7901;-9.706022;1.859273;250.329;253.2403;-0.4488176;-0.2559638;0;
204.2185;0;0;203.0565;-8.892962;1.991371;150.1902;157.0341;0.07137206;0.1340975;0;
136.2349;0;0;137.073;-6.806946;1.654455;84.50967;93.78303;0.5260717;0.5887341;0;
-416.062;0;0;-361.1269;-4.992421;2.255639;-456.241;-448.2263;0.2007064;0.3932405;0;
-640.2809;0;0;-605.3911;12.76344;-0.4258228;-676.2967;-668.2276;-0.3842013;0.2629107;0;
-282.0049;0;0;-313.1794;18.44404;-0.4923779;-325.4182;-317.4821;-0.1239459;0.3276139;0;
-180.4599;0;0;-224.659;34.16564;-0.2910564;-226.8906;-223.5227;0.006113325;0.002447992;0;
-89.07443;0;0;-147.5344;44.37909;-0.8265054;-141.5804;-139.5902;-0.2537622;-0.1274891;0;
514.6492;0;0;371.4156;28.12585;3.260162;449.5773;452.9398;-0.05860518;0.06754099;0;
724.8386;0;0;559.5101;28.03024;2.854989;659.2075;660.5676;0.2662904;0.1974078;0;
307.8195;0;0;256.475;28.60529;7.808735;248.9385;251.1718;0.2660229;0.1322421;0;
205.8114;0;0;201.1824;27.03533;9.475462;146.4273;153.281;0.1358209;-0.1277601;0;
141.8866;0;0;141.5102;20.77887;-0.04551347;85.93549;93.28207;0.005749706;-0.3225338;0;
-415.6633;0;0;-364.7526;16.33736;-1.920868;-462.063;-456.1605;0.200646;-0.1273077;0;
-634.3855;0;0;-613.0112;22.61759;-4.732221;-681.6131;-673.5302;0.005542319;0.1326896;0;
-283.8614;0;0;-327.2885;19.91554;-6.4689;-338.5378;-329.0887;-0.4492346;0.002621584;0;
-188.9987;0;0;-237.7545;28.13358;-11.68695;-243.87;-238.1161;-0.1239465;-0.1273157;0;
-79.48878;0;0;-139.6273;30.38346;-15.69406;-135.3669;-131.243;0.2010147;-0.06222047;0;
515.8544;0;0;381.1263;15.95197;-3.420778;453.4107;457.9678;-0.05905664;0.06777675;0;
709.1136;0;0;559.2162;12.58606;-1.541818;648.4194;649.6611;-0.188932;0.1976433;0;
311.788;0;0;267.8629;8.287482;-5.626106;258.1512;258.7045;0.1360946;0.002542702;0;
214.1486;0;0;212.3091;3.121592;-5.218677;160.1909;164.929;0.2009252;-0.1923619;0;
143.5313;0;0;141.9435;4.726046;-6.017107;89.94017;95.7355;-0.1241134;0.002733433;0;
-405.3371;0;0;-361.3212;3.849664;-6.078043;-453.752;-449.3368;-0.1889561;0.1326654;0;
-630.0667;0;0;-612.2069;-5.79877;-10.1579;-680.182;-674.7717;-0.2537335;0.002597383;0;
-274.2995;0;0;-321.55;-7.936397;-11.01834;-329.362;-324.5819;0.1363254;0.1325295;0;
-173.5744;0;0;-227.2742;1.314978;-15.16022;-228.0193;-226.7423;0.2661231;0.262331;0;
-88.56764;0;0;-149.9595;5.666937;-17.82418;-146.5186;-145.4302;-0.1239483;0.1321327;0;
513.4063;0;0;368.1183;-0.2332548;-7.558123;444.7065;448.6049;-0.1887911;0.06703261;0;
728.9069;0;0;563.1502;-1.036328;-4.469436;660.526;663.5459;-0.123634;0.1968999;0;
309.8847;0;0;263.4222;21.26991;-10.22536;251.9423;253.7098;-0.1235098;0.1967021;0;
203.2518;0;0;205.8738;26.33875;-9.612234;146.9918;152.0059;0.006548963;-0.258267;0;
155.5714;0;0;155.6921;24.03511;-3.775182;98.86821;105.0642;-0.253327;-0.3229748;0;
-394.496;0;0;-351.2097;27.82838;-2.230782;-446.7069;-441.6416;-0.4479745;0.4569578;0;
-626.7952;0;0;-611.4758;13.93531;-3.099318;-681.5148;-675.2053;-0.2526223;0.2615966;0;
-269.8445;0;0;-318.6957;12.78321;-4.167931;-331.0684;-325.015;-0.1224338;-0.3233723;0;
-175.1208;0;0;-231.1068;2.38789;-0.8815795;-235.9084;-233.3593;-0.2522455;-0.06317799;0;
-78.30589;0;0;-146.1047;-3.307936;-1.751472;-141.781;-140.1716;-0.3819267;0.001852835;0;
527.5933;0;0;378.0287;9.35504;-8.045985;456.2484;458.5434;-0.05670621;-0.1930511;0;
727.4624;0;0;559.0577;8.005493;-10.31532;657.1263;658.2321;0.07328545;0.002044952;0;
321.1228;0;0;264.1439;23.80493;-20.28517;256.2921;258.7711;-0.05672287;0.06701025;0;
218.8514;0;0;208.7187;30.0103;-24.75252;153.711;160.3105;0.2032035;-0.1279591;0;
148.7292;0;0;140.6681;21.40731;-25.79925;85.65322;92.24602;0.5928034;0.2619735;0;
-399.2699;0;0;-361.5959;24.26521;-28.45265;-455.0361;-450.2615;0.5272404;0.7164817;0;
-628.1285;0;0;-615.2299;14.0604;-23.93632;-684.3384;-677.4447;-0.1229628;0.390925;0;
-271.8636;0;0;-326.0067;10.96481;-22.37167;-334.3264;-326.1902;-0.5126433;-0.5190105;0;
-169.3293;0;0;-232.9758;13.76684;-19.26809;-231.9167;-227.0996;-0.1872915;-0.8433257;0;
-94.50922;0;0;-162.7144;11.14103;-15.63165;-157.9707;-154.4078;-0.05716863;0.002097061;0;
509.3448;0;0;357.3128;17.76127;-11.53011;439.8875;445.0086;-0.6418173;0.4568664;0;
737.593;0;0;562.3505;19.81953;-6.829842;669.1426;671.8223;-0.576205;0.1315706;0;
322.8724;0;0;264.4974;11.89539;-7.559792;258.6762;259.9164;0.1390147;0.06647105;0;
221.5363;0;0;204.3242;10.14212;-5.877622;153.9063;158.706;0.2038424;0.06640425;0;
173.0879;0;0;150.271;19.50905;1.429179;104.464;110.1958;0.3985396;0.001370176;0;
-386.4298;0;0;-359.1865;20.89695;3.571197;-448.0508;-443.9489;0.5280738;0.1313035;0;
-626.7955;0;0;-622.3181;17.99556;3.969507;-688.1047;-682.1329;0.1377392;0.4560083;0;
-275.3421;0;0;-332.3383;18.78078;5.104105;-342.0244;-335.1841;-0.1222686;0.4555501;0;
-181.3;0;0;-243.8611;10.05438;0.6112426;-247.2907;-244.0179;-0.3170478;-0.06464642;0;
-86.97768;0;0;-161.9696;6.360579;-1.264772;-154.7137;-152.6935;-0.3167292;-0.1295488;0;
521.1791;0;0;367.677;11.31068;-0.124791;445.765;448.9701;-0.1215089;0.2603854;0;
730.0501;0;0;561.7098;10.09387;-1.397341;655.5864;656.9142;0.008547832;0.4550258;0;
325.8943;0;0;265.6064;11.4229;-4.008272;257.0652;258.2042;-0.1213954;0.1297319;0;
227.1788;0;0;207.4937;14.42553;-4.942005;157.0445;161.7431;-0.3161755;-0.4551045;0;
158.7973;0;0;140.6312;1.282866;-5.874679;89.17078;94.98907;0.2038809;-0.2597452;0;
-392.5227;0;0;-359.5088;-1.464113;-5.73481;-455.3951;-449.4577;0.3336108;0.000385136;0;
-620.9507;0;0;-608.2099;5.703678;-5.05934;-683.0104;-673.4558;0.008438842;-0.1945173;0;
-268.6286;0;0;-317.3072;0.6077316;-3.915546;-333.5619;-323.3298;-0.1215043;-0.1293545;0;
-160.9752;0;0;-218.4754;24.98842;-0.4284996;-222.7198;-218.0576;-0.1213822;-0.2591592;0;
-78.2924;0;0;-147.6663;30.32195;1.447331;-142.3488;-140.0651;0.2685438;-0.5837355;0;
513.9886;0;0;361.5387;6.512416;5.263782;438.3149;441.7832;0.463176;-0.3232796;0;
739.7334;0;0;562.8865;5.903636;6.531168;661.5121;663.3527;0.2028412;0.1318167;0;
327.1971;0;0;259.4731;-22.56943;10.87837;254.9889;256.2655;0.007735365;0.2616189;0;
215.1745;0;0;192.2461;-35.13906;12.87693;143.0388;147.5;-0.3171091;0.1314213;0;
170.9804;0;0;147.7627;-17.35388;4.759302;100.2291;106.2475;-0.3817578;-0.2585148;0;
-379.8521;0;0;-349.8232;-19.54725;2.878998;-441.7243;-436.2117;0.008429817;-0.1283204;0;
-625.097;0;0;-614.4011;-15.77656;-0.5399024;-686.4697;-679.3384;0.2682907;0.131678;0;
-265.8366;0;0;-324.4916;-12.81297;-3.687558;-334.519;-327.8947;0.3979558;0.001610959;0;
-166.3069;0;0;-234.3357;-9.518545;-3.549886;-235.2326;-232.7379;0.2676213;-0.1932927;0;
-90.9901;0;0;-166.2594;-5.021003;-5.42172;-162.4077;-160.1654;-0.3173537;0.06677092;0;
511.6734;0;0;358.2691;-5.083307;-6.822914;431.457;435.3838;-0.3820022;0.3915405;0;
735.0468;0;0;564.1804;-3.135816;-9.026495;655.7231;657.2721;-0.1867163;0.1312777;0;
331.823;0;0;266.2005;0.7530771;-2.25227;258.8259;259.2489;-0.251496;0.06617849;0;
229.1036;0;0;200.7783;3.095869;-0.4414683;154.743;158.9762;-0.3162107;0.455916;0;
170.3403;0;0;141.2939;-3.806118;-9.550582;95.99194;100.9705;-0.315893;0.5853927;0;
-378.9299;0;0;-356.0357;-4.40453;-11.01449;-445.8322;-442.6078;-0.5104775;0.2599677;0;
-617.3041;0;0;-613.1735;-3.395726;-10.80247;-683.3271;-677.3573;-0.3800299;-0.06513023;0;
-265.173;0;0;-323.1404;-3.526036;-12.06429;-337.1892;-329.0389;0.205058;-9.744249E-05;0;
-158.3976;0;0;-223.9904;0.7644148;-10.10979;-231.5283;-225.6976;0.00994991;0.06487001;0;
-80.7774;0;0;-154.6125;2.504959;-8.29109;-157.5202;-153.2571;-0.2499295;-0.1300972;0;
508.1328;0;0;358.2226;7.660006;-13.9092;424.658;428.0422;-0.1197436;-0.1949338;0;
733.2588;0;0;560.4483;10.59907;-14.29712;653.8034;654.623;0.140246;-0.2597053;0;
331.8484;0;0;259.5986;11.12428;-4.16858;259.3444;261.1003;0.1401051;0.0004250195;0;
222.5697;0;0;190.9347;11.64897;-1.016194;147.8897;153.8916;-0.05493768;0.5201634;0;
173.6206;0;0;141.7674;16.9959;1.128159;98.07855;104.5742;0.07505221;0.2597713;0;
-366.4075;0;0;-350.9399;18.9212;3.404445;-437.6882;-432.6359;0.1399441;0.06460827;0;
-608.7923;0;0;-616.1413;8.989206;7.21893;-680.5637;-674.2045;0.009868835;-0.06539135;0;
-259.6683;0;0;-328.5415;6.970442;9.35513;-333.9912;-327.7009;0.1397936;-0.130293;0;
-156.0843;0;0;-229.3235;2.94495;5.996583;-228.0212;-225.3604;-0.05524889;-0.06519473;0;
-74.78076;0;0;-155.755;-0.8764023;6.459438;-148.3945;-146.6109;-0.5749321;0.06480548;0;
520.4952;0;0;363.578;4.080971;0.08969119;437.5227;441.241;-0.314485;0.2596424;0;
742.6103;0;0;565.1112;3.407285;-2.120714;658.2844;660.3748;0.3355044;-0.0004878824;0;
339.7537;0;0;262.6951;3.136418;-1.716685;261.572;263.1605;0.2052326;-0.1304221;0;
226.7815;0;0;188.8432;2.998569;-4.796175;148.8032;154.8879;-0.05484302;-0.1952584;0;
169.7696;0;0;131.6196;5.407429;4.98803;92.74432;99.7599;0.01017943;-0.3249969;0;
-372.0037;0;0;-361.14;7.54545;6.255572;-443.0796;-438.3824;0.2700386;0.06513377;0;
-614.6328;0;0;-624.8944;-1.63916;4.23992;-686.3868;-681.1321;0.3997019;0.0001009647;0;
-260.193;0;0;-334.4122;-3.914688;6.646924;-337.3098;-332.81;0.1394309;-0.06486648;0;
-149.2997;0;0;-230.0035;3.591333;-7.224856;-225.7767;-224.9671;0.009356143;0.2600354;0;
-83.93246;0;0;-166.9915;4.391032;-11.57137;-160.3951;-160.9606;-0.0556206;-9.524345E-05;0;
500.3582;0;0;343.6073;1.306137;-3.388065;416.2888;417.0356;0.07436997;0.06487221;0;
744.6074;0;0;564.2759;0.7689613;-4.657336;659.373;659.0573;0.07429525;0.1297744;0;
355.9292;0;0;280.6012;5.121469;-3.714895;276.9649;276.2746;-0.05571409;-0.0002907295;0;
246.0017;0;0;215.7892;6.924984;-3.108316;166.2421;169.5505;0.07427657;-0.06525778;0;
195.7796;0;0;163.4736;1.693113;-6.789132;116.6624;121.4042;-0.1207001;-0.0002248661;0;
-359.4506;0;0;-345.9347;1.892483;-6.849293;-430.9921;-428.1291;-0.05561146;0.2596447;0;
-622.7069;0;0;-628.0076;1.95793;-7.713189;-694.6138;-691.004;0.2692811;0.06448182;0;
-276.6924;0;0;-341.3954;1.420099;-7.236558;-354.4615;-350.2931;0.1390759;-0.1954523;0;
-167.1567;0;0;-239.8532;8.251176;-8.167048;-244.2855;-243.1199;0.3338381;-0.0003539326;0;
-91.58919;0;0;-172.4585;10.58643;-8.292808;-171.2641;-170.6619;0.1386007;0.06461378;0;
508.2014;0;0;346.9538;8.031177;-4.868467;419.2987;421.7744;-0.2513426;-0.1303532;0;
755.6287;0;0;567.994;8.156829;-5.4663;667.4399;668.6638;-0.1861227;-0.1951896;0;
360.5676;0;0;283.316;10.49316;2.041037;280.7758;281.4362;0.008966296;0.3247453;0;
249.7608;0;0;217.6267;9.277165;3.445628;170.424;174.0198;0.2688267;0.3893864;0;
194.9123;0;0;156.9384;10.53967;-1.380484;114.4683;118.1854;0.3984912;-0.2606783;0;
-362.0662;0;0;-352.026;9.323626;-1.446079;-438.8686;-436.0923;0.5929928;-0.1954491;0;
-613.7007;0;0;-626.4092;3.821901;-12.16165;-691.7378;-687.1527;0.397495;-0.0003506383;0;
-268.8196;0;0;-342.9844;2.813683;-15.76639;-350.5264;-345.821;-0.1876105;-0.000350286;0;
-162.7277;0;0;-237.5051;-15.00636;-18.42986;-241.9161;-239.964;0.2023821;0.06461743;0;
-82.66686;0;0;-163.7409;-24.10096;-21.69339;-162.4629;-161.6996;0.2671461;-0.5201536;0;
506.3077;0;0;349.7281;-7.464977;-15.91118;417.2216;418.9836;-0.1878938;-0.2597616;0;
747.9272;0;0;563.9563;-7.859618;-14.7566;656.0571;655.7559;-0.187705;0.1952708;0;
366.5545;0;0;274.7847;-12.3397;-11.32565;279.212;277.9115;0.007385647;0.0001725915;0;
250.4944;0;0;200.7957;-10.18385;-7.563344;162.3026;165.8135;0.2672476;0.06513978;0;
183.2139;0;0;137.6255;-20.55511;-7.488761;96.92225;102.2412;0.3969137;0.195009;0;
-363.4455;0;0;-354.8902;-21.07032;-5.605714;-440.2177;-436.6532;0.2665803;0.1298457;0;
-613.8918;0;0;-620.1501;-15.28935;1.432882;-688.8376;-684.2772;-0.05852433;0.06474791;0;
-270.8845;0;0;-340.0425;-12.99681;3.842828;-350.3778;-346.4466;0.07146916;0.06468285;0;
-157.3568;0;0;-235.1284;-7.959912;2.968189;-236.1455;-236.8409;0.1363647;-0.0003495029;0;
-88.85801;0;0;-172.486;-5.607389;4.036933;-168.5046;-171.3233;0.006292986;0.3244876;0;
498.8734;0;0;337.9308;9.468795;-1.995465;408.9995;408.2451;0.006286663;0.5840309;0;
754.4934;0;0;567.3508;16.22444;-4.203897;660.2121;659.3336;0.07124769;0.2586074;0;
359.1836;0;0;277.0514;10.31363;-3.998724;270.6817;269.679;0.1361434;0.3882822;0;
242.2563;0;0;202.8102;12.11193;-5.401226;155.5924;157.9641;0.0710393;0.3229247;0;
197.9725;0;0;152.8189;10.96166;-5.261833;113.5196;117.2008;0.1359353;-0.4570079;0;
-354.8237;0;0;-349.7696;10.21371;-4.720804;-431.3831;-429.2674;0.200766;-0.4565487;0;
-612.2126;0;0;-625.217;4.576397;-6.993358;-689.757;-686.7064;0.005662259;-0.06628591;0;
-264.0846;0;0;-340.0443;0.2848909;-7.321246;-348.7975;-344.8754;-0.4491148;-0.1311866;0;
-159.7466;0;0;-239.5655;5.375795;1.929511;-242.3754;-241.3307;0.006107842;-0.1310548;0;
-89.18394;0;0;-175.1695;4.36504;5.07577;-170.5428;-170.7486;0.5908078;-0.0009884574;0;
504.8571;0;0;341.5594;-1.265424;4.132909;415.1468;415.7533;-0.05945928;0.06397989;0;
752.1628;0;0;565.9781;-3.206536;5.803207;660.1063;658.4633;-0.1243669;0.1938503;0;
368.3495;0;0;283.1763;-2.93587;5.194652;280.446;278.0551;0.005692767;0.5184922;0;
259.6589;0;0;219.2988;-3.803576;4.519603;170.2819;172.0163;-0.5140517;0.3880365;0;
194.0558;0;0;158.8587;-3.866127;6.12253;106.5178;110.1245;-0.1237311;-0.2620268;0;
-358.7364;0;0;-346.2346;-3.125309;5.848446;-437.8157;-435.337;0.7209687;-0.3916982;0;
-611.8111;0;0;-623.1849;-6.002556;0.08228185;-689.1867;-685.5236;0.5903096;-0.3263372;0;
-276.552;0;0;-351.6948;-5.729081;-1.324442;-358.4726;-354.4384;-0.1249244;-0.5209113;0;
-163.206;0;0;-248.0808;-2.106002;-4.940068;-245.1691;-245.3869;-0.6445376;-0.3904533;0;
-84.70637;0;0;-177.9917;-0.4289468;-6.609677;-169.3358;-171.2399;-0.2540859;-0.1951589;0;
499.835;0;0;336.866;2.651967;-4.057806;405.2956;405.5173;0.07100613;-0.2599302;0;
753.0802;0;0;567.5988;4.457963;-4.187695;657.324;655.9837;-0.2539019;0.0002003727;0;
360.5829;0;0;270.615;9.74477;1.777872;272.1068;270.1432;-0.1237121;0.06516753;0;
232.8471;0;0;183.8866;12.74909;3.785573;145.272;147.6832;-0.1235878;0.0001346908;0;
195.3819;0;0;145.471;9.119931;4.920479;109.3315;113.5519;-0.3183657;-0.06483278;0;
-346.4797;0;0;-343.9293;9.44556;6.121106;-424.3851;-422.6678;-0.3180458;-0.129735;0;
-620.4312;0;0;-634.1876;9.569791;6.650819;-698.8206;-696.1054;0.1370452;0.000330058;0;
-271.8577;0;0;-349.0684;9.158034;7.782846;-357.1023;-353.3904;0.2668422;-0.06463762;0;
-155.7052;0;0;-236.6489;6.871656;0.8089228;-239.4274;-239.0301;0.006704686;-0.2594747;0;
-86.52099;0;0;-173.3179;4.788647;-0.1295291;-170.8462;-171.1364;0.07166529;-0.06431194;0;
502.8322;0;0;345.4706;9.271813;-4.818204;409.7837;411.2429;-0.0583414;-0.194182;0;
742.8936;0;0;566.4497;9.798361;-8.162388;647.9395;647.7731;-0.2531848;-0.2589542;0;
354.0297;0;0;268.0927;4.429881;3.567583;262.6693;262.1907;-0.1229957;-0.06379201;0;
243.167;0;0;194.2978;3.621146;5.841296;151.3362;154.6062;0.1369972;-0.1936626;0;
188.8873;0;0;141.9413;4.622862;3.960027;100.7095;105.413;0.2018269;0.001434022;0;
-352.9052;0;0;-348.0176;5.287802;5.697482;-430.4997;-426.6755;0.1366568;-0.06353476;0;
-610.2336;0;0;-619.4688;1.665166;6.562535;-685.0015;-680.0567;0.07155213;-0.3233403;0;
-272.3524;0;0;-344.9215;0.1232517;7.426719;-354.3541;-349.7891;0.006512888;-0.06314602;0;
-156.5743;0;0;-239.9401;8.830665;6.883393;-241.3047;-240.1176;-0.1234283;-0.3879193;0;
-86.70206;0;0;-176.7931;9.959891;6.608545;-173.9709;-173.6596;-0.1882717;-0.1276601;0;
496.342;0;0;336.0019;9.615091;5.329229;398.5412;400.6013;0.2017216;0.3922069;0;
749.2784;0;0;566.1734;9.940223;4.319252;649.7018;650.0107;0.2664862;-0.06295861;0;
353.3492;0;0;262.9441;7.519337;4.515861;261.8686;260.1783;0.1362838;0.2619414;0;
240.6756;0;0;189.4667;7.310711;4.846238;151.5983;152.5958;0.006212145;0.06677615;0;
216.3209;0;0;165.7257;-3.547626;1.090325;129.2071;131.9527;-0.2536635;-0.6479317;0;
-337.3058;0;0;-334.1896;-8.768974;0.6873314;-417.2106;-414.905;0.3312975;-0.3874113;0;
-624.0101;0;0;-636.4517;-2.932038;2.49518;-702.7102;-698.158;0.5258666;-0.06218533;0;
-276.9947;0;0;-354.2038;-4.805102;1.889826;-359.7386;-355.0661;-0.2542699;0.002844495;0;
-161.3994;0;0;-243.4034;-5.336137;10.26067;-242.8108;-242.2034;-0.1240797;-0.06212571;0;
-100.2678;0;0;-189.1859;-4.526492;12.72861;-183.9088;-185.1136;0.2008817;0.002904061;0;
491.9103;0;0;329.8683;-14.30121;10.70633;397.7337;397.3422;-0.4489936;0.2627705;0;
749.3489;0;0;569.4788;-18.37267;12.23618;652.4559;650.9402;-0.3835751;0.1325718;0;
365.2261;0;0;279.1147;-5.158698;7.200288;272.9282;270.9144;-0.05835295;-0.1923981;0;
253.5401;0;0;204.0594;-2.608895;6.121326;160.2105;161.572;-0.383131;0.2625666;0;
200.2495;0;0;152.9424;-8.500772;5.04357;109.7623;112.6842;-0.2528114;0.5871395;0;
-347.1766;0;0;-340.7132;-5.410771;2.6941;-427.0782;-425.7835;-0.1226227;0.06681079;0;
-612.2568;0;0;-619.3557;-15.85418;7.24611;-689.9542;-687.224;-0.05753211;0.001776304;0;
-279.5586;0;0;-346.745;-18.11543;7.506761;-361.6132;-357.9486;-0.1224416;0.1966766;0;
-161.8367;0;0;-238.201;-3.227748;5.221798;-243.3091;-243.209;-0.2522533;0.1315116;0;
-91.52186;0;0;-177.9293;-1.081051;5.551466;-176.9104;-178.3721;-0.1870325;0.001444754;0;
486.1548;0;0;331.4935;6.354775;4.4073;389.4203;389.5218;-0.4467139;-0.06352404;0;
747.9095;0;0;568.2288;10.56795;5.072701;650.0853;648.2502;-0.3812977;0.06647449;0;
358.8531;0;0;265.1848;7.476847;2.053372;268.4361;265.9156;0.0738568;0.131375;0;
232.2435;0;0;181.023;8.54106;0.5107012;142.3546;144.3344;0.008815248;-0.3884957;0;
203.587;0;0;156.4159;4.847807;7.208359;116.0997;119.1395;0.2037084;-0.323138;0;
-339.8445;0;0;-334.6195;3.704836;6.866202;-417.4363;-416.1487;0.5933078;0.002023384;0;
-628.6702;0;0;-634.6948;-3.466182;8.935774;-704.31;-700.7748;0.2029076;-0.257848;0;
-287.0849;0;0;-351.6989;-7.883328;8.926795;-367.7711;-363.6147;-0.317035;0.3920845;0;
-164.7328;0;0;-237.5902;-4.592878;3.425347;-244.7132;-244.4341;0.1380549;0.846462;0;
-106.7214;0;0;-190.8124;-7.26758;2.015263;-189.4325;-189.5285;0.1379162;0.0660033;0;
476.4053;0;0;323.246;-4.179795;-8.167924;382.6579;384.3736;-0.1870591;0.1958717;0;
741.9804;0;0;569.4223;-3.304939;-12.17857;646.7654;646.293;0.3978349;0.3905769;0;
360.7386;0;0;275.5601;-9.128767;-16.58708;273.2405;270.7695;0.6573045;0.06534771;0;
245.2465;0;0;198.7592;-8.717453;-21.661;159.2106;158.8661;0.26684;0.0003146924;0;
199.8978;0;0;157.0803;-10.71843;-12.86471;115.2602;116.6026;-0.05826479;-0.1945876;0;
-346.4036;0;0;-339.7654;-10.30551;-13.32067;-424.1471;-422.2437;0.07172844;0.0005098988;0;
-617.7939;0;0;-628.2163;-7.950634;-9.489378;-694.7722;-691.0591;0.3964931;0.3253461;0;
-289.0881;0;0;-358.4703;-7.675201;-5.728798;-371.2988;-367.8394;0.3311273;-0.06478486;0;
-178.2282;0;0;-252.1009;1.509538;-18.58352;-259.1069;-259.5865;0.2008599;-0.2596218;0;
-107.2097;0;0;-189.1916;3.85157;-19.90451;-187.1326;-188.7362;0.1356908;-0.0644589;0;
475.5426;0;0;327.3639;4.919427;-18.14295;387.7041;387.3515;0.07058708;-0.1293615;0;
736.1211;0;0;568.1013;5.786116;-20.40202;646.8091;644.1455;0.07051615;0.0007031941;0;
361.6942;0;0;277.7386;5.579231;-12.81269;277.407;273.7466;0.005477957;-0.06426486;0;
249.2622;0;0;203.7466;7.247589;-11.79507;163.3105;163.277;-0.1244622;-0.1291676;0;
210.3436;0;0;169.559;-9.705277;-13.65874;125.9776;126.8811;0.07056485;0.1957989;0;
-340.7158;0;0;-328.1738;-14.1835;-12.57329;-416.0016;-416.7857;0.265396;-0.06426723;0;
-633.1013;0;0;-634.7523;-12.1605;-17.85219;-707.6243;-706.9083;0.07022728;0.06573204;0;
-293.8229;0;0;-360.1897;-16.30049;-18.50408;-373.7683;-372.6157;0.1351241;0.4554701;0;
-162.531;0;0;-240.3878;-1.481003;-21.03072;-242.1462;-244.7429;0.264923;0.195143;0;
-105.2089;0;0;-192.8575;2.270554;-23.35399;-187.1179;-190.774;-0.06017994;0.06501225;0;
467.6089;0;0;316.268;-1.348074;-14.62298;377.9112;375.1958;-0.1250868;0.1299143;0;
737.3157;0;0;569.6352;1.868461;-12.39785;649.3948;643.996;0.2648429;0.2597184;0;
357.4529;0;0;277.147;-2.487673;-16.6052;276.1171;271.7857;0.3945115;0.1295228;0;
232.9687;0;0;192.3485;-2.686244;-15.58377;149.9029;150.9482;0.3291478;-0.4553135;0;
196.3154;0;0;156.2983;0.06312118;-14.56349;114.3951;115.8766;0.06894765;-0.3249213;0;
-342.4861;0;0;-334.0499;-1.076018;-13.87903;-415.7659;-416.2849;0.1338457;0.06520926;0;
-622.5635;0;0;-628.7534;3.413042;-11.31973;-695.0825;-694.1017;0.7184173;-0.06479096;0;
-292.2287;0;0;-359.6941;4.213895;-10.43758;-371.1716;-368.8175;0.5227934;0.1301762;0;
-173.3697;0;0;-248.8882;-1.350044;-9.288501;-252.8579;-252.9424;-0.1274053;0.4548821;0;
-100.8569;0;0;-186.8566;-2.085622;-8.542356;-182.2017;-183.8479;0.1975594;0.3244903;0;
481.7017;0;0;328.822;-5.6335;-8.734721;391.8179;390.7981;0.1323936;0.3891316;0;
740.8372;0;0;569.8078;-7.4365;-8.524996;649.0447;646.2143;0.1972279;0.453708;0;
360.9084;0;0;274.2585;-3.677984;-8.650395;272.9563;269.3791;0.651801;-0.06648666;0;
242.7924;0;0;192.8987;-2.066698;-7.837908;153.9917;153.9163;0.001472738;-0.1963545;0;
199.5076;0;0;153.9744;-7.289534;-11.04509;112.7951;113.8442;-0.3233654;0.1286795;0;
-344.1697;0;0;-336.4964;-8.555007;-11.10098;-421.2374;-421.6885;-0.06317116;0.2584849;0;
-620.997;0;0;-626.0126;4.448034;-7.740797;-695.7385;-695.3146;0.001859652;-0.001644241;0;
-289.227;0;0;-354.5197;7.859816;-6.393361;-368.8908;-367.9051;0.06682512;-0.06660993;0;
-173.6818;0;0;-248.7165;5.775814;-3.774724;-252.0162;-253.8426;-0.06317671;0.3882284;0;
-111.8508;0;0;-196.7426;7.846115;-2.83317;-190.5438;-192.6807;-0.1280806;0.5827403;0;
474.0297;0;0;321.6321;5.829475;4.872591;387.1074;387.0341;-0.4527886;0.4522201;0;
746.5411;0;0;572.6201;6.425854;7.74784;659.5189;657.2592;-0.3873663;0.321831;0;
360.9844;0;0;276.1935;2.869424;3.989132;281.0461;276.9147;0.1327617;0.1266056;0;
240.1823;0;0;194.7693;1.326299;4.721937;159.4496;157.6337;0.06766095;0.2564131;0;
210.1434;0;0;162.6521;4.741218;-0.4403719;128.1176;126.4285;-0.06234172;0.3860901;0;
-332.9199;0;0;-330.1387;4.266963;-2.5164;-409.4285;-411.9905;0.2625576;0.3857022;0;
-621.1278;0;0;-629.8437;8.482235;-4.724186;-696.8099;-696.1835;0.2622938;0.1904126;0;
-291.8564;0;0;-361.0956;10.34972;-8.805399;-370.8358;-369.8976;0.06712823;-0.2645501;0;
-170.1867;0;0;-246.79;7.592656;-1.227602;-246.9003;-250.6482;0.06706078;-0.06938227;0;
-103.1118;0;0;-184.3233;8.656754;-0.8914534;-179.8108;-184.9292;-0.3228106;0.2555242;0;
475.9508;0;0;329.9785;7.576329;-7.052866;391.1455;388.281;-0.3874536;-0.0695693;0;
737.7782;0;0;571.088;7.233923;-6.978796;650.4344;646.1361;-0.06222761;0.0604353;0;
356.5406;0;0;277.5365;11.51356;-14.47375;275.0317;268.239;0.002802258;0.515146;0;
238.3041;0;0;199.4842;12.64107;-17.1384;158.5013;154.4015;0.1977015;0.1248243;0;
203.3946;0;0;164.0515;11.69036;-12.49948;124.734;123.137;0.2624702;0.1896662;0;
-329.2296;0;0;-320.6823;11.87969;-13.22373;-401.0022;-402.66;-0.06263028;0.254443;0;
-615.7546;0;0;-618.2728;13.14055;-8.521763;-685.9558;-685.9878;-0.1275347;-0.3305188;0;
-299.1073;0;0;-359.2815;13.66321;-6.90561;-374.1105;-373.1429;0.06749548;-0.200252;0;
-175.4937;0;0;-241.9792;12.17561;-9.511005;-248.7974;-251.2665;0.3922644;0.1247859;0;
-117.7838;0;0;-192.8857;12.02965;-9.434465;-192.0758;-196.1666;0.3269029;0.2545952;0;
459.6069;0;0;309.6806;11.4817;-8.889123;374.0203;370.933;-0.323099;0.1244047;0;
748.1248;0;0;571.3003;11.33547;-8.478293;659.3759;654.4801;-0.257807;-0.3304917;0;
357.8189;0;0;272.3138;9.783837;-14.83291;274.6563;269.2658;0.4570928;-0.2002249;0;
223.6516;0;0;180.2738;7.965345;-17.09542;139.6981;137.9361;0.3266988;0.05984566;0;
210.6208;0;0;168.1611;15.86157;-13.99715;127.8761;127.9899;-0.2583355;-0.005181827;0;
-324.0721;0;0;-311.5168;18.25653;-14.51895;-396.5514;-397.3122;-0.06317393;0.1897254;0;
-628.7182;0;0;-627.8571;9.062136;-13.63359;-697.2516;-696.7623;0.001856889;0.1245674;0;
-299.5016;0;0;-364.2959;8.048652;-12.41419;-373.3384;-371.8501;-0.3229817;-0.1354271;0;
-164.1436;0;0;-237.3685;11.12105;-13.40646;-238.3435;-239.4803;0.1970816;-0.135291;0;
-109.1937;0;0;-187.4675;11.77946;-12.12032;-184.9432;-187.8905;0.5866876;0.05974695;0;
461.8166;0;0;314.5937;8.486069;-10.96943;374.2117;370.5177;-0.06357532;0.2545889;0;
740.7746;0;0;568.8995;6.869951;-10.35556;647.5106;642.0712;-0.2584135;0.1243984;0;
360.471;0;0;272.9139;17.37925;-4.852677;272.4232;266.8643;0.0666829;0.05930611;0;
236.2336;0;0;186.2456;19.77268;-3.508264;150.2107;147.3436;0.06661589;0.3840832;0;
204.9493;0;0;157.5728;16.80605;-3.370773;121.3243;119.4595;0.261451;0.31873;0;
-332.1742;0;0;-323.7812;18.59783;-3.166438;-407.0946;-409.0824;0.1962209;-0.006427028;0;
-620.0081;0;0;-622.6179;13.35423;-6.579263;-693.4164;-692.841;-0.1288129;-0.00642057;0;
-304.7932;0;0;-371.4933;12.26908;-8.247226;-384.0623;-382.488;-0.3885529;0.1884879;0;
-182.4233;0;0;-258.1143;14.46756;-12.19081;-261.0505;-262.4763;-0.4531298;0.1233312;0;
-109.2142;0;0;-190.4513;13.98353;-14.58982;-188.3247;-190.8734;-0.2577724;-0.07169478;0;
463.6701;0;0;318.9841;14.77376;-19.93368;376.9555;376.0335;-0.2575134;-0.1365901;0;
736.3169;0;0;568.9128;13.88826;-23.53073;649.6895;646.8943;-0.5171241;0.05844921;0;
356.1428;0;0;272.9896;17.28958;-19.68905;276.4115;271.3078;-0.3217024;-0.1365116;0;
231.3475;0;0;188.1953;17.20584;-19.87022;150.8842;149.0965;-0.1264772;-0.2013417;0;
216.185;0;0;170.1402;17.52334;-20.58707;133.9285;134.5789;-0.06138273;0.1886646;0;
-323.0738;0;0;-321.4088;19.11332;-19.36081;-400.4375;-400.5374;0.3934503;0.1235077;0;
-630.8442;0;0;-642.4243;6.769258;-21.61865;-707.8804;-705.7938;0.198153;0.2533183;0;
-304.5616;0;0;-376.6621;3.949417;-22.1328;-385.5808;-382.2469;0.003051842;0.05816175;0;
-171.6347;0;0;-245.7867;7.3617;-14.67557;-249.0118;-249.3045;0.4578202;-0.6565375;0;
-116.365;0;0;-191.4419;6.55002;-12.85241;-191.9152;-194.0191;0.3274255;-0.2660737;0;
455.3397;0;0;312.1849;9.95969;-14.44696;371.1822;370.0799;0.002259757;0.3838671;0;
743.1122;0;0;571.6781;10.48555;-13.22688;655.6036;652.5659;0.3270942;0.5783834;0;
364.5555;0;0;281.1245;16.77165;-17.29942;281.9448;276.9111;0.5216675;0.5128348;0;
230.6313;0;0;191.4494;18.8309;-18.15282;147.4165;144.2619;0.3262413;0.1225155;0;
202.8509;0;0;164.5205;17.47281;-17.6657;120.0321;119.5043;0.06604418;-0.007542285;0;
-326.0871;0;0;-312.8425;17.45525;-18.25079;-399.6399;-399.1676;-0.06395686;0.05743265;0;
-618.2375;0;0;-615.3759;14.55733;-16.8928;-688.7178;-686.4344;0.06604208;-0.1375271;0;
-302.5247;0;0;-359.1985;13.13618;-16.74186;-377.2445;-373.5891;0.06597573;-0.3322909;0;
-178.5953;0;0;-243.9578;3.81223;-13.57696;-251.0537;-250.5878;-0.5187966;-0.331957;0;
-113.1986;0;0;-186.429;-0.4785078;-11.21891;-187.3333;-188.1173;-0.7131774;-0.07175413;0;
460.8141;0;0;320.3162;-0.5443999;-15.42744;376.1343;377.1002;-0.192722;0.05825267;0;
738.3989;0;0;574.3665;-2.620934;-15.94781;652.3048;650.7086;-0.2574957;-0.3316099;0;
363.1577;0;0;286.9335;-2.550951;-7.693124;282.7098;279.5535;-0.1922697;-0.4612114;0;
237.1684;0;0;201.1882;-2.482015;-5.274008;156.1767;156.5842;-0.06214179;-0.2008786;0;
220.4384;0;0;182.9326;1.472594;-9.354546;140.9024;142.8712;-0.2569814;-0.1357094;0;
-314.8267;0;0;-299.2589;3.815639;-9.345146;-385.5371;-385.8192;0.2630156;-0.1355731;0;
-636.2236;0;0;-628.9799;6.893264;-8.532083;-705.5512;-705.1458;0.197784;0.0594652;0;
-308.6862;0;0;-366.3545;9.699376;-9.394166;-384.4408;-382.7864;-0.1922188;0.05940544;0;
-163.074;0;0;-233.1157;13.50705;-7.777258;-238.94;-240.6606;0.327713;0.1892804;0;
-118.1202;0;0;-193.1514;17.31187;-7.970393;-194.8469;-197.8776;0.1324817;0.3839923;0;
451.1499;0;0;307.7285;11.6684;-10.30666;366.3794;364.2887;-0.4523574;0.3186391;0;
741.1756;0;0;572.0363;11.05346;-9.961393;656.2404;651.903;-0.3869356;0.513221;0;
358.9351;0;0;279.046;14.92712;-14.84102;280.8943;275.8116;-0.06171008;0.5776726;0;
231.7007;0;0;191.8717;13.10346;-15.69688;152.6139;150.2225;-0.06164807;0.1223208;0;
211.1031;0;0;167.0663;19.18586;-12.667;131.3461;129.4569;-0.06158613;-0.007736844;0;
-320.4044;0;0;-316.1712;19.90352;-12.65427;-392.6475;-395.9716;-0.1914589;0.1222056;0;
-621.1187;0;0;-626.6348;12.31408;-4.67071;-691.0403;-693.7989;-0.2562339;-0.0728192;0;
-305.9027;0;0;-371.3207;12.16798;-1.183027;-380.6891;-382.9451;0.3287297;-0.3975827;0;
-175.5982;0;0;-252.5696;-1.239852;-2.856411;-251.2464;-255.6242;0.458334;-0.6570526;0;
-123.2604;0;0;-206.4639;-6.932033;-1.045002;-201.2065;-206.5169;-0.06186525;-0.5264577;0;
445.5775;0;0;299.177;0.7107424;-0.4411054;358.5894;354.2214;0.1330989;-0.1361247;0;
742.0431;0;0;569.6154;-2.63985;-0.03876455;653.3932;646.6558;0.06799786;-0.07102057;0;
372.2954;0;0;281.7499;8.683284;-0.641572;289.6067;282.0015;-0.1919398;-0.3308186;0;
244.5479;0;0;194.8228;12.69305;-1.712654;161.6299;158.9673;0.003155054;-0.0706168;0;
223.6875;0;0;175.0119;-0.3141523;-0.1703259;142.1647;141.3789;-0.06181546;0.05938886;0;
-315.7037;0;0;-313.8558;0.7578902;0.09777694;-387.7744;-389.8087;-0.1267207;-0.2655075;0;
-635.4756;0;0;-641.9379;-7.347196;-6.600492;-705.4124;-704.946;-0.06162602;0.05959596;0;
-313.1862;0;0;-379.6743;-10.62234;-8.536366;-389.9868;-387.2095;0.003403247;0.1894708;0;
-179.1888;0;0;-251.2322;0.7751846;-5.513556;-256.8491;-255.5114;-0.3214369;-0.1355563;0;
-145.0883;0;0;-217.5591;0.9754765;-5.641982;-223.7326;-222.8335;-0.1911792;0.2543839;0;
439.5762;0;0;291.5912;8.811378;-3.894757;352.4527;354.7877;0.1988169;0.1241936;0;
759.9733;0;0;578.8412;12.28515;-2.685272;672.9998;673.5833;-0.1262195;-0.3956699;0;
374.0283;0;0;289.967;7.517382;-2.682574;295.388;294.2218;-0.2560274;0.1894338;0;
233.0356;0;0;198.1591;8.983697;-2.010049;154.5369;156.5577;-0.1258355;-0.1355933;0;
225.2428;0;0;187.7152;4.151899;1.67591;146.3856;149.0291;0.004225658;-0.5902284;0;
-310.9017;0;0;-296.6676;3.946656;3.549748;-383.1829;-382.8534;0.1991234;0.1899727;0;
-628.3671;0;0;-621.9558;-1.415944;1.536693;-699.5136;-696.4983;0.004021332;-0.005120192;0;
-309.7705;0;0;-362.7733;-4.160212;2.673859;-386.0305;-380.7693;0.133952;-0.3949191;0;
-185.8339;0;0;-245.655;4.350435;-0.3429378;-261.58;-259.8223;0.3287194;-0.2645876;0;
-127.3015;0;0;-191.6227;4.011271;-1.749235;-202.9715;-203.1521;0.1984544;-0.004452372;0;
451.9728;0;0;320.6874;13.04957;3.811984;369.6947;370.3888;-0.1265817;0.1254868;0;
737.0626;0;0;577.8608;16.85388;3.406256;654.8047;653.3118;-0.1264545;-0.199476;0;
370.4435;0;0;298.2329;8.665267;6.149134;294.0154;291.2745;-0.0613601;-0.1992756;0;
237.6378;0;0;211.0394;8.791258;7.549475;160.5993;161.1096;-0.2562005;-0.2640427;0;
201.9168;0;0;173.5336;4.696587;-1.366597;126.1427;126.9023;0.06889367;-0.1338427;0;
-320.8359;0;0;-301.0273;2.815858;-3.508678;-388.1006;-389.4033;0.4586285;0.2560959;0;
-623.7986;0;0;-611.6935;1.406509;-3.103255;-689.8088;-689.4235;0.06836361;0.1908712;0;
-311.1411;0;0;-359.7677;-0.6046362;-4.104758;-382.2699;-381.5726;-0.3215091;0.2556467;0;
-173.46;0;0;-232.595;0.736118;-7.851678;-243.9552;-246.6943;-0.4511208;0.3853245;0;
-128.933;0;0;-193.8806;-1.274354;-10.38902;-201.9185;-206.1542;-0.2557654;0.3849374;0;
438.0366;0;0;300.3784;7.836606;-1.269144;354.7546;351.7726;-0.06060643;0.2546159;0;
742.943;0;0;576.5626;10.97656;0.8086018;658.183;655.4538;0.06938916;-0.2653787;0;
358.7018;0;0;284.4423;0.5166845;-3.613084;279.7115;276.1106;0.1342868;-0.265112;0;
216.6625;0;0;184.8939;-0.01969812;-2.939625;137.3769;135.7785;0.004217158;0.05999108;0;
213.5713;0;0;175.5877;-0.8229855;-4.544139;134.8651;135.2673;0.004212921;0.1248981;0;
-305.1327;0;0;-295.9143;-1.693791;-5.410351;-376.7009;-377.7358;0.004208688;0.18974;0;
-621.6044;0;0;-622.1404;-2.763816;-3.060634;-690.9767;-691.136;-0.2556649;0.5793534;0;
-307.7622;0;0;-367.6429;-5.43938;-2.990576;-380.2508;-379.2855;-0.3203754;0.7087059;0;
-173.6452;0;0;-239.6501;7.425833;-5.532801;-244.4368;-246.471;-0.1251514;-0.0716143;0;
-127.4939;0;0;-196.8057;11.10207;-6.531985;-199.5261;-202.2454;-0.1250257;-0.2664444;0;
443.6597;0;0;306.7015;-0.8308309;-4.181019;361.8298;360.1127;-0.3198021;0.3834968;0;
745.4995;0;0;578.5066;-2.504936;-3.574094;659.8788;655.7896;-0.1245787;0.4480788;0;
372.1877;0;0;286.5093;1.918211;-7.120476;289.9013;285.5039;-0.05948618;-0.2020449;0;
232.946;0;0;188.5205;2.720567;-7.515219;150.3676;150.2849;-0.3842631;-0.2668092;0;
211.7225;0;0;170.7149;-5.453841;-6.43594;131.9756;132.955;-0.2539423;-0.07163908;0;
-310.4779;0;0;-298.4084;-7.659163;-6.764388;-382.0862;-382.4821;0.1361169;-0.07156709;0;
-618.5734;0;0;-619.1346;-1.824318;-2.671754;-689.2976;-687.4443;0.2659148;0.1234069;0;
-306.9207;0;0;-374.0105;-1.755136;-0.8605306;-382.3215;-379.4705;0.07074558;0.2532175;0;
-173.4917;0;0;-251.9458;1.059667;-4.275673;-248.2545;-249.5293;-0.3191296;0.1230284;0;
-123.7798;0;0;-204.2165;2.130329;-4.472326;-198.0926;-202.5521;-0.3188089;0.1229048;0;
443.6219;0;0;301.8594;4.405364;-1.721654;362.6371;358.9318;-0.1235865;-0.007153388;0;
746.024;0;0;577.5424;6.678113;-1.920873;663.309;658.9827;-0.058495;-0.3969502;0;
365.028;0;0;284.2342;-0.8297096;-1.316096;289.0802;284.1961;0.07149846;-0.07171468;0;
216.2983;0;0;182.4996;-1.83423;-1.314774;140.6142;139.4206;0.006459274;0.5130635;0;
208.6472;0;0;174.1953;0.5121378;-6.203085;133.1017;133.2836;-0.05851456;0.2526786;0;
-311.8634;0;0;-292.8076;0.4442742;-8.742082;-377.4005;-379.8425;0.3963156;0.317392;0;
-630.8271;0;0;-618.7244;1.783975;-7.527727;-694.6741;-696.2391;0.3309501;0.3820404;0;
-313.9147;0;0;-362.1064;2.652838;-8.859699;-384.1944;-384.5084;-0.1241539;-0.2030495;0;
-172.7326;0;0;-229.1217;3.45348;-12.19994;-243.129;-245.4417;-0.1889964;-0.3327802;0;
-129.1434;0;0;-190.2234;3.249915;-12.99148;-201.0932;-204.528;0.2009975;-0.07257643;0;
430.4552;0;0;302.9074;12.15428;-18.47091;350.9564;347.775;0.3956976;0.6421373;0;
736.7435;0;0;579.339;15.96046;-20.86361;656.6999;652.5222;0.1354306;0.5765247;0;
365.0647;0;0;297.6481;6.499953;-14.07749;292.5353;287.2373;-0.2545095;0.05620667;0;
223.8311;0;0;202.2094;5.957559;-13.05872;151.9993;149.5177;-0.1243191;0.1860849;0;
212.9866;0;0;184.515;9.635267;-11.23706;139.8526;139.3725;-0.1891615;0.4457673;0;
-313.4005;0;0;-290.0569;11.03211;-8.211662;-379.277;-381.2559;-0.3189062;0.1204826;0;
-631.2381;0;0;-611.6037;7.002532;-14.63353;-693.7377;-694.715;0.07121833;-0.2694425;0;
-313.5757;0;0;-354.4931;6.325911;-16.22642;-380.9475;-380.612;0.1361141;-0.2042044;0;
-176.3295;0;0;-228.575;15.09444;-4.22041;-243.8834;-246.7342;-0.4487287;-0.1390319;0;
-135.2978;0;0;-194.4874;16.41844;-1.00111;-203.2211;-208.0056;-0.5782125;-0.2688268;0;
427.243;0;0;300.5843;22.69859;-9.171778;351.6418;347.0495;-0.4476969;-0.008687371;0;
735.3461;0;0;579.392;26.56054;-9.162562;658.7589;651.8599;-0.5771817;0.2511908;0;
364.3558;0;0;297.3263;18.62963;-10.42603;294.5922;286.7631;-0.3816997;0.05603632;0;
219.7497;0;0;199.4516;18.47719;-12.49203;148.6194;144.9211;0.07345521;0.250882;0;
209.7213;0;0;185.0708;15.04237;-7.99174;137.9753;135.1553;0.07338141;0.445532;0;
-312.2896;0;0;-286.8156;11.7457;-9.323246;-373.9686;-379.3469;0.138275;-0.1396218;0;
-634.6262;0;0;-618.0482;17.76212;-5.696922;-693.9318;-697.743;0.2031034;-0.2694162;0;
-310.4012;0;0;-359.8067;17.40948;-3.815675;-376.8935;-379.3891;-0.1219374;-0.07424344;0;
-171.7838;0;0;-233.3835;12.36814;-16.40439;-238.7716;-244.6379;-0.05684751;-0.2690709;0;
-150.7466;0;0;-214.7833;10.54705;-17.99549;-218.6042;-225.0269;0.008176955;-0.1388658;0;
417.057;0;0;285.1813;8.928866;-19.65187;341.0843;336.792;-0.0567986;0.3810125;0;
746.597;0;0;578.6221;6.374299;-21.23971;668.7642;663.2268;0.2680952;0.3806296;0;
373.534;0;0;292.3719;5.698308;-14.72114;301.1516;294.4329;0.2028584;-0.009556906;0;
223.7963;0;0;193.8774;3.549129;-13.36682;151.3617;147.7731;0.1376873;-0.07451464;0;
216.3875;0;0;186.3113;1.134665;-5.985385;144.338;142.8771;0.2674836;-0.009472432;0;
-310.6901;0;0;-290.2614;0.1281712;-2.362414;-374.2339;-377.6299;0.007345477;0.05550444;0;
-642.3985;0;0;-630.611;-8.846938;-0.3505527;-704.3168;-707.8344;-0.1225966;0.05544867;0;
-329.2851;0;0;-383.2889;-12.92389;2.730892;-398.6998;-400.7146;0.2673306;-0.1395091;0;
-196.021;0;0;-263.8386;-6.815331;-0.3529445;-266.8028;-270.3773;0.656866;-0.3992383;0;
-159.5923;0;0;-232.7765;-7.144252;0.04930772;-229.8656;-234.8733;0.461304;-0.5937391;0;
416.9659;0;0;281.2616;-10.75342;-3.902613;340.5162;336.1383;0.07103647;-0.07340381;0;
737.2607;0;0;578.2671;-12.28383;-6.042145;660.7629;653.9531;-0.1239369;0.511376;0;
371.141;0;0;297.0146;-5.773778;-4.495467;301.0295;293.7892;-0.1887797;0.1860255;0;
227.9649;0;0;195.0798;-2.686518;-5.62966;156.9868;154.8762;0.07127931;0.2508059;0;
208.8078;0;0;174.5815;-14.47281;-4.552276;137.901;137.3543;0.5259791;0.640358;0;
-316.0757;0;0;-297.107;-15.53;-4.145804;-378.603;-380.8358;0.5904179;0.2499105;0;
-642.7813;0;0;-627.6422;-12.70136;-3.806724;-702.5595;-703.1035;0.1350533;0.2496594;0;
-330.0423;0;0;-375.6378;-14.09511;-2.19543;-393.5086;-393.4273;-0.05998446;0.3143758;0;
-180.723;0;0;-236.3302;-3.229959;-4.738454;-242.3764;-245.9809;0.1999452;-0.1407115;0;
-147.2457;0;0;-201.4227;-0.2799524;-5.13559;-208.9621;-213.4375;0.2647116;-0.2055374;0;
407.6234;0;0;289.2832;-1.48512;1.098861;337.3484;334.6891;0.004576264;-0.0753962;0;
737.3604;0;0;581.533;1.329412;1.432671;666.094;660.3764;0.06953901;-0.1402878;0;
373.1147;0;0;303.9004;-6.173037;6.92371;310.1033;302.455;0.06946913;0.05475522;0;
212.1955;0;0;194.3999;-8.243915;10.53371;150.3719;145.7921;0.1343667;0.2496022;0;
208.1717;0;0;186.8958;-1.671548;-4.011805;145.723;143.022;0.394101;0.3143188;0;
-302.7183;0;0;-272.1239;-1.134005;-6.821057;-357.2332;-360.3063;0.3287377;-0.01083379;0;
-637.0583;0;0;-609.3058;-4.213348;-3.799971;-689.2697;-690.5906;0.1984727;-0.1407576;0;
-324.3251;0;0;-356.383;-4.00902;-6.877368;-382.9182;-382.9884;0.06833858;-0.01068147;0;
-178.3225;0;0;-220.2181;-6.884404;2.573892;-235.9821;-239.9878;0.2631719;-0.1406054;0;
-145.0349;0;0;-189.9494;-8.887218;5.384589;-202.949;-208.8247;0.2629075;-0.01052945;0;
413.7675;0;0;300.6199;1.168419;-5.203881;345.5418;342.1708;-0.1271607;0.3143179;0;
734.9401;0;0;583.3006;4.182332;-5.935464;664.6591;658.5428;0.002901737;0.05413266;0;
377.0686;0;0;311.3509;-3.994521;-4.32191;312.5429;304.3088;-0.06206852;-0.01088909;0;
226.7026;0;0;212.8999;-4.391673;-5.389294;160.8674;157.4517;-0.1269735;0.3789259;0;
202.7992;0;0;186.5116;-2.378504;0.57748;138.342;136.304;0.2629581;0.5084798;0;
-318.0803;0;0;-286.1883;-3.112072;2.385317;-373.6647;-377.6996;0.1327592;-0.1417045;0;
-643.0347;0;0;-618.1712;0.4410282;-0.497224;-696.6267;-698.2838;-0.2571782;-0.5313662;0;
-328.109;0;0;-365.4893;1.444963;0.5080196;-386.7696;-386.2386;-0.3218871;-0.1410282;0;
-182.9772;0;0;-230.3772;-1.436877;-0.1623202;-241.3289;-242.735;-0.06169434;-0.07591915;0;
-159.2426;0;0;-206.7825;-1.167013;0.4406893;-217.2234;-220.4397;0.003334991;-0.01087553;0;
401.6355;0;0;285.6779;0.1733298;0.3732635;335.7795;332.2541;-0.126603;0.1840374;0;
738.4374;0;0;584.5529;2.316609;0.03797383;669.5242;664.1283;0.1983609;-0.01104952;0;
368.1937;0;0;300.7954;-2.038999;5.597397;303.66;298.0197;0.1331942;0.05392894;0;
208.0291;0;0;187.8623;-2.104299;6.797465;141.8735;139.6746;-0.2567437;0.2487768;0;
207.82;0;0;181.6141;9.083599;6.522704;140.9814;139.222;-0.126551;0.05362478;0;
-309.3164;0;0;-284.7091;12.82552;7.185857;-367.9046;-371.4113;0.06847818;0.0535709;0;
-647.2731;0;0;-628.0004;14.01808;4.633407;-705.0527;-705.4326;-0.06152531;-0.01145029;0;
-328.1578;0;0;-371.3105;15.67893;3.69099;-391.8139;-390.1319;-0.1913982;-0.4012428;0;
-178.653;0;0;-231.5075;23.03057;1.878865;-239.1842;-241.252;-0.3861079;-0.3358723;0;
-149.8005;0;0;-205.163;26.02154;0.2693863;-209.0214;-212.274;-0.2557852;-0.1406328;0;
400.0113;0;0;284.672;17.42255;-0.4676967;333.6659;332.1657;-0.4504302;-0.01055682;0;
718.3242;0;0;574.4277;15.99755;-1.538954;651.3583;647.4858;-0.3850103;0.1843558;0;
364.7797;0;0;299.6758;10.22167;-3.011032;302.8786;297.2609;0.2000826;-0.2056335;0;
214.6135;0;0;193.5529;5.388632;-3.811679;152.2748;149.099;0.2648489;-0.07549217;0;
199.4678;0;0;178.4909;11.07664;-2.87021;138.1913;136.393;0.1346481;0.5742571;0;
-307.6028;0;0;-276.7097;11.13286;-2.733361;-359.6973;-362.4308;0.2644475;0.3138107;0;
-635.3163;0;0;-608.5773;3.619589;-1.25699;-684.1102;-686.0289;0.1992144;0.1185934;0;
-329.2065;0;0;-363.5261;2.811669;-0.1839996;-384.573;-385.3028;-0.1258224;0.1184742;0;
-178.5138;0;0;-224.668;2.943542;-0.5187294;-233.4498;-237.8021;-0.4505327;-0.1415142;0;
-150.5984;0;0;-195.5817;0.9308522;0.1516211;-202.4182;-210.077;-0.3851127;0.05353003;0;
398.9643;0;0;289.6835;11.64719;-1.18819;340.1375;333.7358;-0.3197584;0.1834109;0;
734.0822;0;0;585.1812;12.43879;-2.861569;672.6285;665.4211;-0.2544697;-0.0116754;0;
363.593;0;0;306.7329;14.43602;3.169648;307.5733;300.4981;-0.05931202;0.05330369;0;
196.6239;0;0;197.7918;17.23456;3.970258;139.661;136.6534;-0.3191218;-0.1416519;0;
209.7946;0;0;204.3396;4.021724;-2.798885;153.6385;149.6969;-0.3837685;-0.07654224;0;
-296.7867;0;0;-253.1983;4.553547;-3.532763;-344.578;-350.0774;0.3962252;0.1184367;0;
-647.8119;0;0;-607.6406;-3.890146;-10.5623;-694.4307;-696.8636;0.3958271;0.1183177;0;
-327.4467;0;0;-351.2211;-3.886237;-14.10166;-379.1411;-381.6965;-0.254244;0.1181988;0;
-169.4469;0;0;-206.4408;1.408953;-8.929927;-220.4022;-226.4533;-0.1240539;0.11808;0;
-156.3456;0;0;-196.4258;1.74233;-9.724749;-207.9994;-215.9184;0.2009075;0.1179614;0;
395.4717;0;0;288.278;34.42727;-7.571646;334.8119;327.1507;0.07077092;-0.07705916;0;
730.9055;0;0;587.088;44.97623;-6.157396;666.9958;658.905;-0.05923488;0.1179203;0;
367.291;0;0;311.8861;56.04947;-9.031353;309.1926;299.9855;0.1357267;0.5076059;0;
210.688;0;0;207.4376;69.59081;-9.089261;153.2727;144.637;0.265525;0.3121938;0;
202.6052;0;0;192.3616;44.3353;-6.534899;145.0602;138.1199;0.1353235;0.1169781;0;
-303.594;0;0;-267.6005;40.47334;-5.456605;-353.4601;-361.4553;-0.1896492;0.0518932;0;
-633.9352;0;0;-604.0999;51.48473;-7.259662;-681.0026;-689.3022;-0.449328;0.3117104;0;
-330.388;0;0;-366.1747;48.35154;-6.314606;-383.9048;-389.1975;0.005894879;0.1814625;0;
-182.0679;0;0;-233.7481;44.01605;-6.777142;-237.0926;-244.629;0.3307257;-0.2734912;0;
-154.4613;0;0;-209.2754;41.2925;-5.631622;-209.1183;-220.3952;0.1354913;0.1165877;0;
395.0428;0;0;277.9401;30.86854;-2.343922;333.1943;323.1781;-0.1894815;0.5062746;0;
724.1677;0;0;579.4466;24.74293;-0.3320789;660.1949;649.6891;-0.3841932;0.1159618;0;
360.1227;0;0;302.1909;32.68867;4.62487;302.1487;289.9043;-0.05897041;-0.2739588;0;
202.9646;0;0;187.5698;31.71782;6.897642;143.987;135.4405;-0.1888458;-0.1437488;0;
209.3199;0;0;185.7571;27.60011;11.37845;148.4025;142.176;-0.2536234;-0.2085717;0;
-297.6357;0;0;-272.012;27.63973;12.97448;-351.5579;-359.6522;0.2014028;-0.3382968;0;
-646.786;0;0;-623.8742;24.1957;11.82286;-697.9678;-704.4298;0.07126575;-0.0131202;0;
-329.3578;0;0;-368.7503;24.7746;10.60528;-385.5482;-390.2546;0.0062268;0.376697;0;
-170.669;0;0;-223.9523;22.94105;9.121003;-226.1157;-234.6905;0.1361552;-0.2083876;0;
-161.2521;0;0;-216.6059;23.78865;8.174078;-216.2684;-227.2083;-0.2537856;-0.5979822;0;
387.4467;0;0;269.7424;26.31034;-5.230356;322.8655;313.8732;-0.6433347;-0.2075773;0;
729.3228;0;0;580.4401;25.6807;-9.913784;661.6832;651.0756;-0.5777209;-0.3373034;0;
372.0817;0;0;307.9935;36.57323;-12.31521;310.2571;298.2234;-0.4472057;-0.3369645;0;
210.5388;0;0;193.9911;35.7322;-17.12548;147.6519;138.9412;-0.1219197;0.2480802;0;
199.0205;0;0;177.8667;43.06466;-5.520472;136.4466;129.3064;0.2030395;0.05292888;0;
-307.8623;0;0;-278.9575;44.56163;-3.170522;-361.3153;-369.7603;0.2678029;-0.1420263;0;
-647.0074;0;0;-619.3184;22.27901;-5.042859;-696.9709;-704.97;-0.05730293;0.05301841;0;
-345.8833;0;0;-377.1301;17.90334;-1.353852;-399.2324;-406.3489;-0.2521474;0.1179325;0;
-190.4887;0;0;-234.3227;-6.29585;-6.041175;-243.097;-251.6432;0.3977794;-0.01212072;0;
-160;0;0;-210.4741;-17.87647;-5.298293;-214.8668;-224.0291;0.3324124;0.05285882;0;
394.1323;0;0;275.4932;-9.887908;0.8693389;328.2637;320.7348;-0.3825624;-0.01216165;0;
737.3136;0;0;583.249;-15.30396;2.074036;667.7006;659.2422;-0.3172106;-0.01214943;0;
375.4418;0;0;309.4253;5.006884;5.555065;313.2075;302.3839;-0.3818593;0.05283013;0;
211.6467;0;0;199.0448;13.64302;5.750432;152.7858;142.2853;-0.5763776;0.1177444;0;
223.9902;0;0;211.4009;1.438171;9.495576;168.6867;157.6346;-0.05605971;0.2475608;0;
-290.3515;0;0;-246.3315;4.048694;10.35681;-335.0422;-347.2701;0.2688333;-0.1424921;0;
-664.0592;0;0;-620.4583;16.57056;1.571886;-705.5192;-715.2985;0.2035959;-0.2722836;0;
-349.7996;0;0;-370.2728;20.03653;-0.7740961;-397.5897;-405.2353;0.1384239;0.1177941;0;
-173.2867;0;0;-207.6073;21.62399;-9.011975;-223.4025;-232.4147;-0.05661717;0.1176757;0;
-160.1191;0;0;-195.4048;24.14786;-13.82557;-211.4339;-220.6245;-0.186495;-0.0123772;0;
382.5191;0;0;278.2411;14.27698;-11.40041;324.0719;316.2024;-0.3812096;0.1175699;0;
732.4587;0;0;585.1821;11.51694;-12.66163;672.0712;661.7109;-0.5107613;0.05248446;0;
377.5258;0;0;316.6663;11.37165;-11.57718;321.2594;308.4732;-0.1854113;0.3772684;0;
210.3552;0;0;205.7787;9.082071;-9.623047;153.0835;143.3711;0.1396117;0.7017261;0;
205.7711;0;0;200.8867;6.259906;-10.6851;149.1191;141.1031;0.1394714;0.05134754;0;
-299.2444;0;0;-255.5858;3.374204;-10.27247;-347.8435;-357.7255;-0.1205381;0.05129595;0;
-647.2062;0;0;-612.0871;12.54687;1.057723;-694.0698;-702.3801;-0.120417;0.1162117;0;
-342.0839;0;0;-372.4048;15.74944;3.668873;-394.5226;-401.7626;0.2695081;-0.4686111;0;
-178.0725;0;0;-222.2933;9.705394;6.344503;-230.0836;-239.2529;0.07433524;-0.3382056;0;
-155.2174;0;0;-199.0815;11.97282;9.553187;-206.9265;-215.9616;-0.7053475;0.1169057;0;
385.9791;0;0;279.7529;9.817333;-3.11582;325.8887;317.175;-0.3798021;0.05182086;0;
726.3574;0;0;580.7579;8.869464;-5.658041;664.1411;652.7499;0.2052856;-0.0781659;0;
371.9929;0;0;307.4364;24.93645;-7.393911;316.2733;303.0195;-0.1197574;-0.01312002;0;
207.7639;0;0;191.748;29.86789;-9.998694;150.851;140.9839;-0.4444738;0.05186052;0;
214.1768;0;0;192.8047;24.54659;-9.787699;156.509;149.0881;-0.1191904;-0.07812629;0;
-282.039;0;0;-254.7267;26.33059;-10.98356;-331.9029;-341.4402;0.205766;-0.1430151;0;
-640.2629;0;0;-618.2878;25.4325;-6.618752;-689.2646;-697.543;0.1405919;-0.07790409;0;
-341.5194;0;0;-382.5348;25.00578;-6.210204;-395.7817;-402.8649;0.2703854;-0.2077605;0;
-184.2552;0;0;-233.9749;27.52528;1.23102;-236.1515;-246.9133;0.2051463;0.117285;0;
-172.201;0;0;-220.6214;28.23455;4.846739;-224.2326;-234.6712;-0.05492918;0.6369058;0;
383.2554;0;0;268.2922;22.31168;-0.8515583;321.7809;314.5387;0.01009335;0.3114292;0;
738.3167;0;0;585.4255;19.94572;0.1540414;675.6545;666.5455;0.2049852;-0.2735898;0;
373.133;0;0;307.3518;24.94854;-3.797984;317.5302;306.8687;0.07484458;-0.1433802;0;
203.3432;0;0;191.7259;23.65165;-5.468741;148.2961;141.0811;-0.1851;0.05166588;0;
215.3827;0;0;199.8416;26.642;-3.654707;160.266;154.7449;-0.184914;-0.2732227;0;
-283.458;0;0;-250.0706;27.28481;-4.923711;-331.1481;-338.4753;-0.2496955;-0.3379156;0;
-643.1797;0;0;-614.6985;19.82266;-2.574483;-688.8229;-695.3306;-0.11951;0.05222804;0;
-335.8127;0;0;-372.3273;18.86473;-2.772845;-388.9687;-392.6588;0.07551215;0.1821102;0;
-170.6831;0;0;-217.5933;10.07089;-1.497383;-224.5977;-229.8459;-0.05449841;-0.01297478;0;
-171.4486;0;0;-214.1888;5.104279;-0.3571684;-222.6229;-231.6139;0.4003277;-0.1428964;0;
368.2025;0;0;260.2881;13.1371;-5.648339;310.7703;301.9757;0.5298602;0.1820839;0;
738.896;0;0;586.7373;12.38697;-6.178527;679.9598;670.7993;0.1395237;0.1169336;0;
390.141;0;0;326.2784;11.90601;-6.842148;336.8861;327.36;0.1393835;-0.07808595;0;
220.2092;0;0;215.2562;12.63098;-7.907;164.3842;158.9281;-0.1855932;0.1168945;0;
229.733;0;0;218.788;8.666171;-3.21025;172.5898;169.5755;-0.1204394;0.1167771;0;
-278.8048;0;0;-236.8904;8.322671;-1.934471;-326.8951;-330.4062;0.5943224;-0.01327495;0;
-647.6516;0;0;-604.7174;6.304576;-2.870288;-691.8831;-695.5779;0.2039211;0.1816404;0;
-349.4005;0;0;-372.1014;4.690651;-2.33154;-398.8348;-402.7134;-0.1860878;0.3763599;0;
-183.7574;0;0;-220.4285;8.570704;0.7520174;-233.9542;-240.4526;0.3988052;0.1810797;0;
-165.9566;0;0;-202.9032;8.562092;1.889972;-217.7272;-226.4054;0.2684698;-0.01400424;0;
377.4995;0;0;272.4368;7.214318;1.017294;316.1608;308.3034;-0.3814733;0.1809119;0;
737.5015;0;0;589.4411;7.340791;1.88705;675.1625;665.8137;-0.05625332;-0.1441066;0;
382.5011;0;0;325.3562;5.457405;-3.272409;327.0338;317.1322;0.3985746;-0.1439618;0;
205.9553;0;0;211.274;5.652992;-5.412575;149.2944;144.3377;0.3332068;0.1160522;0;
216.5554;0;0;216.9962;2.030965;1.625949;159.6391;156.8113;0.2679046;-0.4687705;0;
-283.9732;0;0;-236.9937;0.555056;3.298767;-332.1492;-336.3484;0.3326028;-0.2733974;0;
-650.8783;0;0;-607.007;6.783789;-2.397975;-695.3203;-698.7656;0.007431855;0.3115833;0;
-350.4375;0;0;-373.3892;8.116143;-2.663497;-400.7693;-403.8364;-0.447347;0.3112703;0;
-172.737;0;0;-218.9664;8.912271;-2.459872;-226.0168;-232.0168;-0.3169628;0.3109575;0;
-151.8239;0;0;-207.2522;11.31421;-4.801681;-208.111;-214.7297;0.00819237;0.2456777;0;
375.5637;0;0;260.5335;7.284357;6.054135;311.6494;306.4742;0.008184138;-0.01443853;0;
728.1964;0;0;580.0485;6.406382;8.325349;665.1584;656.74;0.1381106;-0.07939136;0;
381.5135;0;0;314.9736;13.63361;-1.127366;325.5355;315.3139;0.2029392;-0.01434425;0;
209.2166;0;0;195.5295;14.4242;-1.595113;151.9205;145.2074;-0.1221015;-0.2092319;0;
213.5042;0;0;196.2701;11.93146;-9.229321;154.3915;149.9965;-0.1869461;-0.1440543;0;
-283.898;0;0;-254.2633;11.04784;-12.90411;-336.0172;-340.6577;0.2030458;0.1809272;0;
-638.5593;0;0;-611.8904;10.97036;-7.331681;-687.6277;-690.8267;0.3327765;0.5055821;0;
-349.75;0;0;-383.4526;11.09306;-6.989399;-403.5167;-404.9633;-0.252264;0.1802374;0;
-187.48;0;0;-235.454;2.240656;-8.92476;-241.3176;-244.8867;-0.1870432;-0.2747151;0;
-156.9943;0;0;-212.7912;-0.173469;-8.513894;-211.6524;-217.7167;-0.05692056;0.05039763;0;
378.0821;0;0;258.186;-0.5080873;-4.017605;313.6089;307.4882;-0.2517654;0.1153143;0;
733.5233;0;0;577.0162;-3.722758;-3.075807;665.5542;657.1908;0.203259;-0.2096383;0;
389.209;0;0;311.0698;7.199323;2.687572;327.4301;317.3884;0.7227935;-0.1444603;0;
214.0932;0;0;186.9445;9.602986;5.230223;153.3759;146.7801;0.4621978;-0.5341191;0;
229.3078;0;0;200.3748;8.991101;0.4023181;169.2762;164.6861;0.1368967;-0.2087458;0;
-273.6699;0;0;-248.8509;14.40707;0.5358797;-325.083;-331.605;0.3316612;0.181268;0;
-654.9531;0;0;-627.6603;4.345891;-6.296796;-702.504;-707.9575;0.2663606;-0.07878348;0;
-355.6326;0;0;-390.1487;7.489355;-9.907425;-407.8209;-410.8326;-0.05874376;-0.01373698;0;
-181.2378;0;0;-229.2748;3.999206;-6.816377;-234.6854;-239.1934;0.1362173;0.4410482;0;
-170.9357;0;0;-217.8001;0.04307209;-8.550962;-225.3292;-232.3939;0.006145733;0.6355071;0;
370.0891;0;0;258.7418;39.89702;-9.949012;307.5045;300.5719;-0.2537298;0.5699012;0;
745.7158;0;0;587.504;49.36777;-10.94376;677.8217;671.1459;0.2012965;0.3094592;0;
402.6385;0;0;328.5435;45.23233;-11.80354;338.3734;330.455;0.1361269;0.04927887;0;
229.8206;0;0;216.9568;53.35856;-11.99263;167.9314;160.2083;0.0710228;-0.015738;0;
237.7106;0;0;221.6738;29.05834;-15.53055;178.1325;171.3542;0.3957881;-0.08068953;0;
-269.336;0;0;-233.8201;23.46944;-17.6584;-320.4835;-327.1925;0.4603578;-0.2105431;0;
-648.3122;0;0;-608.5217;29.6078;-13.82263;-695.8476;-700.426;0.4598952;-0.0803969;0;
-367.8015;0;0;-387.7084;25.02369;-15.1484;-419.7868;-421.612;0.2645311;-0.4701202;0;
-195.5808;0;0;-232.834;26.13665;-12.98973;-249.0756;-253.5226;0.1992979;-0.7944845;0;
-163.5253;0;0;-204.6766;23.02991;-11.16826;-219.7774;-225.5943;0.06916302;-0.1440128;0;
372.6196;0;0;267.7292;27.49475;-25.22308;308.0532;303.9913;-0.1907758;0.63574;0;
736.3123;0;0;587.9241;28.1367;-27.54214;671.2485;664.7544;-0.1256168;0.7650359;0;
401.5528;0;0;339.2081;23.95525;-26.64369;342.6138;336.3137;-0.06052325;0.2445285;0;
229.0483;0;0;226.9236;25.87356;-28.42533;168.9192;167.7478;0.06947225;-0.1455213;0;
234.9401;0;0;228.1948;12.04981;-19.01941;174.4341;173.9511;0.4592065;-0.1453751;0;
-276.2267;0;0;-230.554;7.617071;-16.12015;-328.6134;-331.0949;0.3288104;-0.340131;0;
-661.3179;0;0;-615.8161;20.26809;-14.49636;-711.653;-712.3829;0.133578;-0.2748219;0;
-361.7411;0;0;-383.9386;19.91294;-12.00355;-417.1481;-416.5655;0.1334438;0.05029096;0;
-185.3412;0;0;-222.0715;28.13195;-8.240446;-239.7554;-242.7341;-0.06159235;-0.07969427;0;
-177.2214;0;0;-213.7899;33.39497;-6.155817;-230.9563;-236.1808;-0.06153046;-0.01464685;0;
367.3705;0;0;259.937;18.62566;-7.958049;303.6946;299.8497;0.003498708;0.2452372;0;
746.1857;0;0;591.0092;16.99935;-7.280345;677.7638;672.6108;0.06846254;0.1150561;0;
392.301;0;0;322.9873;24.68543;-14.30599;329.0702;322.4857;0.4581978;-0.1449288;0;
209.6859;0;0;200.9739;25.79872;-16.90395;147.2683;143.9387;-0.06200134;-0.4046526;0;
218.5956;0;0;209.8299;23.76405;-16.41809;158.8019;157.7246;-0.5167105;-0.599148;0;
-281.3728;0;0;-240.4672;24.27603;-18.81285;-333.048;-335.4986;0.1984495;-0.2737093;0;
-647.9057;0;0;-610.7893;27.80161;-13.63639;-698.9042;-700.0405;0.5230868;0.2463045;0;
-360.149;0;0;-390.1612;29.71606;-12.28315;-416.7185;-417.1665;0.1977245;0.1810897;0;
-190.06;0;0;-243.2803;28.21233;-15.41888;-247.3847;-253.5793;0.3274605;-0.143929;0;
-162.945;0;0;-221.4841;27.04588;-13.92976;-221.3366;-229.7739;0.4570662;0.1810523;0;
370.5132;0;0;254.6867;38.33821;-15.59034;304.4966;298.0668;0.1967375;0.05093572;0;
732.2089;0;0;583.2654;41.11273;-15.44071;664.4471;655.2751;0.1315725;-0.5338215;0;
390.0822;0;0;321.6856;30.22043;-8.593059;328.1357;317.9734;0.3263423;-0.2084485;0;
209.5309;0;0;189.9284;28.44875;-6.508075;147.3966;141.6799;0.2610471;0.4414344;0;
220.7521;0;0;195.6721;22.45832;-5.295843;157.6808;153.7189;0.1308501;-0.07874788;0;
-270.2856;0;0;-246.5523;16.87702;-3.88388;-326.7343;-330.5672;0.2606533;-0.3385381;0;
-650.3228;0;0;-627.2381;23.08936;-1.468714;-704.8407;-705.9213;0.06548938;0.3114755;0;
-361.002;0;0;-402.2831;22.0608;0.3413009;-420.0253;-420.9798;-0.1294785;0.3761298;0;
-181.3543;0;0;-238.461;11.65713;-6.156264;-239.1939;-243.7707;0.325423;-0.01405215;0;
-176.6119;0;0;-233.8486;8.095448;-7.958496;-234.4559;-240.902;0.5199981;0.2458313;0;
355.1109;0;0;234.8384;10.23077;-5.070355;289.0167;282.0148;0.1946389;0.4404864;0;
740.8725;0;0;584.2391;8.746618;-5.869055;672.2835;663.1647;-0.2603281;0.05023971;0;
388.8671;0;0;318.7228;9.675835;-6.198073;326.469;316.0475;-0.1950992;-0.07974547;0;
198.3844;0;0;182.8457;11.34008;-5.85693;135.1744;128.9488;-0.1949031;0.1152367;0;
228.1076;0;0;208.7113;2.822215;-9.869899;165.086;162.9896;-0.1947073;0.1151209;0;
-260.3138;0;0;-228.5287;1.010718;-11.13266;-314.6513;-316.2459;0.4551618;0.05003789;0;
-648.7318;0;0;-614.4175;11.92804;-6.298822;-701.578;-700.8596;0.3897371;0.1799223;0;
-363.7854;0;0;-389.6628;14.66175;-5.689647;-420.2016;-419.5465;-0.1953606;0.1147742;0;
-190.6942;0;0;-228.4146;13.77636;-4.277288;-245.0547;-250.2098;-0.130197;-0.01527586;0;
-174.3232;0;0;-212.6929;15.50383;-2.397468;-228.9415;-237.3397;-0.06509881;0.04970685;0;
360.1459;0;0;258.7215;18.83813;-6.347052;297.4616;291.633;0.1298686;0.1146242;0;
729.7231;0;0;587.796;21.09638;-6.541624;663.1662;656.4689;0.0647708;0.04954173;0;
390.9098;0;0;330.3345;16.78827;-4.994443;330.3543;319.9781;-0.06522897;-0.1454101;0;
208.3586;0;0;205.6276;15.63233;-5.927186;149.4881;142.5581;-0.1301308;-0.4701007;0;
217.582;0;0;210.231;20.57311;-0.4957345;157.6462;155.1584;-0.324902;-0.07982428;0;
-265.6439;0;0;-226.136;21.55779;1.179337;-317.5859;-322.3825;-0.06470621;0.31006;0;
-639.2515;0;0;-599.0337;15.37321;-3.979412;-687.5806;-692.9346;0.0003261532;-0.01508828;0;
-355.8138;0;0;-378.9171;13.88488;-3.640499;-410.5287;-412.2541;-0.3245109;-0.08004046;0;
-178.3578;0;0;-214.3064;16.08075;-7.454746;-232.5804;-234.1167;-0.1292828;-0.0149927;0;
-171.8068;0;0;-204.1586;15.19394;-9.255795;-223.2263;-226.885;0.1307165;-0.3398143;0;
352.0401;0;0;252.8794;16.58519;-3.754016;293.0511;288.3966;0.1305851;-0.4694076;0;
737.1176;0;0;589.3311;16.30108;-3.616278;673.1904;666.2292;0.0005192424;-0.2090665;0;
398.4218;0;0;335.7411;15.88256;-1.402329;338.6818;330.978;0.1304534;0.1809476;0;
203.5567;0;0;204.8444;15.53181;0.005721247;145.3136;140.9283;0.0003876405;0.4406351;0;
216.658;0;0;213.9464;13.90861;-4.013138;158.0361;157.0285;-0.06458009;0.4401924;0;
-264.8802;0;0;-222.4244;13.96198;-4.812901;-316.3219;-317.141;0.3252889;-0.01502133;0;
-644.8605;0;0;-602.5722;6.780659;-4.473151;-692.0025;-692.5085;0.1950273;-0.4697776;0;
-367.0393;0;0;-385.638;3.491316;-5.540383;-419.6313;-420.0742;-0.1949727;-0.2744036;0;
-190.4466;0;0;-226.3928;11.19097;-6.874475;-244.0477;-248.2383;0.06509258;0.1156762;0;
-174.0759;0;0;-216.6077;11.91666;-8.207104;-229.1223;-234.3083;-0.06490751;0.2454947;0;
353.7088;0;0;249.2509;9.894951;-10.27533;290.097;286.4155;-0.389679;-0.07958873;0;
731.9131;0;0;586.8307;11.29153;-12.27449;666.6786;661.0018;-0.06445074;-0.1444761;0;
397.2206;0;0;327.6835;7.93128;-13.13281;335.7997;329.379;0.0005813604;-0.01439624;0;
208.6035;0;0;192.3596;7.722239;-15.19609;145.8076;142.9541;-0.5191579;-0.2092838;0;
220.6378;0;0;201.6615;12.00139;-15.31479;158.2798;157.1782;-0.5186363;-0.2740408;0;
-261.0919;0;0;-229.7618;12.52519;-16.43811;-313.5172;-318.0534;-0.3232132;-0.4686675;0;
-645.886;0;0;-612.5884;15.59407;-20.17251;-692.6989;-696.9183;0.001948323;-0.4032293;0;
-369.8129;0;0;-399.7671;16.3817;-20.95604;-423.8877;-423.1053;0.1968484;-0.01302004;0;
-190.094;0;0;-236.6347;18.97819;-26.15953;-248.0499;-247.768;-0.1931535;0.2468624;0;
-183.8435;0;0;-233.0861;21.77216;-28.07563;-241.4913;-244.2707;-0.127992;0.3115817;0;
343.951;0;0;229.8531;10.63087;-25.50219;278.4901;275.7135;-0.06289608;-0.01356809;0;
742.4674;0;0;585.8181;8.878876;-26.4813;672.512;668.3015;-0.2577349;-0.2734238;0;
405.6403;0;0;331.8568;13.42431;-19.62256;343.3139;334.9846;0.06736077;-0.1432144;0;
208.4566;0;0;193.7801;13.00965;-16.92365;149.7536;145.2433;-0.2575436;-0.01313582;0;
233.9217;0;0;217.261;16.68027;-20.38963;175.4026;176.5815;-0.3222522;0.1817794;0;
-253.7558;0;0;-217.364;16.79724;-18.56061;-302.4085;-306.0409;0.2627777;-0.01330527;0;
-657.7351;0;0;-615.9451;22.7422;-21.82412;-703.5279;-705.0327;-0.06232305;-0.2081939;0;
-377.7147;0;0;-399.3098;24.72811;-22.40491;-433.9561;-430.337;-0.3870972;-0.01308271;0;
-193.5525;0;0;-233.7416;21.15329;-18.43053;-251.549;-255.4298;-0.4516755;0.1168651;0;
-184.3001;0;0;-226.4478;22.67325;-18.61296;-240.2393;-245.7404;-0.321287;0.05178037;0;
349.6793;0;0;243.731;10.32561;-14.37446;285.4879;283.8654;0.06883989;-0.01323902;0;
740.194;0;0;592.1234;6.028327;-13.15432;673.7557;668.4493;0.4585748;0.2466437;0;
400.9329;0;0;342.0913;7.697209;-14.41378;341.5579;337.2563;0.263212;0.3763305;0;
208.5015;0;0;212.1252;1.259114;-12.72472;149.9983;149.1368;-0.1268566;0.05111568;0;
226.7827;0;0;221.7197;12.51098;-19.87899;167.901;162.9174;0.1981076;-0.1438377;0;
-258.2639;0;0;-214.8463;10.02016;-21.26566;-307.4039;-316.4429;0.4577779;-0.07872585;0;
-649.6826;0;0;-601.4985;8.402505;-16.89052;-691.8391;-699.8696;-0.1923555;0.24619;0;
-375.4797;0;0;-390.7497;11.2071;-16.73958;-424.1531;-427.9277;-0.3220969;0.4408446;0;
-193.9435;0;0;-225.9397;-26.04618;-13.30663;-244.6919;-248.0254;0.06803081;0.2454996;0;
-180.0056;0;0;-210.158;-34.72755;-11.9536;-227.767;-233.8457;-0.06197223;0.3751876;0;
343.8496;0;0;248.2603;-34.29051;-7.855754;288.64;282.4424;-0.06190996;0.9595167;0;
736.9313;0;0;590.4637;-43.36573;-4.699785;680.7152;668.9642;0.3279563;0.7636506;0;
405.4196;0;0;346.8051;-13.71595;-9.24978;357.9431;342.4557;0.1976921;0.04824249;0;
199.7404;0;0;207.7139;-8.00874;-8.771605;148.1262;140.8378;0.2624608;-0.2116754;0;
221.0289;0;0;219.4991;-10.81471;-8.628825;163.8444;163.4349;0.262197;0.1783414;0;
-249.6442;0;0;-203.7588;-4.507202;-10.0268;-298.5254;-297.3728;-0.1278704;0.5029989;0;
-651.1289;0;0;-602.3536;-14.54938;-4.457261;-695.963;-695.8111;-0.127742;0.0477221;0;
-376.6123;0;0;-393.7903;-14.40104;-3.983902;-423.9001;-426.8093;-0.06264626;-0.08226055;0;
-183.2684;0;0;-214.7345;-15.1235;-6.726077;-228.5721;-232.4779;0.002384027;0.04775681;0;
-181.585;0;0;-211.0205;-16.38111;-6.652335;-228.9047;-231.807;0.002381631;-0.01725854;0;
338.0239;0;0;239.4652;-15.1592;-11.80322;280.257;279.6065;0.002379238;0.4375302;0;
739.4198;0;0;592.2347;-14.74182;-13.06403;679.3997;677.0006;0.1323115;0.3721232;0;
406.4688;0;0;343.6393;-13.72263;-14.18961;352.0687;346.3612;0.2621133;-0.2129568;0;
203.4123;0;0;199.8661;-12.70349;-15.24708;149.1292;143.1152;0.1968825;-0.2127428;0;
223.8225;0;0;212.8461;-3.916816;-11.07894;170.0313;163.711;0.06675004;-0.08259434;0;
-253.725;0;0;-218.4636;-0.2955575;-9.795135;-303.0268;-306.6547;0.261585;0.3072927;0;
-656.0801;0;0;-619.1675;2.6515;-7.842787;-704.5829;-703.3345;-0.1284819;0.3719513;0;
-385.5565;0;0;-410.7123;5.529224;-6.49537;-437.7587;-432.9509;-0.4531895;0.04674084;0;
-196.389;0;0;-237.5115;5.322598;-2.469868;-250.9125;-246.4843;-0.06293009;0.2415959;0;
-187.4461;0;0;-228.1525;5.987811;-0.591986;-240.9153;-241.614;0.1320352;-0.08348358;0;
335.3546;0;0;234.4694;4.507926;-1.997911;277.6288;275.6189;0.001967815;-0.148367;0;
729.007;0;0;588.2433;4.570745;-1.46004;666.4667;664.1465;-0.1929362;0.7613248;0;
394.9421;0;0;334.7794;-3.070634;-5.678497;336.1502;333.7699;0.002159701;0.5006905;0;
195.8326;0;0;191.3899;-6.014309;-7.213277;139.9109;140.4066;0.1970596;0.04541601;0;
219.9361;0;0;210.5628;-1.453915;-8.009825;165.2576;164.8781;-0.1929425;0.1753051;0;
-254.7339;0;0;-217.9335;-1.719898;-9.341434;-303.1107;-304.3643;-0.1277813;-0.1497078;0;
-658.5873;0;0;-620.3246;-0.177928;-7.925407;-704.0419;-702.4832;0.00228179;-0.0196227;0;
-381.6894;0;0;-404.1846;0.4254631;-7.314597;-431.8459;-429.1643;-0.06268784;0.04536437;0;
-187.8406;0;0;-222.807;4.309802;-8.378974;-238.384;-237.7666;0.1322772;0.1752535;0;
-196.0227;0;0;-226.3312;6.181481;-7.968657;-246.5153;-247.5227;0.1971116;0.2400447;0;
318.4783;0;0;225.8565;4.835124;-3.941796;259.7905;259.5338;0.06697886;-0.0850332;0;
731.8253;0;0;591.0084;5.700921;-2.66516;671.8847;669.5043;0.001944214;0.239889;0;
402.5676;0;0;341.1649;3.149597;0.6195597;349.8087;344.0573;-0.1929598;0.3046153;0;
191.8314;0;0;191.5846;2.610569;2.96334;139.2503;136.5658;-0.3876679;-0.08549488;0;
214.9394;0;0;212.6314;2.742644;-1.996253;162.9109;162.353;-0.06244166;-0.280311;0;
-257.6017;0;0;-210.6196;2.806261;-2.798042;-300.27;-303.8883;0.1325231;-0.215062;0;
-653.5812;0;0;-606.209;1.932785;-0.8528476;-691.5215;-695.5735;-0.06251208;0.1749582;0;
-376.0011;0;0;-391.0203;1.729772;-1.655664;-418.3386;-420.0752;-0.06244927;0.3696844;0;
-188.0926;0;0;-214.7783;5.813871;-2.524778;-230.2001;-232.9969;0.002580822;-0.02049114;0;
-184.6552;0;0;-210.4395;6.544964;-3.326037;-225.9084;-230.1391;0.06754557;-0.08543789;0;
331.7084;0;0;241.295;10.62422;-6.537753;282.1259;278.3991;0.132445;-0.08535204;0;
728.488;0;0;592.251;12.69063;-8.674638;677.7059;671.6091;0.06734462;-0.4750703;0;
402.7943;0;0;348.2158;9.395349;-6.857382;358.3727;349.7832;-0.3225271;-0.3446583;0;
201.6155;0;0;211.247;9.98912;-7.453339;154.9896;150.0944;-0.4521377;-0.01947527;0;
221.5903;0;0;230.8373;6.964973;-8.785508;173.8868;173.994;0.003087995;-0.08442304;0;
-247.5842;0;0;-192.5569;6.221041;-7.63797;-287.9934;-288.8857;0.3279216;0.1105638;0;
-649.8206;0;0;-593.9116;7.085446;-13.92657;-687.8154;-690.2061;0.2626248;0.04548538;0;
-380.3652;0;0;-386.5438;7.010977;-14.51542;-421.7576;-423.2714;0.1973935;-0.08449502;0;
-184.2689;0;0;-208.807;8.143008;-9.879137;-226.3069;-230.5053;0.06726051;-0.01944277;0;
-190.4556;0;0;-214.2818;7.732685;-9.668262;-234.7001;-240.1437;0.002225583;0.1105115;0;
319.7294;0;0;229.4605;12.74876;-0.2141973;267.0336;263.2197;-0.257646;0.2403351;0;
736.5735;0;0;592.9846;13.20446;2.465335;680.5573;674.7482;-0.2573871;0.04519159;0;
406.7488;0;0;347.7617;17.27703;4.070326;355.474;348.4214;-0.1271938;-0.1497559;0;
190.2612;0;0;196.6131;21.21179;6.343656;138.8505;135.928;-0.2570007;0.1752313;0;
225.5522;0;0;221.5904;0.8950092;-1.633443;174.568;173.8972;-0.1268078;0.1100879;0;
-236.3174;0;0;-195.3603;-5.13411;-3.440341;-278.6922;-282.1733;0.3930584;-0.2148594;0;
-649.8095;0;0;-602.6467;6.458974;-7.656687;-690.8298;-693.0581;0.4576308;-0.3445782;0;
-381.9784;0;0;-401.8293;3.639445;-10.73021;-430.8285;-429.8687;0.1973016;-0.1493299;0;
-186.3802;0;0;-227.6378;10.06615;-13.26466;-234.9314;-237.4707;0.2620707;0.04572213;0;
-185.006;0;0;-223.661;13.07014;-16.8013;-231.3845;-236.2951;-0.06302939;0.04567619;0;
329.4214;0;0;231.1477;-2.684099;-11.96177;272.1575;271.4372;-0.1929007;0.0456303;0;
731.9504;0;0;590.1724;-4.355365;-12.68656;670.5587;669.0895;0.1970971;0.3054538;0;
407.6276;0;0;344.3277;-7.56617;-11.80304;355.3555;347.7034;0.1319318;0.1752122;0;
201.0716;0;0;195.3064;-11.6444;-11.12147;148.1024;142.0822;0.001864506;-0.1498006;0;
218.923;0;0;208.8533;1.360765;-15.732;165.3199;163.2412;0.261732;0.240154;0;
-242.3777;0;0;-207.3975;3.101686;-15.91714;-286.869;-289.6328;0.1965017;0.6946841;0;
-643.1826;0;0;-604.6143;3.232291;-19.04922;-687.0045;-687.5166;-0.06356514;0.4990841;0;
-384.416;0;0;-406.0438;6.846366;-19.16404;-433.129;-432.3911;-0.4533053;-0.02115618;0;
-187.7534;0;0;-227.0381;-2.672334;-21.95795;-236.0426;-238.8662;-0.3229152;-0.02113492;0;
-186.2529;0;0;-218.7515;-4.143517;-23.34253;-235.1183;-237.4393;0.06721336;0.303723;0;
320.4296;0;0;228.806;1.152908;-13.27188;264.492;264.7969;-0.3226582;-0.0863862;0;
735.274;0;0;591.6436;0.1463953;-11.24905;676.394;673.7626;-0.6471707;-0.5410708;0;
409.7609;0;0;350.6074;4.098363;-7.285879;356.9996;351.06;-0.1267817;-0.02078839;0;
191.5836;0;0;198.7688;4.630109;-4.465397;137.8134;136.315;0.2631497;0.3690366;0;
221.0637;0;0;220.8079;4.290664;-7.608986;165.6608;168.4119;-0.2568534;0.2387311;0;
-241.3011;0;0;-195.8297;6.96567;-7.400391;-286.2161;-287.0285;-0.5164647;-0.08634553;0;
-651.165;0;0;-601.8038;-5.097769;-11.67974;-691.7245;-694.0978;-0.191109;-0.3461281;0;
-377.5854;0;0;-389.8678;-6.700237;-14.07939;-424.4135;-422.8489;0.1339197;-0.280813;0;
-181.9291;0;0;-209.1917;-2.071805;-15.47189;-229.3349;-228.584;0.1987525;-0.08562881;0;
-189.7423;0;0;-211.2303;-3.744662;-17.53269;-236.4133;-240.4107;-0.06131661;0.3042613;0;
327.5009;0;0;240.1926;11.32965;-20.9312;273.7555;270.3242;0.3285491;0.4988576;0;
741.3387;0;0;596.522;14.73452;-23.25445;683.5243;681.6582;0.4581536;0.238487;0;
418.8805;0;0;360.7908;13.71533;-18.34145;366.3091;361.8837;0.1978239;0.04334531;0;
212.688;0;0;223.6845;16.44724;-16.91638;162.7931;157.2477;0.5224618;0.1082691;0;
225.4678;0;0;230.8311;8.728534;-19.37775;177.3721;172.7693;0.3270348;0.04319297;0;
-246.8964;0;0;-191.1264;8.987207;-18.28655;-287.0103;-290.7339;0.4566409;-0.2167198;0;
-649.0711;0;0;-587.0477;-5.422788;-14.78519;-686.7083;-688.0544;0.651084;-0.08656737;0;
-384.2392;0;0;-388.1201;-12.9858;-12.89481;-429.0849;-428.9304;-0.2591129;0.173389;0;
-190.5128;0;0;-218.0029;3.638039;-13.4847;-237.3749;-240.9687;-0.3238199;0.1732148;0;
-195.3813;0;0;-220.5325;2.697355;-14.00701;-240.8846;-246.3487;0.4561136;0.1080734;0;
312.8097;0;0;225.9648;5.574057;-6.357007;260.1683;258.5826;0.5206226;-0.3468066;0;
735.2204;0;0;592.4285;9.118429;-4.542202;679.7583;676.7375;0.1952628;-0.4763928;0;
418.5154;0;0;356.8263;-6.228727;-8.958389;370.9177;361.0284;-0.1947374;0.1087919;0;
201.5788;0;0;204.2943;-8.969134;-7.408781;151.7799;144.8366;-0.4544111;0.2386173;0;
232.2357;0;0;225.6406;-6.414526;-20.3288;176.5524;178.2991;-0.3889872;0.1734102;0;
-228.3288;0;0;-185.2547;-8.551535;-24.93007;-275.2105;-271.4665;-0.2586617;0.04330128;0;
-651.574;0;0;-600.0474;-4.992969;-12.78136;-691.2872;-687.7344;-0.1284671;-0.1516443;0;
-386.4897;0;0;-402.4185;-4.452089;-12.23265;-431.4728;-430.0475;0.06656402;-0.02155721;0;
-180.2673;0;0;-218.8562;-5.586691;-8.737368;-227.704;-231.1527;0.001529799;-0.1514702;0;
-192.0802;0;0;-228.6313;-4.509351;-4.776717;-238.5321;-243.1018;-0.06343908;-0.151318;0;
310.2979;0;0;213.6262;-5.174405;-11.26902;257.0211;252.7059;0.3264287;0.2386381;0;
733.3358;0;0;589.5975;-4.565993;-11.12373;675.8646;670.1795;0.2611334;0.1734309;0;
421.5678;0;0;357.1841;-3.557027;-4.414503;369.7766;364.222;-0.3238351;-0.2165474;0;
208.5011;0;0;205.4013;-3.754524;-3.405323;155.0752;154.9611;-0.2585424;-0.02142777;0;
225.0332;0;0;213.8781;1.540534;-1.928277;168.0378;170.485;0.1964888;0.3683978;0;
-237.0233;0;0;-207.2503;3.281275;-1.323493;-285.9654;-288.5182;0.0663567;0.432995;0;
-644.1429;0;0;-611.0265;-0.00455222;-1.657077;-688.788;-691.3381;-0.06364466;0.3675926;0;
-383.8761;0;0;-412.8868;0.8661085;-0.7176514;-434.4733;-435.3968;0.1962887;-0.08754818;0;
-182.7163;0;0;-231.6253;-2.684735;-6.812255;-238.3226;-239.8074;0.06615674;-0.4122969;0;
-186.5307;0;0;-230.8928;-3.084179;-7.207308;-244.9547;-244.1891;-0.06384441;-0.02207859;0;
312.2811;0;0;214.9277;-2.545217;-8.740673;248.8558;251.1199;0.001187083;0.1078783;0;
732.5059;0;0;589.7732;-3.748108;-10.00457;668.957;669.4697;-0.06378146;-0.1520995;0;
423.4249;0;0;357.6095;6.570786;0.05268218;367.9982;363.5129;0.001249978;-0.02201197;0;
206.9205;0;0;202.7029;10.18151;2.798929;151.7995;145.9444;0.1311834;-0.0869572;0;
230.3882;0;0;218.9909;4.344126;6.413074;171.6369;169.4733;0.001116908;-0.2817718;0;
-228.4253;0;0;-192.5849;4.808276;10.3585;-282.6198;-283.157;-0.1288189;0.043348;0;
-645.9858;0;0;-603.7471;8.152347;8.807607;-698.5641;-697.9764;-0.2586241;-0.02166291;0;
-381.9691;0;0;-405.6772;8.948439;10.60717;-436.9309;-436.9684;-0.2583643;-0.1515758;0;
-175.4389;0;0;-215.7399;6.594923;11.19936;-229.7208;-232.0071;0.1316994;-0.1514235;0;
-188.381;0;0;-222.5196;5.784013;12.25984;-245.2945;-244.8299;0.001632364;-0.3461734;0;
308.4337;0;0;214.5469;5.510757;8.16168;243.8312;249.2303;-0.128304;-0.2808582;0;
731.3485;0;0;591.3293;3.830281;5.541145;667.9979;670.6429;0.3915637;-0.5404454;0;
416.2717;0;0;356.7903;8.983995;14.10927;361.9802;357.3762;0.3911702;-0.280033;0;
202.4606;0;0;201.7595;11.45321;14.49699;145.2877;143.7493;0.1309078;0.2399871;0;
229.9933;0;0;221.1095;-2.690838;9.793619;168.2551;173.0901;0.06580895;-0.02012337;0;
-232.1306;0;0;-192.0302;-6.707598;8.511225;-284.9362;-283.1671;0.2606449;-0.2150052;0;
-640.9418;0;0;-594.4473;4.685996;4.684646;-689.1342;-690.6151;0.455285;-0.1498218;0;
-374.5563;0;0;-390.7021;4.614915;2.067726;-429.5718;-429.3022;-0.06491122;-0.01973657;0;
-172.4064;0;0;-208.5259;6.150519;-1.082427;-233.3011;-229.471;-0.45465;0.110218;0;
-177.1682;0;0;-216.1874;8.355142;-3.425742;-241.4375;-236.112;-0.1293565;0.04513988;0;
316.4493;0;0;219.7483;-1.031352;-6.43641;248.1841;251.0055;-0.06425919;-0.2147749;0;
731.6724;0;0;589.8413;-2.90535;-8.037533;662.6638;663.2959;-0.129162;-0.1495917;0;
426.6527;0;0;358.2398;1.183406;-6.890747;362.461;361.5308;0.06586985;0.1753953;0;
214.6429;0;0;205.9562;1.51701;-6.481925;150.4532;150.7733;-0.1940657;0.1102517;0;
234.0423;0;0;219.4923;-1.833417;-5.336824;166.4189;171.1115;-0.2588381;0.2400756;0;
-227.1486;0;0;-194.9575;-2.836929;-4.460684;-284.8965;-280.7709;-0.06367595;0.3048018;0;
-643.0237;0;0;-603.5562;2.189764;0.1654984;-693.7796;-691.2198;-0.3234813;0.1095935;0;
-378.7601;0;0;-403.3625;2.723427;1.304042;-438.8978;-432.2176;0.001680415;0.239418;0;
-166.9858;0;0;-211.7408;4.797771;4.116015;-227.3754;-223.8878;0.2615481;0.4990468;0;
-186.683;0;0;-231.3931;6.132121;5.518399;-244.8255;-249.0251;-0.06355142;0.3036433;0;
299.6977;0;0;194.0007;1.839052;-0.2475565;229.8695;229.6096;0.06644712;0.1734036;0;
741.2994;0;0;585.6088;0.9665479;-1.050981;665.9193;668.5332;-0.06355433;0.2381967;0;
435.208;0;0;357.0725;1.032926;-8.75284;366.9626;364.6389;-0.1934251;0.2379573;0;
202.6999;0;0;190.3598;0.830817;-13.1648;138.0212;136.8243;0.1316059;0.2377182;0;
234.2302;0;0;210.7207;-2.78734;-6.855295;168.4922;171.4194;0.06650633;0.3024467;0;
-217.8405;0;0;-199.4724;-3.856266;-6.982373;-279.0148;-275.1535;0.1963742;0.3671102;0;
-644.9693;0;0;-617.3743;-2.646943;-10.25752;-703.1461;-699.2263;0.3261116;0.3017739;0;
-386.7632;0;0;-425.6625;-3.983454;-9.845316;-449.067;-446.7127;-0.1289875;-0.02336601;0;
-172.9818;0;0;-230.6452;4.861808;-11.50987;-235.1605;-232.9961;0.1959788;-0.08830987;0;
-176.2438;0;0;-229.1016;7.603589;-13.1059;-238.0477;-236.2602;0.2607492;-0.1531885;0;
314.2493;0;0;205.1605;3.777556;-1.705877;243.1373;243.9859;-0.7140229;-0.2180019;0;
736.5336;0;0;586.3251;6.185634;1.37693;660.3082;663.3423;-0.3235014;0.4318906;0;
430.7594;0;0;353.3528;-1.188948;-5.992332;359.7329;364.0759;0.5213991;0.496424;0;
207.4386;0;0;187.0811;-2.05841;-5.584535;135.9838;143.5083;0.1310711;-0.3486503;0;
228.7194;0;0;204.7592;2.230566;-9.597777;157.0865;166.6649;0.001004755;-0.2183653;0;
-223.8456;0;0;-201.8673;1.55874;-11.39655;-286.0987;-280.0906;0.4557751;0.1066908;0;
-635.726;0;0;-605.274;12.00602;-9.375733;-695.2304;-687.3543;0.5202845;-0.4781224;0;
-377.4043;0;0;-404.2041;15.00807;-10.17011;-438.9103;-429.0432;0.1299577;-0.5426093;0;
-177.188;0;0;-218.1413;12.64846;-8.083418;-231.9481;-231.2113;-0.3249443;-0.3471621;0;
-194.6261;0;0;-230.9156;13.10427;-7.539433;-245.4582;-253.1553;-0.3246178;0.04299076;0;
294.6986;0;0;200.787;13.0911;-5.321542;231.8612;229.2942;-0.2593243;0.692621;0;
733.3693;0;0;589.0775;13.41372;-3.239724;660.6001;665.0322;0.0008056672;0.3670883;0;
434.6572;0;0;365.7226;1.677616;-5.982647;367.3958;370.9489;0.3906089;-0.02308459;0;
210.1456;0;0;205.1856;-3.079492;-5.239945;144.0138;148.9376;0.2602817;0.04190596;0;
248.665;0;0;236.9009;0.005060887;-3.158209;181.0379;187.3935;0.1950529;-0.2829729;0;
-204.7321;0;0;-168.0712;-2.741611;-2.418224;-263.6706;-258.0085;0.3247916;-0.08778651;0;
-652.926;0;0;-602.8087;-3.20737;-0.272462;-707.5574;-699.4647;0.4543999;0.1072037;0;
-400.2716;0;0;-409.7997;-4.811738;0.2636753;-457.9715;-448.4502;0.4539433;-0.1527734;0;
-188.0384;0;0;-214.6109;-1.993864;2.071949;-242.8068;-235.7313;0.1286505;-0.1526199;0;
-209.2762;0;0;-232.761;-0.316921;2.471765;-261.8031;-255.6093;0.1934886;-0.08749916;0;
293.4315;0;0;201.1924;-8.287206;2.67023;233.0238;242.5223;-0.001607897;0.2374255;0;
740.5993;0;0;590.8568;-9.083161;3.672291;675.3797;683.1195;-0.4563777;0.3021542;0;
437.632;0;0;368.1247;-5.858854;-3.02957;377.4755;377.3989;0.06381963;0.171916;0;
216.4907;0;0;211.9581;-5.450826;-4.50015;158.9559;156.6929;-0.001211837;0.2367106;0;
242.2601;0;0;231.9225;-2.900729;-3.557868;186.7196;187.7073;-0.3910147;0.106538;0;
-215.9406;0;0;-179.2914;-2.093531;-4.893951;-266.5528;-262.1302;-0.06578507;0.106431;0;
-650.0053;0;0;-603.7103;2.998787;0.2015472;-700.4417;-692.1506;0.1941504;-0.02361066;0;
-402.7886;0;0;-414.8234;5.541369;1.139106;-454.9859;-447.3278;0.06402063;-0.2834563;0;
-188.8662;0;0;-221.6909;3.860862;2.343654;-240.2614;-236.609;-0.001011036;-0.1532368;0;
-199.9833;0;0;-232.775;5.800342;4.216821;-253.2009;-250.5517;0.2588593;0.04181921;0;
289.8466;0;0;197.5552;0.2348082;0.1266252;229.9358;233.1446;0.1286646;0.1067445;0;
728.2723;0;0;587.7855;-1.105574;-0.07445087;666.6101;670.8152;-0.4561708;0.1716046;0;
417.0091;0;0;356.061;2.44551;0.1935557;361.7807;366.2314;-0.2608104;0.1714322;0;
181.7082;0;0;185.5388;1.170255;-0.6772949;127.4098;133.5427;0.3891251;-0.1535768;0;
222.4425;0;0;220.0849;8.738517;1.06482;165.9499;175.8872;0.2587994;0.1064469;0;
-215.0612;0;0;-172.9388;11.14063;0.8628011;-265.8749;-256.0725;0.1286047;0.4311767;0;
-650.0013;0;0;-600.6125;4.16419;1.732712;-698.0154;-686.0989;0.5182795;-0.024028;0;
-399.4738;0;0;-412.5407;4.025308;2.534766;-451.0004;-434.4732;0.387824;-0.2189059;0;
-177.184;0;0;-210.4151;1.476644;0.2547998;-228.8461;-217.2706;-0.002369697;-0.2836533;0;
-194.1848;0;0;-228.7568;-0.4008496;0.9243731;-246.2323;-241.4775;-0.06733466;-0.2184009;0;
286.2689;0;0;191.1371;3.819112;-3.296358;226.2777;231.2152;-0.457071;-0.3481161;0;
724.3859;0;0;584.5597;4.619557;-6.039225;660.2696;662.5159;-0.5865465;-0.477701;0;
422.1846;0;0;357.836;0.1269374;4.75073;366.0662;365.1869;-0.001251026;0.04251771;0;
196.5611;0;0;192.122;-0.7438463;5.817683;145.0593;148.1163;0.1286849;0.3023444;0;
224.6618;0;0;215.7295;3.543809;3.132642;172.3997;179.5142;0.06358827;0.0421712;0;
-222.0895;0;0;-186.0979;3.875041;4.000273;-268.8643;-261.5696;0.5182958;-0.1527732;0;
-641.8427;0;0;-599.7029;4.339662;-3.304764;-685.0098;-678.6595;0.8426117;-0.2175871;0;
-391.5733;0;0;-412.2567;4.335301;-4.57412;-440.5691;-433.1006;0.1271243;-0.1524011;0;
-182.3473;0;0;-225.1238;6.073233;-9.057258;-235.6667;-225.2697;-0.3927422;0.2375561;0;
-200.5923;0;0;-241.7017;8.075887;-12.19623;-257.1689;-243.5341;-0.06751086;0.6271214;0;
283.3661;0;0;187.2007;-3.653875;-4.548168;218.7879;233.1586;-0.1973777;0.366622;0;
727.9203;0;0;587.0615;-6.530592;-3.806786;665.281;672.7658;-0.002277357;-0.08851782;0;
419.1562;0;0;357.3993;1.3802;-1.927438;368.3239;366.4934;0.387529;-0.2183636;0;
179.3553;0;0;182.5029;2.048398;0.6197278;129.886;126.8704;-0.1325991;-0.6079482;0;
228.088;0;0;222.1745;2.783275;-1.926124;175.3576;175.9682;-0.002531223;-0.4774027;0;
-206.6727;0;0;-169.0397;3.852205;-1.053411;-254.1028;-251.119;0.5821774;0.0428158;0;
-655.6768;0;0;-604.1511;6.661373;-0.8514035;-699.1237;-691.1454;-0.1330483;-0.08716192;0;
-404.6438;0;0;-411.9528;7.458963;-1.58736;-451.7327;-438.64;-0.1329146;-0.217009;0;
-176.1019;0;0;-200.0827;10.33186;3.035935;-224.4553;-212.4378;0.2570229;-0.1518236;0;
-203.7859;0;0;-223.6197;11.79437;3.83668;-253.2777;-242.4591;-0.3279414;-0.08670373;0;
277.1147;0;0;189.8348;3.409772;-0.4540831;216.4283;227.2361;-0.4575465;0.1732528;0;
727.4847;0;0;587.6315;0.5933065;-1.190317;662.1742;666.5992;-0.1972174;0.3030134;0;
420.6577;0;0;359.5929;0.927503;-5.877804;362.1593;363.5815;-0.002117245;-0.08709517;0;
187.6019;0;0;186.1935;-1.551675;-9.355011;129.6621;135.8304;0.06285223;-0.151975;0;
227.7681;0;0;217.4906;-2.889287;-5.527706;171.948;177.3605;-0.06714562;0.1730144;0;
-208.1168;0;0;-170.5955;-3.75704;-7.464534;-252.6989;-250.3528;0.2577586;-0.1519961;0;
-639.3158;0;0;-587.9642;-7.236865;-7.524017;-678.231;-673.3885;0.5823362;-0.3467454;0;
-399.2313;0;0;-407.7762;-7.564386;-6.712662;-442.7925;-434.5816;-0.002954934;0.04340704;0;
-185.9371;0;0;-212.6518;-6.953573;-18.49467;-231.5161;-224.063;-0.3277887;-0.02160393;0;
-200.6803;0;0;-221.2462;-6.812864;-21.02131;-243.6522;-239.2676;0.2572468;-0.2164842;0;
279.655;0;0;199.6397;-0.9788696;-18.78988;229.1676;234.4223;0.386923;-0.1512994;0;
720.7147;0;0;590.0552;-0.03988095;-19.84272;662.282;669.5929;0.06169748;-0.02121267;0;
425.2636;0;0;363.7008;8.131833;-14.86617;368.2015;376.8794;-0.3281686;-0.02119136;0;
192.2033;0;0;186.924;12.47694;-14.31537;130.7007;144.8047;-0.3928062;-0.08613741;0;
229.8036;0;0;220.032;0.6090366;-7.133934;165.8642;180.7036;0.1922946;-0.02108351;0;
-205.5211;0;0;-166.6199;-0.4633023;-3.643776;-258.027;-250.2615;0.3220361;-0.08602967;0;
-656.9625;0;0;-602.6082;-1.802007;-10.13734;-700.1079;-693.662;0.1917778;-0.02097589;0;
-409.6139;0;0;-414.5345;-4.613236;-9.859219;-453.5905;-444.4649;-0.003316923;0.1739472;0;
-172.6338;0;0;-200.4753;0.07947281;-12.12661;-216.816;-211.5727;0.06165375;0.3037071;0;
-206.1309;0;0;-231.0709;0.01302007;-13.32012;-249.5191;-248.279;0.1915265;0.1084999;0;
261.9661;0;0;178.0807;-0.7912762;-14.84734;209.1262;215.8623;0.1263667;-0.2164458;0;
721.7216;0;0;587.1336;0.01380206;-16.57386;660.8764;672.2284;0.2561744;-0.2811957;0;
418.5859;0;0;354.3479;-0.5894243;-12.7393;362.2996;368.3303;-0.1338871;-0.08601109;0;
174.6003;0;0;170.0218;0.01438045;-12.05667;121.4939;122.4586;-0.1337525;0.1739447;0;
222.0884;0;0;214.0787;-0.6561954;-11.50869;172.1588;170.4364;0.3861206;-0.1510668;0;
-212.5414;0;0;-172.6921;-1.727263;-9.889658;-253.7377;-254.4589;0.3207653;-0.2158823;0;
-654.4806;0;0;-604.4265;6.446146;-9.276875;-693.5115;-688.11;0.515345;0.1091713;0;
-410.2579;0;0;-424.2844;9.521128;-7.191082;-456.1837;-446.8521;0.0600558;0.1740289;0;
-189.8313;0;0;-224.8331;0.0670898;-8.188601;-239.6464;-230.0119;-0.8495473;0.1738541;0;
-207.3192;0;0;-237.788;-0.3351192;-7.912441;-255.0228;-248.7712;-0.5888243;0.2386467;0;
269.8994;0;0;184.4263;0.8716424;-3.148824;217.5586;221.0552;-0.3933307;0.1084723;0;
719.0273;0;0;586.6637;0.4686249;-3.346609;661.929;663.3607;-0.3279681;-0.1515061;0;
424.7649;0;0;361.4996;4.821434;1.41242;372.7839;371.7154;0.1271328;-0.3462559;0;
190.4556;0;0;186.1618;5.888317;2.415745;138.0271;141.7698;0.1919724;-0.345908;0;
229.9943;0;0;222.5813;10.90624;-4.619769;178.8678;184.6057;0.06184486;-0.1506584;0;
-205.9553;0;0;-164.7602;13.97674;-5.820697;-244.724;-241.4907;-0.003184621;-0.02057232;0;
-650.8372;0;0;-596.8774;10.54645;-14.12061;-686.381;-677.7161;0.1267533;0.1743504;0;
-413.802;0;0;-421.3656;11.20543;-17.85734;-457.4936;-445.3391;0.06165856;0.5639793;0;
-190.2484;0;0;-217.8568;11.79739;-16.16483;-237.6441;-228.9377;-0.003370738;0.1086412;0;
-213.8577;0;0;-237.7527;10.84753;-17.22031;-261.1434;-255.3817;0.1915347;-0.2812721;0;
261.6183;0;0;176.0283;15.39196;-16.33223;208.2582;211.9526;-0.1334945;0.2387493;0;
724.9349;0;0;587.6444;16.78301;-15.91392;669.8168;670.0093;-0.003425671;0.3034768;0;
430.5416;0;0;369.2884;8.794568;-9.1329;383.225;380.4812;0.6462511;-0.1515996;0;
188.5429;0;0;189.8199;7.111768;-6.31044;141.2738;142.0311;0.5156671;-0.2813819;0;
231.4568;0;0;224.2992;7.439415;-3.959819;183.1732;185.8038;0.1253449;-0.2161319;0;
-210.3039;0;0;-169.9156;5.087415;-1.343506;-249.4184;-249.4142;0.06025166;-0.6057187;0;
-659.3043;0;0;-604.5888;10.37359;-2.81578;-696.0057;-692.9406;0.1901258;-0.6051101;0;
-416.3261;0;0;-421.3231;10.76531;-1.808207;-459.425;-451.8651;0.1249674;-0.01979602;0;
-195.581;0;0;-216.565;8.544663;-6.026193;-236.8874;-229.2103;0.1898092;0.1101586;0;
-205.8167;0;0;-220.3454;9.875248;-7.493762;-242.7089;-240.1618;-0.005283546;0.04508054;0;
274.5237;0;0;201.8514;0.287132;-6.481488;230.2974;228.594;-0.3950823;0.1749699;0;
720.3361;0;0;591.765;-2.860988;-7.144805;668.9703;667.6435;-0.329718;0.04485943;0;
432.5691;0;0;370.8437;4.040762;-6.400814;382.7542;383.4277;-0.3293867;-0.08512034;0;
196.5654;0;0;200.369;2.495485;-6.260416;147.8;152.2834;-0.3290557;-0.2799369;0;
229.7886;0;0;227.6539;9.258131;-4.445708;184.1956;187.4251;-0.2637577;-0.4095902;0;
-204.724;0;0;-163.0661;12.26294;-3.570463;-242.2752;-242.1723;-0.523362;-0.4091787;0;
-646.8585;0;0;-591.8741;-0.3416864;-2.428166;-681.4984;-678.7095;-0.1330321;-0.2788329;0;
-419.5724;0;0;-427.3618;-2.015306;-1.889863;-460.6118;-456.139;0.1919383;-0.2135853;0;
-201.885;0;0;-229.719;-0.339318;-2.289861;-244.7572;-242.7252;-0.1330913;-0.1484034;0;
-207.929;0;0;-231.1748;-1.477077;-3.091356;-248.4468;-250.7272;-0.003022905;0.04664777;0;
261.6065;0;0;182.1623;0.4667903;-4.360925;212.7587;210.1057;-0.3278566;-0.2132685;0;
715.3654;0;0;583.9022;0.4663213;-6.432892;660.2573;658.5441;-0.4574618;-0.3429889;0;
433.2256;0;0;369.2356;3.346241;-6.091514;386.1689;380.7092;0.1926713;0.04715983;0;
183.9153;0;0;188.5802;4.414606;-5.884444;142.2782;137.1364;0.06254297;-0.2127569;0;
220.8369;0;0;222.1238;5.816689;-18.20315;176.3056;177.4783;-0.2623566;-0.3424778;0;
-207.9821;0;0;-166.0294;7.685879;-21.26595;-249.9074;-246.4246;-0.1971256;0.1126377;0;
-657.3596;0;0;-604.2672;5.13256;-17.22573;-694.8076;-691.9529;0.1928765;0.1774918;0;
-417.1945;0;0;-429.4976;6.46755;-17.74428;-457.7907;-456.0634;0.5175194;0.1123462;0;
-184.3296;0;0;-221.4828;4.853461;-11.43018;-226.3843;-228.5942;0.1921627;0.1122333;0;
-210.756;0;0;-243.2493;5.518169;-8.940447;-252.8934;-257.5374;0.1270023;0.1121205;0;
251.8483;0;0;165.5398;8.861527;-6.654044;201.6324;198.9921;0.191842;0.1769752;0;
721.2342;0;0;583.9756;9.388487;-5.10675;667.2581;665.62;0.06171454;0.1767974;0;
