Fp1;Fp2;O1;O2;POLY3;POLY4;A1;A2;Video;Audio;event;
-124.1076;0;-123.3634;-141.2171;3.34689;-5.005556;-120.4298;-124.5431;-0.1438377;0.2541522;0;12:44:26 Глаза закрыты;
460.1609;0;418.5508;405.4625;3.87939;-6.005148;454.2773;450.9803;-0.2086605;-0.1359072;0;
687.7714;0;640.8307;600.0197;6.488437;-9.951107;680.0822;674.5395;-0.01354882;-0.07080328;0;
315.4547;0;302.5441;303.378;8.290578;-10.87875;312.2708;306.7338;0.05143214;0.1241699;0;
201.7572;0;193.1699;241.4167;0.6464377;-6.514048;197.1398;196.4184;-0.2734562;-0.2007916;0;
115.8475;0;114.5152;148.1584;1.046954;-4.565119;113.3587;114.6995;-0.07827946;-0.1356225;0;
-425.0595;0;-386.6605;-382.4738;-10.34095;-2.417078;-418.9877;-418.148;0.1167012;0.2543178;0;
-657.7028;0;-612.5957;-634.2753;-14.4164;0.4654942;-651.1997;-647.5498;0.1815513;0.3190297;0;
-336.4531;0;-322.6256;-342.1595;-5.493305;2.072617;-333.7047;-330.1833;0.1164015;0.2537417;0;
-230.8554;0;-222.9763;-247.9254;-6.826956;3.544159;-225.7359;-226.5285;-0.1435848;0.3184541;0;
-116.6182;0;-113.5572;-127.799;4.967924;10.57356;-112.3785;-114.1073;0.05146151;0.3831015;0;
467.1431;0;431.7828;418.8047;8.781325;13.37622;463.9448;461.8429;0.0514098;0.2527819;0;
686.938;0;647.6777;600.105;3.748659;9.812684;683.8679;679.0819;-0.2085112;-0.007341524;0;
313.9973;0;312.1953;310.0851;4.883969;10.07076;315.428;311.5215;-0.1433344;0.1226005;0;
195.9285;0;200.4376;248.3044;1.19439;6.041783;194.9215;195.1418;-0.4030597;0.05751;0;
120.5819;0;128.3973;160.7862;0.9257461;3.222551;121.3875;122.2948;-0.27272;0.05745222;0;
-421.0171;0;-374.2291;-369.8587;-8.117514;5.496611;-410.9669;-410.373;0.1823254;0.1873292;0;
-667.5948;0;-613.4827;-636.0405;-11.8604;3.682671;-656.7427;-653.4008;-0.07772718;-0.07272843;0;
-325.7206;0;-306.6451;-327.2439;-7.294133;1.870431;-319.627;-316.7881;-0.2725511;-0.07265534;0;
-210.8259;0;-198.7661;-224.529;-8.759696;1.064757;-203.2392;-204.8384;0.3124288;0.05735234;0;
-123.2205;0;-115.7955;-133.8489;-3.192165;-5.366553;-116.8283;-120.1125;0.4420496;0.1222621;0;
457.549;0;424.9866;408.3257;-1.982533;-7.705441;455.8138;452.5329;0.1167687;-0.007795475;0;
685.8492;0;649.4465;601.0683;2.573811;-4.750572;684.1158;678.9017;0.2465861;-0.2026897;0;
311.0357;0;310.2766;306.9244;7.260274;-4.812781;313.6768;309.4049;0.3113056;-0.1375187;0;
197.1552;0;198.7083;245.4592;-4.669739;-7.487141;196.233;196.4631;0.05112346;0.2524236;0;
114.9359;0;118.4863;149.948;-5.26826;-9.087208;115.3889;116.3684;0.1810068;0.1872026;0;
-424.9083;0;-387.5034;-380.2487;-0.8423365;-0.2365739;-415.2104;-414.2319;0.1158576;0.1220472;0;
-656.6147;0;-617.2484;-631.2404;-1.108934;2.309015;-645.9271;-642.8881;-0.2740629;-0.008010171;0;
-331.9928;0;-320.4645;-338.253;7.800788;-5.731013;-326.3134;-323.7772;-0.4037222;-0.3328388;0;
-227.649;0;-216.6321;-244.5226;11.14185;-6.261117;-219.9138;-222.3152;-0.1434472;-0.07263502;0;
-119.2246;0;-115.2777;-131.9583;9.455718;-6.924656;-112.1219;-116.7072;-0.01336836;0.2522747;0;
460.7912;0;423.6922;412.5881;10.85274;-7.989425;458.7664;455.7473;-0.01335493;-0.07281553;0;
681.467;0;639.3454;598.8297;13.45478;-7.311568;678.1949;672.7426;0.1165932;0.3170617;0;
315.5284;0;308.8688;307.9364;14.31191;-7.572153;316.5074;310.9356;0.05150868;0.7065471;0;
198.5825;0;198.926;243.7841;14.29753;-6.5598;198.6859;198.3671;-0.2733798;0.4459679;0;
114.9249;0;118.3915;149.399;15.15382;-6.017345;117.1522;117.271;-0.01323572;0.5754544;0;
-427.8553;0;-392.0334;-385.17;8.439814;-5.341592;-417.2595;-418.2652;0.2466469;0.5099089;0;
-673.3643;0;-637.7033;-650.0247;6.5563;-5.269242;-661.5297;-659.5984;-0.0784376;0.1195925;0;
-334.9824;0;-328.5926;-343.4628;6.683434;-0.9770393;-328.0323;-326.0405;-0.07835878;-0.2703318;0;
-217.7046;0;-208.6975;-235.4218;3.662608;1.100291;-209.1373;-211.1455;0.506426;-0.1401255;0;
-128.7805;0;-124.9673;-141.5448;13.37182;-4.594242;-121.0338;-124.5392;0.1810805;-0.07501732;0;
449.9331;0;411.4512;400.5125;15.30077;-5.058506;448.4266;445.362;-0.6636769;-0.269844;0;
682.6763;0;638.4235;599.135;7.180091;-5.187389;678.6725;674.4241;-0.5330754;-0.009703457;0;
306.9913;0;297.2032;299.2459;6.57064;-6.45473;306.5523;302.8079;-0.1427357;-0.07466105;0;
188.6797;0;184.2112;231.7915;4.486957;-4.103964;186.3046;185.8123;-0.07762493;-0.2045207;0;
114.4648;0;108.3766;146.7262;3.209651;-4.76967;113.4039;113.4119;0.1823224;0.1205215;0;
-422.8177;0;-401.8509;-380.9685;2.269397;-3.760133;-415.944;-415.9985;0.1171719;0.2503351;0;
-662.897;0;-633.2056;-641.642;1.596555;-3.823338;-655.0931;-652.6488;0.05208681;0.2500836;0;
-334.708;0;-326.7856;-345.146;1.394856;-5.627913;-330.9725;-329.1553;0.2469365;0.2498323;0;
-224.1771;0;-219.1986;-244.0373;0.5227983;-5.220482;-218.5088;-221.0663;0.181721;0.3145486;0;
-118.0676;0;-118.7163;-132.7854;7.152729;-12.51613;-113.5294;-117.5835;-0.1432983;0.05436314;0;
465.0081;0;423.4431;414.5105;9.422718;-14.58003;460.3588;456.8085;-0.4030237;-0.4004629;0;
688.0535;0;640.9081;601.9371;4.79155;-12.08701;682.0345;676.3639;-0.272684;-0.01025644;0;
316.7359;0;306.5568;307.9172;3.983428;-13.74944;315.4706;309.4933;-0.2074427;0.6394273;0;
198.5394;0;194.3675;243.64;8.802197;-6.032706;194.9641;193.6779;-0.2072342;0.3139481;0;
119.0048;0;116.8361;151.7537;10.33359;-3.682364;115.4331;116.0847;-0.01212397;-0.01120409;0;
-415.9085;0;-387.7152;-375.1965;1.683022;-7.898467;-411.0434;-410.9546;0.1178229;-0.07616017;0;
-659.9302;0;-629.5789;-638.8118;-0.2610523;-6.818803;-652.8211;-650.1088;0.05273716;-0.141051;0;
-334.4304;0;-328.4723;-343.568;1.614244;-11.16572;-331.2639;-328.6793;-0.1422179;-0.01097458;0;
-225.5864;0;-215.8862;-241.2115;0.2061025;-13.09701;-220.3617;-222.3398;-0.01214027;-0.07593089;0;
-130.4699;0;-125.0274;-140.1448;2.952562;-7.256453;-126.8122;-130.1001;0.377676;0.1190474;0;
457.803;0;419.6995;406.034;3.14969;-6.713298;452.0244;448.6148;0.1823945;0.3138298;0;
692.225;0;648.725;602.9644;4.754115;-10.25665;685.765;680.3598;-0.2725602;0.1186125;0;
313.3445;0;307.3069;307.819;6.892792;-10.64812;311.2638;307.2384;-0.0773843;0.1184933;0;
195.9011;0;197.2408;247.5399;1.863;-9.297882;191.8859;191.925;-0.07730655;0.1833416;0;
122.6784;0;123.0173;162.7711;2.664435;-8.283795;120.7288;121.3925;-0.2071636;0.2481247;0;
-422.6083;0;-395.5956;-374.435;2.326966;-10.48591;-415.0608;-414.8975;0.1828487;0.3778101;0;
-669.3719;0;-631.3295;-641.4244;1.655042;-9.73856;-659.833;-657.1711;0.2476323;0.2474958;0;
-332.9931;0;-315.666;-335.8706;9.757704;-9.192911;-327.4617;-324.9899;0.2473834;-0.2075243;0;
-214.6553;0;-201.4685;-226.8378;10.35111;-9.78652;-206.8806;-209.0965;0.4420369;-0.5321525;0;
-115.6768;0;-107.6881;-121.6001;16.57;0.2035262;-108.7845;-112.5598;0.5065601;-0.4016831;0;
457.7763;0;424.9024;414.6276;19.43374;2.882639;456.2284;453.3939;0.0512797;-0.1414101;0;
682.0783;0;642.1161;600.3049;9.500251;0.2004252;679.7823;675.1392;-0.5334779;-0.07630071;0;
317.8257;0;312.886;312.6585;8.687398;1.338934;319.2802;314.9539;-0.4030072;0.05371064;0;
200.7525;0;201.1902;249.376;1.979887;-3.819976;200.9562;199.6328;-0.2077002;0.118624;0;
113.4071;0;119.9662;153.486;-1.504726;-5.557571;116.9839;115.7243;-0.5323282;-0.4662012;0;
-427.3726;0;-386.3998;-378.0261;0.7075884;-6.958629;-415.2412;-416.2497;-0.2069566;-0.5956675;0;
-667.947;0;-625.3288;-641.4512;-1.370203;-9.363022;-655.453;-653.6494;0.118088;0.3144738;0;
-336.9419;0;-323.6018;-344.2057;6.601776;-9.956461;-328.8333;-327.6561;0.2479041;0.1842232;0;
-230.3442;0;-219.1415;-247.4708;9.475531;-12.4247;-219.745;-223.2542;0.442557;0.05410335;0;
-135.1605;0;-129.966;-146.2729;4.979007;-8.125433;-126.1337;-130.6388;0.05230826;0.6387551;0;
465.361;0;426.7598;407.9706;5.509868;-7.313473;464.6962;461.6323;-0.272581;0.5731459;0;
702.9612;0;658.4643;603.2123;9.991334;-14.0043;702.7968;697.1124;-0.1423724;0.2477333;0;
315.9491;0;310.3523;303.1942;11.38781;-14.4591;321.5319;314.3539;-0.0122947;-0.07735234;0;
197.2536;0;195.7854;241.9826;8.965474;-17.65964;198.5205;195.5352;0.1176523;-0.07727461;0;
126.341;0;127.373;159.5308;9.090187;-19.71836;127.6066;127.1854;0.3774035;-0.01222963;0;
-416.3882;0;-381.6867;-371.8;7.808256;-12.1296;-405.3163;-405.6121;0.4419916;-0.2071194;0;
-667.281;0;-629.9282;-643.4772;7.532966;-10.24201;-654.3462;-653.0175;-0.2081259;0.1179255;0;
-337.7758;0;-326.0102;-344.543;7.458048;-12.9779;-328.852;-328.5866;-0.6626882;0.2477417;0;
-219.1209;0;-208.4915;-234.502;7.785347;-11.82615;-208.2695;-211.8774;-0.01234889;-0.07734399;0;
-123.3238;0;-118.0774;-133.6294;6.705797;-12.61806;-114.4822;-118.5863;0.3774676;0.05266841;0;
450.6992;0;416.5226;406.5459;5.359889;-13.61013;449.6618;446.6238;-0.2076178;-0.1422865;0;
681.3177;0;640.7411;600.8521;15.80335;-4.219083;679.6566;674.0605;-0.01250715;-0.3370456;0;
316.4412;0;312.3246;312.6429;18.53414;-0.7987143;320.0916;314.0013;0.6371788;-0.1418049;0;
202.7427;0;202.8781;254.4828;9.74063;-10.71114;203.5159;201.5547;0.1167999;0.05323961;0;
121.2048;0;124.8384;162.3358;7.252596;-10.6334;123.3516;122.2669;-0.2731216;0.2480882;0;
-422.7686;0;-380.0333;-372.9334;11.06273;-13.0341;-411.2537;-412.3997;-0.2728471;0.3128062;0;
-667.5955;0;-622.4669;-637.3006;10.18095;-15.76718;-655.53;-653.9263;-0.1426383;-0.01234482;0;
-341.9006;0;-328.6763;-342.4331;0.9946722;-3.694774;-334.9071;-333.8672;0.2473091;-0.07729976;0;
-226.24;0;-214.4658;-236.8919;-1.685645;-1.547608;-217.6294;-219.9014;0.2470606;0.0527126;0;
-115.3183;0;-109.3655;-121.7741;-6.373;-4.359336;-107.7783;-111.2349;-0.1429917;0.117627;0;
464.2563;0;429.5985;418.7641;-8.978564;-3.350211;462.4809;458.7779;-0.33775;0.05254144;0;
685.7407;0;646.5576;601.9385;-6.625019;-4.016675;682.2805;676.6447;-0.07754131;0.117456;0;
312.7389;0;311.2012;310.8547;-7.086876;-2.739963;314.5294;308.462;-0.1424307;-0.01259672;0;
195.6708;0;199.6944;248.5735;0.7561499;-9.904262;195.2107;192.7101;-0.597059;0.182318;0;
124.0101;0;129.3415;163.1166;4.372713;-11.63574;123.6129;123.4262;0.05321433;0.3120695;0;
-416.7177;0;-377.0965;-367.6556;4.033526;-7.069335;-408.9312;-408.618;0.7028342;0.1818212;0;
-671.983;0;-627.3416;-642.9601;6.50772;-7.665078;-663.0173;-660.7679;0.05245465;0.3115732;0;
-338.6;0;-322.5516;-339.9036;8.377191;-1.763;-334.7033;-332.3937;-0.7272062;-0.01357659;0;
-214.0098;0;-200.7261;-224.6198;9.574223;-0.4885527;-208.4928;-210.3709;-0.7914428;-0.2734323;0;
-118.78;0;-110.757;-125.069;9.229809;-1.090908;-115.33;-118.0808;-0.4008435;0.1166465;0;
460.1734;0;427.2714;412.9113;9.085837;-0.8218804;454.1247;451.7515;-0.01063668;-0.2083074;0;
696.0297;0;655.1023;602.7758;7.469117;-2.09373;689.5498;683.3059;0.1193087;-0.2730655;0;
322.1429;0;314.7398;309.1923;6.590956;-1.421797;320.5421;313.8047;0.2491235;0.2469477;0;
200.3803;0;198.2944;248.2871;2.967987;-11.53455;196.1574;194.0494;0.1189385;-0.1431045;0;
118.47;0;119.5097;155.0844;0.6204804;-13.66641;114.6886;114.5818;-0.3359524;0.05194128;0;
-422.4397;0;-392.9154;-376.6168;1.15572;-13.25078;-416.847;-417.5159;-0.4005822;0.3117585;0;
-662.207;0;-632.2751;-636.1077;-1.056244;-14.91204;-654.2461;-652.4781;-0.01037563;-0.2732609;0;
-333.0817;0;-325.731;-336.9312;7.18384;-4.514946;-329.6266;-327.0482;-0.07533254;-0.2729863;0;
-216.8678;0;-206.8383;-230.3335;12.40154;-1.496178;-212.1667;-214.0887;0.1196452;-0.01284264;0;
-110.4532;0;-105.5563;-120.5321;-0.9401639;1.117538;-107.3811;-111.9248;0.2494596;-0.07779708;0;
465.4308;0;429.156;418.3806;2.543405;4.465562;459.8167;455.7148;-0.2055624;-0.07771891;0;
684.9151;0;642.1176;599.8688;0.5311176;4.996938;679.4316;673.8346;-0.3352906;0.3121633;0;
316.7866;0;307.8275;307.4752;0.1957913;6.733352;315.369;310.1525;-0.205019;0.4417843;0;
198.7775;0;193.513;241.8241;26.58663;4.71722;193.5508;193.3369;-0.204813;0.1165037;0;
115.1197;0;108.5487;146.4415;30.37733;4.377565;111.335;112.4332;0.0552622;0.1813539;0;
-418.8527;0;-399.9298;-378.0671;56.67049;-0.4494824;-413.4507;-414.2276;0.4450107;-0.143665;0;
-661.6221;0;-636.7837;-641.8669;70.41227;-3.932143;-656.288;-654.7528;0.3795962;-0.6632594;0;
-332.2475;0;-326.3621;-343.9964;33.83643;-0.1771479;-332.1036;-329.7579;-0.07555658;-0.07788687;0;
-215.0974;0;-210.5297;-235.0803;28.97966;-1.717577;-213.0796;-215.109;-0.07548065;0.2470281;0;
-118.1798;0;-121.7377;-136.7059;24.73099;-4.998015;-118.4754;-122.4394;-0.1403722;-0.2079915;0;
463.2092;0;416.4267;405.5964;15.19432;-6.533479;453.4187;450.2084;-0.4650678;-0.07784783;0;
690.5043;0;638.7713;600.5906;18.26051;-11.08163;681.1609;675.6425;-0.1397638;0.3120345;0;
311.7505;0;298.8;299.2633;13.8879;-13.74981;307.1641;302.2759;0.315148;-0.0131158;0;
195.4331;0;185.9314;234.1827;8.180521;-12.86522;188.1027;187.5922;0.1199293;-0.2080047;0;
117.9631;0;111.4694;147.0536;6.430989;-13.72307;112.5141;112.6912;-0.2050279;-0.1428283;0;
-424.5078;0;-397.8867;-383.5775;3.74521;-17.05831;-421.3932;-420.8414;-0.2048219;-0.2076521;0;
-664.5854;0;-636.5542;-641.3124;1.2632;-18.24686;-660.9116;-657.7992;-0.009714036;0.2473279;0;
-336.1449;0;-330.7555;-343.0676;12.84986;-16.95585;-335.9106;-334.7378;-0.009704275;0.1821121;0;
-223.3012;0;-215.4184;-239.2749;14.24346;-17.20674;-220.0686;-223.3947;-0.009694525;-0.402777;0;
-114.8187;0;-115.0648;-125.7789;9.340009;-14.57724;-112.6514;-116.224;0.05528256;-0.01256825;0;
465.7549;0;421.5311;416.2626;6.583957;-12.55311;458.2999;455.6678;-0.2696097;0.5721505;0;
685.2388;0;634.1255;598.1277;10.32839;-16.3584;674.6679;669.9771;-0.2693388;0.1817715;0;
310.9256;0;297.2823;302.3626;12.92998;-15.67213;303.8011;300.5517;-0.07416613;-0.0782805;0;
197.9823;0;192.1613;244.0879;-21.10888;-13.51305;190.1778;191.7417;-0.333961;0.1816675;0;
119.885;0;117.5681;156.4491;-30.33107;-13.03059;115.2742;116.6492;-0.2686581;0.1165177;0;
-423.5249;0;-392.981;-377.0026;-20.78975;-6.252346;-419.8852;-419.1362;-0.1384534;-0.07850146;0;
-666.1022;0;-629.9043;-640.2412;-26.26122;-3.499886;-662.2787;-659.1567;-0.2032817;-0.01345524;0;
-330.3513;0;-320.9888;-334.3139;-5.403504;-5.371769;-330.5921;-328.5352;0.1217593;-0.1433764;0;
-210.4544;0;-204.912;-224.0332;1.433452;-4.36175;-208.6961;-210.7642;-0.008297724;-0.4031017;0;
-114.1038;0;-113.377;-124.6704;-9.150559;-4.491333;-112.8469;-116.2873;-0.5929955;-0.467664;0;
465.0948;0;427.2777;413.1845;-6.730467;-5.357476;459.5413;456.5417;-0.4624649;-0.07739005;0;
696.1985;0;654.0467;603.4235;-3.642246;-1.266256;690.0884;685.8425;-0.07219619;0.2475244;0;
311.442;0;307.1261;304.2173;-2.298439;0.342485;309.5859;306.0314;-0.007156312;-0.07756101;0;
191.4393;0;192.5624;244.3166;-4.775352;-8.901259;187.5236;188.4079;-0.007149121;-0.1424504;0;
125.7798;0;129.0882;165.0483;-6.109725;-10.49978;121.7431;123.8134;0.1227927;0.1175621;0;
-418.0733;0;-376.2875;-369.0991;-6.974241;-7.140209;-414.922;-413.9782;0.3825387;-0.1424254;0;
-664.654;0;-616.7259;-635.0944;-9.981343;-7.200018;-658.7573;-656.3777;0.317187;0.1825544;0;
-331.2159;0;-317.3813;-334.2321;-5.349614;-3.977724;-328.4486;-326.3837;-0.007968408;0.5072077;0;
-216.3782;0;-207.1177;-228.6367;-3.937719;-3.236915;-211.5522;-213.6123;0.1219743;0.05192665;0;
-107.8402;0;-102.9618;-114.7141;-18.20101;2.59373;-103.9561;-107.4509;0.1218517;-0.2079949;0;
470.415;0;434.3716;423.6931;-20.92841;5.7392;465.6746;462.9329;-0.07317274;-0.2727532;0;
684.5845;0;644.5792;600.1785;-17.08996;-0.09383795;680.0987;675.798;-0.1380666;-0.1425445;0;
314.3324;0;310.4117;312.9695;-18.21089;-0.6965901;315.0359;312.5512;0.1219415;-0.07743391;0;
203.6345;0;200.6548;255.3088;-10.69148;3.389947;199.6523;202.1675;0.2517537;-0.3372255;0;
115.1618;0;113.8717;151.4793;-8.603654;4.860165;109.8092;113.1965;-0.07333598;-0.2719193;0;
-430.9295;0;-400.2968;-382.0923;-7.255838;-3.182548;-426.0319;-422.9603;-0.203197;-0.1417114;0;
-670.3135;0;-640.5236;-638.1419;-5.97575;-5.2557;-661.5477;-656.4177;-0.2679601;0.05333304;0;
-342.8667;0;-336.8449;-342.9613;-6.43826;0.7778014;-338.2326;-334.4821;-0.3976256;-0.1416226;0;
-222.3951;0;-214.6926;-236.1077;-6.901281;0.5760711;-216.8911;-217.7046;0.3823821;-0.5312843;0;
-116.4747;0;-118.6501;-129.8613;-10.98018;5.934005;-114.0372;-116.6615;0.6418672;-0.2059138;0;
460.1025;0;414.0764;407.874;-12.97791;9.210206;451.668;448.6091;-0.008451161;0.1191298;0;
691.5237;0;638.9221;600.1798;-20.5343;1.297088;681.5359;676.5436;-0.1383774;-0.2707939;0;
316.0797;0;299.3255;300.8519;-24.06364;0.5589719;310.3499;306.2371;0.1865984;-0.2705218;0;
194.573;0;184.5198;235.5198;-27.32102;5.782957;186.9124;187.4264;0.3813129;0.1845214;0;
117.7285;0;111.5585;149.1389;-30.91089;6.179044;112.387;114.4622;0.05609307;0.3142707;0;
-429.1774;0;-403.6072;-389.1779;-24.58417;6.97663;-425.5806;-423.8198;-0.07389797;0.3139549;0;
-673.2483;0;-644.5179;-654.9656;-23.8889;7.706432;-669.4677;-665.5223;0.05611097;-0.01119729;0;
-337.1779;0;-334.8381;-351.2098;-23.46373;5.15346;-338.3361;-334.6445;-0.2687821;-0.2710554;0;
-220.3351;0;-220.5589;-242.9112;-21.83257;4.21052;-218.7436;-218.4915;-0.3334794;-0.4656851;0;
-116.9781;0;-123.1986;-134.9712;-21.40849;6.282639;-116.3252;-116.7605;-0.3981116;-0.6601192;0;
463.0979;0;414.3425;409.7657;-19.44459;6.14236;453.6303;453.5702;-0.3977116;-0.5944885;0;
680.0233;0;625.6948;596.4474;-20.56315;4.327771;669.4408;666.7571;0.2523614;-0.1391198;0;
303.0292;0;285.1119;293.8748;-18.80118;4.122473;296.6427;294.274;0.5119772;-0.009045335;0;
196.1533;0;181.3774;232.9225;-19.11708;0.4342698;187.5243;189.7182;0.05669137;0.0559311;0;
115.2467;0;105.3583;143.9206;-17.7587;-1.50855;109.0002;112.5663;0.1865691;0.3807116;0;
-430.4073;0;-405.9906;-388.2066;-13.92246;2.980701;-427.2773;-424.277;0.5761857;-0.07444233;0;
-663.5449;0;-634.655;-640.4395;-13.03782;3.178654;-658.5439;-653.7976;0.05586799;-0.3342369;0;
-333.9186;0;-326.6093;-339.447;-1.771586;0.02738468;-333.5453;-329.0536;0.1207792;-0.07403169;0;
-221.8267;0;-214.15;-235.408;2.449753;-1.245319;-220.2669;-218.9656;0.3155599;-0.203892;0;
-115.5322;0;-114.11;-124.3522;-1.572173;0.7652987;-114.1613;-114.7354;-0.4643653;-0.07375243;0;
462.6684;0;424.1092;415.9388;-0.2304463;0.5635809;455.792;454.8437;-0.6588007;0.2511584;0;
683.967;0;640.6365;601.4898;-1.971527;-3.25489;676.223;673.7139;0.05650198;-0.07393068;0;
304.0329;0;298.5394;303.5974;-1.634753;-3.854466;301.1067;298.9749;0.3812819;-0.1388237;0;
194.9695;0;195.2287;248.4449;-7.594958;-8.137379;189.8599;191.416;-0.008905246;0.1861525;0;
132.0552;0;131.377;173.108;-10.06557;-9.535844;128.9496;131.9409;-0.138831;-0.2038386;0;
-416.4893;0;-384.9955;-362.6717;-6.103344;-7.047894;-409.097;-406.671;0.1861452;-0.2036338;0;
-667.0697;0;-628.0488;-631.8593;-8.240664;-6.906847;-658.4354;-653.9504;0.1209908;-0.07349452;0;
-334.5038;0;-319.2601;-330.688;-0.3955036;-3.483899;-331.188;-326.1452;0.05590193;-0.4632247;0;
-222.4738;0;-206.4958;-225.9707;0.5428988;-1.939791;-216.2253;-215.8728;-0.009121582;-0.2678573;0;
-116.7408;0;-107.9003;-117.3606;-1.132586;1.277217;-111.8104;-114.0194;-0.1390471;-0.1376534;0;
467.0207;0;431.8119;423.8603;1.48052;3.620337;461.4513;460.1815;0.05599464;-0.2674498;0;
680.069;0;640.7103;601.4075;-13.39045;2.879886;674.3179;670.9255;0.1858731;-0.1372464;0;
299.2018;0;296.989;303.0778;-15.18565;4.149668;299.6408;295.6896;-0.1391504;-0.1371085;0;
190.5182;0;192.4929;248.3631;-16.91171;2.069028;188.458;188.6961;-0.5288147;-0.1369707;0;
114.6773;0;119.4611;160.9074;-20.57841;1.531085;112.8066;114.981;-0.2684139;-0.006898389;0;
-424.0422;0;-392.5891;-368.7381;-0.999203;1.998428;-416.9156;-415.0557;0.05669249;-0.0718588;0;
-664.3077;0;-634.5728;-630.7357;3.22136;0.8577097;-654.3146;-652.0193;0.1216029;-0.006819254;0;
-340.74;0;-329.963;-339.3731;5.361577;4.072029;-334.2552;-332.8368;0.1214807;0.3180243;0;
-224.9556;0;-210.3789;-233.5226;10.24631;4.804749;-217.1031;-217.9974;-0.07354341;0.4476395;0;
-112.536;0;-108.2812;-117.0964;3.537233;1.11586;-107.1276;-109.083;-0.008502172;0.317255;0;
468.2852;0;430.1195;422.6875;3.332608;1.315688;464.5053;462.0521;-0.1384283;-0.2028026;0;
685.0804;0;642.8302;601.2354;2.324881;-0.6280173;680.5547;676.2299;0.1215801;-0.3975008;0;
303.3336;0;296.608;300.657;0.7823036;-1.297216;303.9973;299.8643;0.5112621;0.2525721;0;
185.7128;0;183.0544;236.1996;-5.246702;3.392771;184.6892;185.183;0.05597692;0.2523183;0;
112.9377;0;108.4079;150.8176;-9.863131;4.729021;112.5398;115.282;-0.009046664;-0.1377393;0;
-430.5901;0;-402.3818;-381.379;-1.748896;5.795874;-422.9292;-420.627;0.3807665;0.1222684;0;
-678.5951;0;-638.671;-649.6108;-0.6080623;7.196692;-669.3801;-665.2062;0.3803839;-0.007789107;0;
-341.8322;0;-328.1226;-344.736;-10.38672;10.27068;-336.8744;-333.0795;0.05516496;-0.2676506;0;
-223.3606;0;-215.5368;-235.6942;-11.98387;12.80558;-216.7836;-216.3033;-0.2047598;0.3822917;0;
-123.6862;0;-124.0536;-134.2582;-9.493581;7.568171;-118.1777;-119.0722;-0.1395867;0.5768096;0;
462.0188;0;418.7982;410.9777;-11.2927;6.28789;458.5887;456.758;-0.2044138;0.2513933;0;
689.9398;0;642.015;601.6562;-3.378102;12.64483;685.5136;681.3735;-0.3341431;0.5110101;0;
308.7502;0;297.3553;299.3283;-0.8291125;12.96704;309.9507;306.5644;-0.3338074;0.1856599;0;
191.7487;0;183.3012;235.4969;-9.736887;11.61435;190.5117;191.5015;-0.008635256;-0.009428672;0;
113.7201;0;108.2797;146.2426;-10.32934;11.87061;113.0466;115.1599;0.1213081;0.3154175;0;
-431.4327;0;-399.5739;-386.824;-11.65911;6.902069;-422.5478;-420.7491;-0.00874847;-0.009736131;0;
-674.1895;0;-636.7405;-649.678;-12.98656;5.354527;-663.9392;-660.0183;-0.1386744;-0.2046284;0;
-348.8002;0;-336.8137;-353.1739;-11.43327;5.751044;-342.6832;-338.7662;-0.2684697;0.05544661;0;
-234.3196;0;-222.0952;-243.7489;-11.95765;4.941592;-226.1473;-225.3577;-0.008330579;0.1853256;0;
-119.7042;0;-114.2387;-125.0635;-9.132594;5.00361;-112.7894;-114.0621;0.3165145;0.1851394;0;
464.0602;0;428.9157;420.7254;-8.520205;4.462718;462.2224;459.7642;0.1212944;0.05501865;0;
679.5479;0;641.1278;600.9619;-6.16712;8.477088;676.4001;671.1957;0.2511072;0.05496337;0;
303.8661;0;303.2156;305.5687;-3.750025;10.14314;305.2192;300.6447;0.1858876;-0.0100592;0;
193.3661;0;197.5264;249.7895;-9.507033;7.453635;193.1562;193.0215;-0.07416856;-0.3998531;0;
114.2115;0;123.0528;161.0205;-9.764924;7.848042;114.9388;116.2411;-0.1390614;-0.6593207;0;
-428.3805;0;-380.6927;-369.3748;-5.200761;7.90714;-419.5956;-417.6699;0.1209477;-0.5287235;0;
-676.0754;0;-625.1871;-635.807;-3.587945;7.229365;-665.1129;-660.5029;0.4456629;-0.2033556;0;
-346.6238;0;-328.0829;-338.942;-6.59845;11.4419;-339.4204;-335.6897;0.05541105;-0.07321658;0;
-222.0879;0;-203.9405;-225.8456;-8.40048;13.23895;-213.8298;-214.3507;0.1203227;-0.2030777;0;
-122.7896;0;-107.4715;-120.3591;5.205617;5.656694;-115.4143;-117.6838;0.2501365;-0.462743;0;
456.7925;0;428.8045;415.2427;8.48194;4.110525;455.4148;452.7103;-0.5297229;-0.267376;0;
687.5923;0;654.2601;602.5436;-0.3004922;8.661112;684.092;680.5156;-0.399256;0.3825661;0;
301.7825;0;308.0889;304.4002;-0.0991195;8.585426;302.721;301.1472;0.1858513;0.252247;0;
177.8539;0;189.0265;240.5013;-6.32831;10.92108;177.3547;179.8429;-0.1391722;-0.1378105;0;
108.2101;0;119.6838;157.2389;-8.934896;12.45071;109.8978;112.8208;-0.2039997;-0.2676067;0;
-425.8177;0;-384.6205;-368.5299;-7.854191;8.553316;-415.1363;-412.7784;0.121042;-0.3323052;0;
-669.6421;0;-627.5493;-632.6517;-9.989754;7.874892;-657.6595;-653.0552;-0.009014315;-0.2020366;0;
-345.3195;0;-330.3177;-339.8503;-2.410278;11.48394;-338.0965;-334.2464;-0.0739726;-0.2018336;0;
-226.9068;0;-212.9822;-232.3752;0.6736025;12.20921;-219.2539;-219.3431;0.2509384;-0.07169612;0;
-113.923;0;-105.6345;-113.7637;-7.633446;10.85728;-107.3397;-108.5533;0.1207516;-0.07162408;0;
466.962;0;433.8255;424.705;-8.763876;11.65017;464.9805;463.9556;0.1206303;-0.3963888;0;
685.8826;0;647.2196;600.6271;2.698158;8.088489;682.029;679.006;0.3154111;-0.5259252;0;
309.7571;0;307.6772;308.9824;5.844254;6.472771;310.4676;307.8225;0.0552248;-0.3304947;0;
192.0049;0;196.4862;249.7015;2.087338;13.2984;190.7782;192.1337;-0.2047001;0.0596414;0;
107.2919;0;114.5174;153.4364;4.362416;13.95487;108.003;110.4191;-0.2694617;-0.005385865;0;
-430.1707;0;-396.4034;-372.6409;-1.201673;13.60593;-419.7778;-417.9263;-0.07428893;-0.2652498;0;
-665.9948;0;-631.4493;-627.7631;-3.27657;14.26209;-654.238;-650.1395;0.2506224;0.1248208;0;
-343.2375;0;-331.5277;-340.0266;9.050606;10.76465;-335.3655;-332.1457;-0.1394335;0.25463;0;
-229.5745;0;-217.8766;-239.048;12.05562;10.35194;-219.8989;-220.8053;-0.269228;0.1244395;0;
-121.1482;0;-115.3965;-125.1774;5.211981;6.858543;-113.9811;-115.9485;0.2507812;0.3841838;0;
461.2433;0;424.4481;414.9269;4.001295;5.244061;458.7206;456.7552;0.1855619;0.05896107;0;
687.9781;0;644.4108;601.2286;12.63746;5.841639;684.8958;680.2462;-0.009526587;-0.3309022;0;
307.7901;0;301.248;305.3354;15.23673;4.161317;309.0836;305.0009;0.05545033;-0.5254717;0;
190.2273;0;187.9396;242.9349;4.035639;11.85993;188.3336;189.5649;0.120362;-0.5899111;0;
120.3837;0;119.9099;158.0458;1.888131;14.92923;119.6163;122.1582;-0.009693672;-0.2644816;0;
-422.2771;0;-389.642;-376.5319;6.24049;6.139585;-413.6734;-411.4464;-0.009683931;-0.1992486;0;
-667.0421;0;-633.3778;-642.5821;6.033149;5.262637;-657.5724;-652.5991;0.1202605;-0.134081;0;
-339.2862;0;-332.6422;-346.0851;4.419496;9.611239;-334.5112;-330.6049;-0.1397297;-0.1989136;0;
-229.0006;0;-221.2388;-244.0385;3.611748;9.534599;-222.3563;-222.7642;-0.2045567;-0.3286484;0;
-116.3895;0;-115.7569;-127.4768;5.349432;10.19473;-111.1262;-112.9704;0.05551824;0.1914205;0;
469.1208;0;427.3989;418.6269;3.802839;9.782707;465.2583;462.5414;0.1853971;0.0612935;0;
685.1031;0;639.1753;600.5521;8.689137;10.10767;680.6198;675.2819;0.3151455;-0.2636048;0;
308.3537;0;300.1407;305.3467;9.349992;9.628756;308.9349;304.2271;-0.07497517;0.1264641;0;
191.6649;0;190.519;241.8842;0.8341309;7.408643;189.247;189.4164;-0.1398672;0.1913044;0;
107.7019;0;111.7421;148.0632;-0.3057831;7.669131;106.2859;108.4542;0.1851101;0.1911122;0;
-431.0106;0;-393.2414;-380.6949;-10.68698;-1.314044;-423.6795;-422.1381;0.3148588;0.4507895;0;
-664.2101;0;-623.4803;-633.81;-15.63273;-4.326955;-656.1367;-652.9103;0.3145424;0.5802712;0;
-339.643;0;-324.6913;-337.1344;-8.718147;1.169871;-334.5138;-331.4779;-0.2055124;0.4497535;0;
-228.8572;0;-214.8575;-233.7849;-9.580043;-0.1039806;-220.5473;-221.8248;-0.1403386;0.3193669;0;
-114.4971;0;-107.6954;-113.8602;-9.169251;8.000937;-107.9447;-110.7826;0.05470447;0.124144;0;
466.0761;0;433.3284;424.5461;-9.226411;11.14097;463.689;461.4161;-0.2052199;-0.2008175;0;
681.4368;0;646.0983;600.9681;-6.135682;4.967471;678.5524;674.0329;-0.01011163;-0.1356484;0;
299.6937;0;300.9348;305.9498;-5.393558;6.168172;300.4353;297.0448;0.3147352;-0.2004794;0;
183.1385;0;188.9386;244.4856;-3.445756;1.875189;181.3806;182.6161;0.3793863;-0.2652453;0;
115.301;0;121.7199;162.5935;0.6445196;-0.1361833;116.231;117.7777;0.3790051;0.3846947;0;
-423.6066;0;-384.9603;-363.7429;-17.91028;6.428159;-413.8694;-411.9495;0.05378759;0.5792102;0;
-666.8709;0;-620.4549;-628.1193;-22.17919;6.957563;-656.7687;-651.6649;-0.1411685;-0.006077945;0;
-335.6795;0;-313.4854;-329.7004;-9.229808;6.749623;-328.8358;-324.7365;-0.0760593;-0.07103918;0;
-228.271;0;-208.4106;-229.9191;-10.02384;7.881551;-218.4982;-218.6509;-0.2059176;0.1889016;0;
-127.842;0;-114.8731;-124.8033;1.238388;4.12271;-119.5158;-121.1051;-0.01080862;-0.2010923;0;
456.4303;0;426.4078;417.6745;6.127264;2.912874;454.7532;453.103;-0.01079776;-0.2658576;0;
679.6718;0;642.6204;601.0999;-2.988572;8.871306;675.9973;671.6002;-0.2056889;0.189181;0;
306.8633;0;305.7687;309.892;-2.449706;10.67081;307.5654;303.3601;0.1193544;0.1889909;0;
192.4249;0;197.4533;251.6722;-2.915759;5.167609;191.5645;191.9236;0.2491692;0.1238336;0;
106.4621;0;116.0457;154.0933;-3.1139;5.2294;108.1014;109.4596;-0.07591787;-0.2011275;0;
-430.375;0;-385.194;-374.2961;-7.598749;6.563804;-420.1168;-418.6349;-0.01087424;-0.2009254;0;
-661.2638;0;-613.2546;-626.2307;-10.06936;6.82514;-650.3912;-647.0368;-0.07583066;0.3190152;0;
-342.4468;0;-325.4078;-338.3083;-3.829952;10.50222;-335.0208;-332.7943;0.05418022;-0.006142054;0;
-233.9071;0;-220.6958;-240.3924;-3.692382;11.63038;-224.677;-226.1383;0.2490278;-0.07110322;0;
-119.8543;0;-113.2779;-121.8978;-1.946384;14.76689;-112.7574;-115.654;0.1838102;0.253805;0;
459.9748;0;425.1278;418.5156;-0.06939377;16.4265;457.8817;455.6751;0.1186582;-0.0712868;0;
683.2126;0;641.5291;601.1906;-3.887717;16.54396;679.7473;675.8563;0.1835063;-0.7208886;0;
307.9644;0;301.4301;306.4843;-3.548042;18.06795;309.2502;305.7379;0.2482893;-0.6551969;0;
185.7787;0;183.374;239.4599;-3.008614;14.09792;185.0017;186.428;-0.07679692;-0.1347998;0;
116.002;0;115.4738;156.7607;-2.939218;13.68186;115.2883;118.7121;-0.01175241;-0.06969703;0;
-421.9067;0;-385.7654;-371.4439;-3.739571;12.66337;-415.061;-412.0154;0.5079981;-0.004659656;0;
-672.8564;0;-631.2542;-642.6841;-6.01299;10.64116;-664.5184;-659.5393;0.182651;0.06031237;0;
-340.2222;0;-328.8965;-342.7513;3.704967;19.07019;-335.2658;-331.2288;-0.3372713;-0.06968292;0;
-224.5633;0;-216.8722;-238.1468;5.509906;21.12738;-217.6129;-218.7024;-0.2069977;0.06032178;0;
-126.5743;0;-125.8874;-135.7089;-3.404238;16.81936;-120.5055;-123.4054;-0.4016917;0.1252285;0;
458.5089;0;416.9038;409.7784;-3.601889;18.41005;455.5761;453.0539;-0.5961902;0.19007;0;
688.12;0;642.059;602.0822;-12.30581;15.31034;684.0658;678.9849;0.184017;0.1249117;0;
311.2427;0;303.4587;307.5625;-15.44127;15.22797;312.2525;307.9263;0.6386034;-0.2000505;0;
191.2401;0;188.7113;243.0357;-10.13447;18.56182;190.6247;190.9255;0.05325576;-0.3297842;0;
105.7158;0;105.0012;146.5274;-9.588426;18.34222;106.6003;108.1502;-0.2716345;-0.004616115;0;
-436.8052;0;-401.1624;-385.5399;-6.028818;26.29451;-427.0511;-425.6902;0.1184425;0.3202252;0;
-670.811;0;-629.0196;-637.7131;-3.27707;28.27758;-659.2551;-655.5217;0.5730949;0.1250015;0;
-345.2378;0;-332.9735;-341.7832;-0.8619035;27.91425;-337.9413;-334.3991;0.6374863;-0.4598302;0;
-235.5084;0;-224.9431;-241.0528;0.07696757;29.96255;-226.5326;-226.8045;0.1820745;-0.2644662;0;
-116.6438;0;-111.3366;-115.4986;10.72681;21.09094;-108.7391;-110.1352;-0.1429452;0.190571;0;
470.5533;0;434.1886;427.1573;13.93121;19.06038;468.7675;468.0599;-0.01286688;0.1254122;0;
687.7835;0;646.7078;601.89;8.35751;19.24218;683.8131;682.2942;0.05211339;-0.06961591;0;
312.6556;0;309.1649;315.4914;10.09042;16.87844;313.4993;312.5441;0.1819957;-0.45935;0;
192.5892;0;194.849;254.5174;-6.330411;20.00956;191.8078;193.4148;0.4416822;-0.2639864;0;
112.186;0;119.8783;162.7451;-11.68171;19.05182;112.9046;115.3221;0.2463364;0.06111554;0;
-429.0922;0;-380.7406;-366.465;-5.440681;21.51092;-419.4413;-417.0887;0.1161542;-0.3287499;0;
-672.5385;0;-617.4888;-630.7137;-8.4503;22.2931;-661.8978;-657.611;0.1810048;-0.1984849;0;
-330.8466;0;-309.7727;-322.9843;-0.2027862;17.98391;-325.0267;-321.6812;-0.1440138;-0.003383447;0;
-215.2596;0;-197.6427;-215.9634;0.9364935;17.83188;-207.2591;-208.6022;-0.2088364;0.06158729;0;
-120.5283;0;-106.8021;-114.7347;0.399689;14.197;-113.7852;-115.5643;-0.2735939;-0.003441931;0;
466.4853;0;435.4702;422.673;1.202595;13.24498;463.6639;463.0111;-0.4032537;0.06152887;0;
690.5911;0;653.2979;602.9075;-2.750729;11.62408;686.5233;683.3724;-0.2079465;0.4512711;0;
307.4645;0;308.5019;312.3224;-3.618621;9.870843;307.6485;305.4378;-0.07780285;0.320883;0;
187.2783;0;190.9384;250.8519;-11.51824;16.29116;185.2758;188.0648;-0.142692;0.1256585;0;
102.7575;0;109.8497;150.5251;-15.05664;16.74368;103.3182;106.3543;-0.1425486;0.06056492;0;
-438.2614;0;-393.008;-379.3599;-13.70234;19.54001;-427.5813;-425.7352;-0.2073727;-0.004463279;0;
-669.5795;0;-622.3726;-630.2899;-13.55485;21.52987;-657.7233;-653.5052;-0.337099;-0.1343935;0;
-337.5732;0;-321.2108;-330.6194;-21.24341;15.94877;-330.3516;-326.575;-0.271793;-0.3941278;0;
-226.3523;0;-210.0063;-229.213;-23.56659;15.86576;-216.889;-217.0518;-0.1415852;-0.3287644;0;
-117.1171;0;-106.7845;-114.915;-7.735428;12.36683;-109.2876;-111.0119;-0.01150827;0.1913047;0;
460.8351;0;428.4288;423.1176;-3.239677;11.14871;459.8487;457.1266;0.118438;0.2560798;0;
676.3885;0;639.2047;599.1663;0.04513222;11.07053;675.5905;669.8102;-0.01161571;-0.06901427;0;
305.27;0;304.1679;309.4595;6.274377;9.317846;308.7832;304.383;0.0533633;0.06098976;0;
188.8966;0;193.7926;248.9288;1.110509;16.74347;189.6576;190.5092;-0.01165766;0.2558305;0;
106.1233;0;114.8875;152.9144;2.650611;17.86535;108.0705;109.3585;-0.2715153;-0.06926326;0;
-434.0244;0;-391.411;-379.7841;7.001228;16.97662;-423.521;-423.1088;-0.2712425;-0.329063;0;
-674.2173;0;-626.8367;-640.7711;6.793122;17.36146;-661.9129;-659.5646;-0.2060026;-0.00389568;0;
-334.0854;0;-317.5495;-334.6558;15.49383;15.0666;-326.7284;-324.32;-0.3357303;-0.06885911;0;
-227.1783;0;-213.3451;-236.9935;18.49238;14.71655;-218.7043;-219.1718;0.05441109;-0.1337573;0;
-145.6784;0;-134.9825;-147.8;10.36947;7.467845;-137.6501;-139.554;0.3791931;0.06127917;0;
453.4794;0;419.4995;403.1341;10.82757;4.513093;451.817;451.1019;-0.1409266;0.1911523;0;
694.5273;0;652.4606;602.8784;3.515667;3.972694;691.8046;689.6534;-0.4656217;0.1259929;0;
302.3387;0;297.9829;300.112;-1.042216;1.021576;304.5538;301.7801;-0.2702518;0.1258663;0;
177.0353;0;175.7448;230.158;13.69459;6.58001;175.6874;178.0389;0.2497585;0.3206418;0;
101.3329;0;102.4174;143.6576;15.55684;7.444177;102.2976;106.8957;0.5743442;0.385287;0;
-435.9989;0;-399.933;-382.9096;9.579359;4.355482;-425.1651;-421.9459;0.183963;0.1899978;0;
-673.7536;0;-636.7869;-644.5182;9.904527;5.221884;-662.0561;-656.6537;-0.1410585;-0.005095121;0;
-342.3678;0;-332.5497;-343.709;7.952191;2.604424;-333.868;-328.721;-0.2708515;-0.1350247;0;
-229.6428;0;-218.4602;-238.8536;7.073545;1.798012;-219.1525;-219.3829;-0.01070994;-0.2648237;0;
-120.4668;0;-117.0416;-124.9208;6.999088;3.470779;-112.2359;-114.4027;0.6389742;-0.3295249;0;
465.8596;0;427.8647;421.1178;6.59089;1.658752;465.0243;463.6718;0.5083975;0.3204796;0;
682.5323;0;641.0774;600.7292;2.163638;8.489223;681.1356;677.6606;-0.1417867;0.6449943;0;
303.4117;0;298.2927;307.2728;-0.7189242;10.08816;307.0764;304.4169;-0.07667693;0.1246075;0;
182.4175;0;184.7999;242.9962;7.921987;-0.7729666;183.6422;185.7955;0.05333479;-0.2003545;0;
93.65375;0;97.15816;142.1151;9.521617;-2.915522;96.00168;99.83943;-0.1416208;0.05971622;0;
-447.9807;0;-414.9321;-388.636;2.344754;-5.190012;-435.9525;-432.3059;-0.07651118;-0.005311128;0;
-682.7873;0;-639.4022;-643.7421;1.873883;-7.59606;-669.147;-663.8799;0.1834351;-0.3301425;0;
-349.3934;0;-327.6036;-342.059;0.8002732;-8.526189;-340.6394;-335.5026;0.1182834;-0.004974063;0;
-233.4754;0;-214.8309;-235.3313;-0.07118699;-10.46013;-223.6682;-221.9099;-0.1417048;0.05999828;0;
-126.8568;0;-114.7278;-124.9002;1.201682;-6.430641;-118.8711;-119.5508;-0.1415624;-0.2648987;0;
457.4145;0;426.4281;416.1409;1.066753;-6.089386;456.3343;454.156;0.1834165;-0.1996652;0;
679.4681;0;642.5157;600.6923;3.87872;-4.140763;677.7018;673.1519;0.1182649;-0.3943666;0;
293.9788;0;295.1694;301.9885;5.281343;-1.859182;297.0868;293.4785;-0.2066907;0.1907357;0;
172.994;0;178.8686;236.2805;3.802167;-7.148844;173.8501;175.4303;0.3132558;0.5153808;0;
99.91934;0;108.5367;148.8369;4.267838;-6.940712;101.899;105.1643;0.702745;-0.1997778;0;
-440.9093;0;-394.3197;-382.5457;4.329922;-6.26403;-430.3734;-428.4232;0.2472675;-0.1995771;0;
-680.9079;0;-629.1177;-644.342;2.919052;-6.592529;-670.1952;-666.6228;0.4419211;-0.1344092;0;
-338.5204;0;-319.8907;-335.7243;7.93996;-1.160531;-333.1284;-329.6845;0.636379;-0.3291762;0;
-216.5539;0;-203.0654;-224.8176;8.199426;0.8501228;-210.1678;-210.2256;0.505805;-0.004008716;0;
-114.6999;0;-107.6592;-118.3951;2.899902;-1.428029;-110.6315;-112.1886;0.3103947;0.12593;0;
465.1239;0;429.554;418.4541;2.562195;-1.56056;459.8179;457.2005;-0.07972123;0.1907708;0;
690.2307;0;648.0748;602.0662;-7.956578;3.933364;684.6177;679.8165;0.05029356;-0.06929025;0;
313.5386;0;307.3446;311.4195;-11.96707;5.47002;312.6789;309.1943;0.1801777;-0.3940573;0;
190.0355;0;188.0331;246.639;-6.596412;1.244721;186.428;187.1948;-0.14484;-0.1987594;0;
105.5744;0;106.6975;149.7522;-7.461416;1.176487;103.5323;106.3598;0.1801422;0.1262771;0;
-437.1964;0;-396.7817;-382.3809;-2.832218;-2.17372;-429.4914;-426.167;0.4398305;-0.003784507;0;
-673.8254;0;-628.9536;-640.4293;-0.01535719;-4.114041;-664.3166;-658.8716;-0.5351215;-0.4585521;0;
-339.3162;0;-327.5353;-339.9989;-1.087069;-0.4929506;-334.627;-330.1869;-0.6645185;-0.3281567;0;
-224.0955;0;-215.4499;-237.2088;1.191199;-0.2915064;-218.6613;-218.4736;0.245692;0.06197713;0;
-114.5502;0;-111.2857;-122.528;1.725866;0.6465476;-110.371;-110.9955;0.0505431;0.1268822;0;
461.7752;0;425.6813;418.0735;1.857854;2.789352;457.5795;457.2679;-0.7940831;-0.1331147;0;
680.2012;0;640.5828;599.1871;8.822211;-2.906878;676.7593;674.1367;-0.1436118;-0.3928503;0;
309.2039;0;305.9196;309.5429;10.62201;-4.310599;311.6375;309.5797;0.7011079;-0.3924555;0;
188.2038;0;188.6709;243.6398;5.520144;8.085331;187.3242;189.329;0.1156974;-0.3270939;0;
104.994;0;106.5226;146.5687;4.71129;11.29226;103.6155;106.7427;-0.01435356;-0.1968305;0;
-442.274;0;-406.5766;-393.0574;4.103344;7.797928;-436.5297;-433.4681;0.2455302;0.06323663;0;
-681.0219;0;-644.7357;-656.28;4.702434;9.59851;-675.4083;-669.7261;0.05038149;-0.001794248;0;
-329.5139;0;-327.497;-341.2161;-4.478343;6.239841;-330.715;-325.5383;0.05033087;0.1931096;0;
-209.6804;0;-210.1642;-231.9904;-7.689024;4.625981;-211.0677;-209.8942;0.180215;0.3228502;0;
-114.455;0;-116.3751;-126.0605;2.767551;8.975101;-114.7789;-114.2313;-0.1448028;-0.1322456;0;
466.3057;0;424.7824;417.8553;3.099563;8.16241;458.3609;459.0954;-0.469494;-0.3270147;0;
693.1603;0;643.6829;602.2801;9.192018;6.747566;682.35;680.2727;-0.01425088;-0.06681675;0;
317.5898;0;302.02;308.8846;12.33061;5.66906;309.289;307.5886;0.1806655;-0.1966843;0;
192.6458;0;178.4035;238.3595;5.686791;1.577526;179.1685;181.1555;-0.4691895;-0.1315193;0;
102.9348;0;92.70471;135.4216;4.877769;0.03533383;90.15813;93.64233;-0.273816;-0.06641984;0;
-442.2072;0;-411.5725;-393.8235;2.795788;-4.184505;-443.2894;-439.184;0.4410999;-0.0663531;0;
-679.206;0;-645.4162;-650.6735;0.18101;-5.586941;-678.0382;-672.1254;0.2457546;0.4534523;0;
-343.1296;0;-341.1703;-350.5452;-1.359413;-7.523711;-347.5227;-341.9282;-0.2092637;0.4529967;0;
-225.1565;0;-226.5099;-245.4331;-3.032987;-9.123741;-229.3577;-227.3295;0.1157833;-0.3920339;0;
-112.7991;0;-122.6469;-130.2443;-8.656017;-2.081488;-120.307;-119.7176;0.4405037;-0.3266727;0;
468.5846;0;417.8297;415.5498;-10.72342;-0.9408084;450.9643;452.3652;0.3101263;-0.06647507;0;
687.6909;0;634.6757;600.9763;-10.04306;1.002642;670.2757;669.6138;0.5696841;0.06352641;0;
316.2487;0;301.5175;311.3303;-10.56884;1.80543;304.3483;303.5621;0.634079;0.3882993;0;
190.4315;0;182.1494;241.24;-4.328926;3.143274;176.2318;179.6317;0.3086052;-0.06686228;0;
101.5972;0;97.94615;139.9234;-1.176745;4.211721;89.03591;93.74429;0.3082951;-0.1967298;0;
-440.0451;0;-411.084;-393.824;-0.03648647;-6.576397;-444.5979;-439.8942;0.243018;-0.1315648;0;
-681.8562;0;-654.9856;-656.9833;3.848316;-9.717987;-686.4044;-679.7064;-0.1470303;-0.1963999;0;
-337.0316;0;-338.4237;-346.2915;2.639001;-11.51664;-346.4477;-340.5061;-0.2118499;0.2585689;0;
-213.5048;0;-211.3974;-232.7504;3.305934;-14.5193;-220.6002;-219.1623;0.1131997;0.3882437;0;
-120.3995;0;-121.1052;-132.4418;12.67974;-13.49997;-126.7381;-126.8009;-0.2117507;0.1929516;0;
465.9893;0;422.6807;409.2315;14.543;-14.55813;450.1619;450.4114;-0.6663094;-0.002144334;0;
702.1521;0;650.2039;602.5355;15.73384;-13.40479;683.4045;680.5929;-0.4707378;-0.1320769;0;
313.8289;0;299.3516;303.0178;17.86148;-13.52529;300.41;297.6637;-0.2103955;-0.002009468;0;
185.8278;0;177.7368;235.1847;8.130646;-6.746543;170.7982;172.6773;0.1146527;0.2578619;0;
110.3039;0;105.0321;145.8682;6.11372;-2.586944;95.66425;98.60342;0.2444721;0.1926355;0;
-430.5976;0;-401.5063;-387.8227;3.829426;-12.43059;-438.4759;-434.9775;0.3091938;-0.06742745;0;
-665.7964;0;-637.4841;-647.4897;0.2756045;-12.68603;-674.2916;-667.6733;0.4388178;0.1925097;0;
-331.3578;0;-332.8089;-346.6151;8.313279;-7.515722;-343.9673;-337.7928;0.3084422;0.3872183;0;
-214.9581;0;-214.971;-238.8833;9.846144;-6.905324;-225.3061;-222.6986;0.243165;-0.1978769;0;
-93.92787;0;-100.2501;-114.2683;5.147201;-3.817293;-105.8896;-104.6591;0.1129859;-0.2626454;0;
486.4373;0;436.0186;427.8241;5.878963;-3.277594;464.3677;465.3471;-0.341899;0.0624552;0;
690.7206;0;632.8564;599.3703;6.207849;-0.05924163;667.1115;664.7166;-0.2765881;0.1273598;0;
318.9631;0;295.3898;307.5394;5.665748;0.6106472;299.8754;297.9202;-0.08140816;-0.1976049;0;
202.3885;0;184.3986;241.5759;12.49158;-0.3277274;179.8217;183.7406;0.04860833;-0.3923084;0;
109.4818;0;91.44746;135.6363;13.88653;0.54338;87.31247;93.16393;0.1135268;-0.06707746;0;
-428.9202;0;-419.6376;-394.6085;10.85846;-10.10721;-442.8838;-436.1012;-0.08148927;-0.06701006;0;
-663.1212;0;-646.9139;-652.4572;11.18234;-13.44608;-676.6335;-667.5464;-0.1463747;0.1279593;0;
-326.3739;0;-332.6091;-348.7664;3.467949;-10.35147;-343.121;-336.4792;-0.08126031;0.5176348;0;
-206.2311;0;-213.5845;-237.0969;-0.5540232;-11.27883;-218.5262;-217.2634;-0.08117866;0.1273106;0;
-111.3215;0;-123.79;-136.3467;6.010617;-10.73164;-124.1039;-124.5916;0.2437396;-0.1326867;0;
467.8118;0;409.7538;404.2061;6.33937;-10.38594;443.7354;443.3732;-0.081342;0.06234866;0;
702.3486;0;635.3535;600.6385;-4.786411;-6.892391;675.4229;672.9371;-0.08126027;0.06228602;0;
318.8353;0;289.6385;298.1243;-8.666368;-5.880843;296.8091;294.8881;0.3086254;-0.06771126;0;
186.4563;0;163.5982;222.7375;-2.227298;-0.7173703;161.8286;166.4687;-0.3413581;-0.1326106;0;
107.0588;0;82.28709;132.0591;-3.631579;1.895685;82.70569;90.40206;-0.4059824;-0.262412;0;
-433.7145;0;-429.0386;-399.8688;-2.824623;-3.799647;-449.1726;-442.6084;0.04919689;-0.002278956;0;
-670.0972;0;-654.494;-656.6502;-2.218573;-4.465659;-683.041;-675.0466;-0.3406566;0.6473967;0;
-330.4693;0;-336.6208;-347.1456;-10.32067;-7.341316;-346.7109;-338.9119;-0.470249;0.3219095;0;
-211.4469;0;-221.9025;-238.1639;-11.85152;-10.54912;-226.4853;-222.6921;-0.01500509;-0.26312;0;
-100.665;0;-119.2935;-124.8565;-16.12651;-9.734725;-118.4994;-116.2718;0.179912;-0.06795359;0;
477.4581;0;418.9308;416.6219;-19.92773;-12.5381;450.4588;452.4967;-0.4049748;0.06204938;0;
692.9323;0;632.8397;599.6735;-11.46859;-12.19059;666.7722;666.8091;-0.3396006;0.1919217;0;
318.3615;0;297.8094;309.3416;-10.65278;-12.24533;298.2871;299.6983;0.3104141;0.3216636;0;
193.5417;0;178.2576;239.7531;-13.12032;-21.87832;171.1137;177.5209;0.3101022;0.1914057;0;
99.89419;0;90.31009;135.8143;-10.96369;-23.53091;79.55017;87.20035;-0.08001347;0.126246;0;
-439.0603;0;-408.2176;-391.1198;-16.11023;-24.04313;-449.5763;-442.4336;-0.2098678;0.1910865;0;
-667.6915;0;-635.443;-643.2874;-15.22339;-25.15768;-676.8851;-668.5002;0.3100818;0.3857965;0;
-328.1284;0;-329.8328;-340.7303;-13.66785;-15.62107;-341.2484;-334.6209;0.1148683;0.2554742;0;
-204.3608;0;-206.5632;-228.2568;-13.72147;-12.12226;-215.9683;-214.2201;-0.1451165;-0.1345866;0;
-99.45808;0;-107.0306;-117.7079;-2.520919;-10.43563;-113.1153;-112.9931;0.1148987;-0.264386;0;
479.2885;0;428.6828;416.5794;-0.3749323;-7.209962;456.3371;456.7091;-0.2750208;0.06071633;0;
707.5669;0;651.5148;601.7551;4.64831;-4.054642;684.0139;682.1992;-0.2097772;0.3854921;0;
320.3003;0;304.3468;305.424;7.792448;-1.706165;303.3301;302.829;-0.01466436;0.4500721;0;
185.6084;0;178.9789;236.9639;-0.4544051;-2.37428;168.9677;173.9019;-0.2095516;0.3196851;0;
108.4606;0;107.335;149.5197;-0.8560901;-2.170945;93.89811;100.514;-0.3392758;-0.1354075;0;
-430.3776;0;-392.2718;-380.3643;-8.959555;-3.508423;-435.6176;-429.0084;-0.1440328;-0.2652061;0;
-666.3887;0;-626.5722;-641.4757;-11.69722;-4.308692;-669.3747;-662.2099;0.2459159;0.2547991;0;
-323.1414;0;-318.4097;-333.0483;-15.10172;-7.385456;-330.3722;-325.9007;-0.01420053;0.3844778;0;
-200.6281;0;-197.3379;-220.4576;-19.3061;-8.650711;-205.8526;-206.6331;-0.0791536;0.3191241;0;
-90.6067;0;-93.37931;-107.2304;-5.086808;-11.25423;-96.38821;-99.854;0.1807953;0.3188034;0;
482.134;0;436.4482;427.7335;-2.603451;-13.72129;466.7381;464.3378;-0.01428839;-0.1362883;0;
693.7929;0;643.6553;601.0914;-2.266042;-6.138555;676.7259;673.5783;-0.2091761;-0.1361514;0;
316.7225;0;303.1794;307.0099;0.4829011;-4.658884;305.3572;302.9625;-0.1439985;-0.07104722;0;
188.1562;0;181.998;239.4227;-0.4555892;-7.132449;176.7399;179.1576;-0.01391916;-0.3308452;0;
96.01335;0;91.29814;136.4213;1.889393;-5.852729;87.4196;90.70946;0.2459642;-0.07064339;0;
-441.3755;0;-415.4139;-391.5754;-7.959118;-9.128889;-441.0901;-438.2408;0.1807497;-0.2005071;0;
-670.2543;0;-637.0099;-642.9304;-11.0316;-10.19144;-669.5319;-664.7489;-0.404138;-0.5251423;0;
-325.5038;0;-320.4037;-335.8135;-1.241255;-4.554759;-330.0919;-326.8755;-0.2737972;-0.06984327;0;
-198.6153;0;-197.3309;-220.7212;0.7023752;-2.741643;-202.1993;-202.9217;0.1162819;-0.1997078;0;
-97.15414;0;-99.93153;-112.3038;-3.652587;-8.298349;-101.6716;-103.2678;-0.07873693;-0.3294418;0;
477.7171;0;432.9011;419.042;-2.778261;-8.959841;464.9583;462.864;-0.1436252;-0.1342087;0;
696.9391;0;647.608;599.8423;1.243995;-3.726291;684.6304;680.4143;-0.01354616;-0.06910655;0;
304.3109;0;293.385;299.0155;1.711259;-2.047974;298.3239;295.4863;-0.1434672;0.1258649;0;
177.5061;0;169.4648;229.3749;10.61815;-3.452557;168.9015;171.0642;-0.07835573;0.1907058;0;
103.9272;0;98.20529;141.7509;13.35415;-2.779259;96.20576;99.61568;-0.01330966;0.2554815;0;
-439.5291;0;-404.8281;-388.6875;9.723404;-0.2312369;-437.4352;-434.5285;-0.01329629;0.3851595;0;
-681.4032;0;-643.0514;-653.3512;10.31685;0.03692718;-678.1245;-672.9718;0.1166518;-0.1349663;0;
-336.3916;0;-333.3106;-345.6616;2.804392;3.787934;-337.8013;-332.7787;0.1815019;-0.004895963;0;
-210.9914;0;-209.7251;-231.309;-0.07881439;4.922716;-210.2758;-209.4437;0.05138483;0.3199457;0;
-104.9576;0;-108.1279;-118.8205;-1.01674;0.6979669;-105.9919;-106.3475;0.1812679;-0.2650819;0;
475.1688;0;430.2727;424.026;-3.360243;0.1614021;465.2026;465.2846;0.3110204;-0.3947502;0;
684.7733;0;636.0492;599.9489;-3.959103;-3.723648;674.4423;672.9;0.4406426;-0.1344842;0;
296.4675;0;285.7109;297.1854;-5.295272;-6.198153;290.5197;290.7906;0.5051672;-0.004414394;0;
176.2299;0;171.3561;232.1693;-2.744356;-5.053337;168.4765;172.6826;0.1148555;0.1255247;0;
88.59679;0;86.85136;132.8608;-2.87532;-6.588745;82.3504;87.05209;-0.3400313;0.06043126;0;
-452.8451;0;-415.3585;-397.6311;-0.1267406;-5.443537;-450.0273;-445.5802;0.2450165;0.2552726;0;
-684.0861;0;-639.7032;-650.1044;0.5439481;-5.170135;-679.2722;-673.2678;0.569607;0.1250814;0;
-347.3802;0;-334.7758;-347.1032;0.007538072;-8.580948;-346.3816;-341.5077;-0.2755408;-0.004978989;0;
-217.1589;0;-206.3788;-227.5643;1.346701;-8.974223;-214.1623;-213.4787;-0.470166;-0.004973986;0;
-99.56219;0;-94.04034;-102.9607;-6.357811;-7.69253;-98.6301;-99.19659;-0.07988948;-0.394773;0;
477.123;0;438.9113;428.8755;-7.288452;-7.21592;468.9962;468.3679;-0.2097439;-0.06953966;0;
695.6585;0;652.6751;603.0443;-7.482199;-6.337892;688.2271;684.8507;-0.3394678;0.450269;0;
306.7796;0;303.507;307.5241;-7.876823;-5.058969;305.7899;302.9792;-0.1442247;-0.1998569;0;
172.976;0;175.6411;237.3127;-2.912415;-4.91992;170.0507;172.0529;-0.07911244;-0.3945581;0;
94.96631;0;100.19;144.4333;-1.636691;-4.111182;92.73112;96.60532;-0.1440003;0.3854465;0;
-446.6069;0;-405.7189;-386.3825;6.938769;-0.2891456;-440.0943;-435.6617;-0.1438556;0.4500265;0;
-686.8497;0;-640.5056;-648.2375;10.95028;1.117786;-679.2191;-672.2924;-0.2736457;0.1247376;0;
-338.0845;0;-320.9597;-336.6174;10.2697;1.71951;-335.584;-329.3513;-0.2733708;0.1246123;0;
-211.1834;0;-198.6985;-222.3365;11.79962;2.320628;-206.7489;-205.8948;-0.3380634;0.3843564;0;
-108.5852;0;-101.7975;-113.2928;11.18553;3.925887;-104.5924;-106.4253;-0.2727564;0.5788723;0;
472.5444;0;439.2829;425.3004;10.63842;5.395445;467.1003;466.7061;0.1173217;0.2534539;0;
692.5837;0;653.671;603.9081;5.068028;-0.9731113;685.6459;683.8777;0.5070079;0.3181666;0;
302.2087;0;299.4419;303.7643;1.110821;-1.708946;300.4627;298.7588;0.4415311;0.3828142;0;
171.4706;0;172.5172;233.9315;1.913988;-0.03277727;167.8523;171.6474;-0.01368395;-0.1373092;0;
88.77726;0;92.50895;137.2449;-0.2313887;-0.367659;85.97475;91.14027;-0.2085722;-0.07220389;0;
-448.7293;0;-405.8336;-390.7526;-7.934316;4.92424;-442.596;-438.9349;-0.27333;0.187738;0;
-681.4113;0;-633.9359;-644.7946;-10.67203;6.526883;-673.2851;-667.941;-0.3380227;0.1225821;0;
-342.7714;0;-329.1393;-340.9866;-12.67104;8.261881;-338.7764;-334.1248;0.1170883;-0.00747581;0;
-218.177;0;-208.5565;-227.7007;-15.07018;9.19134;-212.2494;-211.7255;-0.01296399;-0.332305;0;
-101.7661;0;-98.902;-107.3448;-9.093194;11.72733;-97.84353;-98.19468;-0.207853;-0.3969384;0;
479.2941;0;438.3024;427.8691;-7.811259;13.12219;473.1553;473.804;0.1171926;-0.2666049;0;
692.8299;0;647.1943;602.2263;-7.870759;6.142904;686.3849;684.9091;-0.07782721;-0.3313044;0;
309.2637;0;300.7803;310.0802;-6.05419;4.596124;308.0726;306.7856;0.05218568;-0.1360694;0;
180.8923;0;175.166;241.2406;-6.316526;2.850071;176.2666;179.6036;0.1171006;0.1239367;0;
92.3175;0;88.65842;138.6122;-5.037382;1.239617;88.19621;93.02908;-0.4027558;-0.006122577;0;
-449.9402;0;-422.7986;-396.6331;-7.309496;1.037423;-445.0619;-440.6087;-0.1424818;-0.2010185;0;
-687.1812;0;-667.3132;-657.2285;-8.574949;0.4335341;-680.2463;-673.9235;0.1824981;-0.07088178;0;
-341.8514;0;-350.9888;-346.5988;-4.480496;0.901979;-339.0464;-332.8549;-0.07755462;0.4489282;0;
-209.8241;0;-209.0198;-228.2474;-5.34665;-0.3716031;-205.7101;-204.2724;-0.142444;0.3835098;0;
-102.9794;0;-104.05;-115.8244;-3.801036;9.073242;-101.0559;-101.931;-0.1423009;-0.071647;0;
475.7083;0;430.3485;420.8347;-2.72549;11.60935;466.9477;466.6357;-0.07719059;0.05835968;0;
698.3057;0;646.4948;601.2585;-14.3097;5.770296;687.9921;684.9318;0.2477237;-0.07163364;0;
308.2997;0;293.6472;301.5547;-17.30943;6.233378;302.9315;300.499;0.3774095;-0.2014963;0;
177.6804;0;168.6648;233.0984;-15.88552;-0.5380388;169.694;172.0115;-0.01277382;0.1885102;0;
101.9773;0;93.78287;144.3462;-17.94664;-3.015745;94.74857;97.81335;-0.4675324;0.3832228;0;
-436.9168;0;-414.306;-384.9079;-14.44501;-2.476851;-435.1428;-431.8313;-0.3371279;0.1879357;0;
-676.9819;0;-647.7722;-645.5774;-14.63156;-4.081953;-673.2107;-667.2788;-0.1418871;-0.2020572;0;
-338.7214;0;-330.7803;-340.0195;-9.191853;-3.742936;-338.3272;-333.8381;-0.4665813;-0.1368868;0;
-213.1315;0;-205.7606;-227.047;-5.364223;-5.145817;-210.6138;-211.2516;-0.3361778;0.1880874;0;
-98.53731;0;-97.85797;-108.066;-16.27717;2.763217;-98.27106;-100.1575;-0.2059053;0.05796374;0;
483.0194;0;441.8441;429.8347;-17.80106;5.908517;473.0406;472.093;-0.4006004;-0.007061842;0;
696.3641;0;649.8578;602.2535;-10.61588;-3.072889;684.5212;681.9504;-0.2052959;0.1878473;0;
309.8583;0;302.5042;310.9195;-10.47149;-3.739631;303.4621;301.3312;0.3796165;0.05772385;0;
183.0481;0;183.6348;249.138;-7.112064;-1.726385;176.221;178.7773;0.379235;-0.4620729;0;
94.22119;0;98.99274;146.8764;-4.961464;-2.796377;89.08762;93.57793;-0.3357868;-0.6565106;0;
-445.1024;0;-403.979;-384.3792;-8.305381;-0.5162699;-441.1104;-437.0619;-0.2055147;-0.1361122;0;
-677.6631;0;-629.2096;-639.677;-6.689445;-0.9845096;-670.989;-665.5702;0.3144305;0.05892657;0;
-341.7132;0;-323.1059;-339.06;-9.495763;-0.7157107;-338.9813;-334.0052;-0.4654935;-0.006099983;0;
-216.5576;0;-202.6542;-226.6507;-9.62092;-0.1791281;-211.5171;-210.3566;-0.4000584;0.1888082;0;
-107.6446;0;-98.62772;-111.2933;-3.515684;-6.207168;-103.4837;-103.6363;0.1850496;0.05868377;0;
472.6719;0;440.3255;424.1744;-2.641495;-7.406624;466.5838;466.8062;0.05492901;-0.006342535;0;
699.5202;0;661.2094;604.2825;5.399111;-8.069011;692.1263;690.412;0.1198412;-0.0713035;0;
307.9513;0;305.0361;305.4502;9.278452;-9.400561;305.8122;305.4739;-0.1401486;0.05870283;0;
174.1465;0;176.2317;238.4268;4.581056;-5.77416;169.9481;174.3577;-0.1400078;-0.07129084;0;
101.0082;0;104.3407;151.3559;5.848274;-5.299477;98.62557;104.2802;0.1849696;-0.2011539;0;
-444.0694;0;-410.318;-386.401;3.096708;-3.887511;-437.5166;-432.4924;-0.0101183;0.123885;0;
-687.7505;0;-647.4113;-654.1904;1.486006;-3.079809;-680.5171;-674.436;0.1198266;-0.07114157;0;
-340.2338;0;-324.7352;-342.6893;7.914874;-3.746544;-337.1931;-331.8052;0.2496408;-0.006102744;0;
-209.8323;0;-199.4092;-223.9045;9.781956;-4.278643;-205.108;-203.5985;0.3143573;0.2537728;0;
-96.11598;0;-92.51247;-103.4899;0.6624476;-5.413054;-93.27047;-93.76157;0.1191394;0.05861574;0;
481.6277;0;446.3722;433.6566;-1.816464;-7.216032;476.3495;476.1712;-0.205817;-0.2662799;0;
692.4126;0;652.3824;602.8231;8.701559;-9.553184;686.7648;684.5253;0.1192265;0.0588244;0;
308.472;0;303.7143;306.9908;10.6352;-11.352;306.0158;304.6531;0.05413939;0.1237326;0;
179.2893;0;178.9716;238.4041;5.601646;-16.43118;174.1494;176.7861;0.1190523;-0.2012284;0;
84.34431;0;88.39976;130.5312;5.126527;-17.95527;81.5834;84.77959;0.5087368;0.05884316;0;
-452.4706;0;-411.188;-397.5846;6.862689;-23.69764;-446.2333;-442.4781;0.1184215;0.1887187;0;
-677.2778;0;-632.1636;-646.997;6.31993;-26.48699;-670.2346;-664.7341;-0.4014362;-0.1363076;0;
-338.9545;0;-325.8695;-344.4362;6.51465;-19.22647;-336.4161;-331.9206;-0.07619612;-0.1361707;0;
-208.7417;0;-200.2925;-226.774;7.111316;-19.0062;-204.4567;-204.1511;0.3786518;0.0588682;0;
-92.65266;0;-91.27095;-108.1682;-1.402295;-11.55212;-90.93326;-93.25164;0.118402;0.1237764;0;
480.6523;0;440.0537;422.9861;-4.549695;-7.253723;472.375;471.2458;-0.2065537;0.05868467;0;
694.9988;0;649.5685;600.9714;2.421102;-14.01159;686.7299;683.4155;-0.07641146;0.1885604;0;
303.5594;0;294.0942;300.4558;2.954533;-12.52388;299.6716;295.9232;-0.141302;0.3183056;0;
171.6331;0;167.4247;228.1276;0.3395959;-12.37733;163.1889;165.8786;-0.2061274;-0.006850935;0;
99.6842;0;96.79189;142.6912;0.6740473;-11.29317;93.12256;97.37124;0.1189165;-0.3316807;0;
-438.8953;0;-416.7348;-384.1874;0.606021;-10.47815;-434.1435;-431.1485;0.2487316;-0.1364455;0;
-683.8309;0;-659.3813;-650.7297;0.2042466;-10.19969;-677.8346;-672.1564;0.118547;0.05859366;0;
-334.5691;0;-327.8851;-339.5445;3.218151;-2.754458;-333.3888;-329.2155;-0.01150677;-0.07139989;0;
-200.6125;0;-192.7484;-216.4525;3.616083;-0.7422026;-198.309;-198.7002;0.3133415;-0.006360808;0;
-96.52568;0;-96.16569;-105.9154;1.804765;4.215158;-97.28545;-98.36338;0.572896;0.253515;0;
479.7192;0;440.0365;426.4859;1.802951;7.894862;469.8398;468.7629;0.1825163;0.1882929;0;
695.0037;0;650.3009;603.5931;-3.156329;-0.9545739;685.0093;681.8721;-0.07753643;-0.2017004;0;
307.2499;0;299.5734;307.3852;-5.496706;-3.231035;301.2635;299.3164;-0.01249118;-0.006595678;0;
180.0675;0;177.4586;241.4219;-3.950942;4.341161;170.0891;173.2663;-0.1424133;0.578117;0;
92.93026;0;93.0102;141.5419;-5.353492;5.274438;83.3992;88.75961;0.1175992;0.4476015;0;
-444.9553;0;-411.7046;-389.9583;-6.152396;-4.577108;-445.8561;-440.8759;0.1824483;0.05734764;0;
-671.644;0;-636.6776;-642.5643;-7.284314;-7.184721;-671.7943;-665.5073;-0.01263702;-0.07264466;0;
-337.2619;0;-328.38;-342.1318;-6.473687;-5.168137;-341.0977;-335.754;-0.01262433;0.3821997;0;
-215.9213;0;-208.6726;-231.0312;-5.796621;-7.172309;-216.7548;-216.289;-0.1425463;0.1219463;0;
-95.38985;0;-97.83102;-105.9243;-14.16354;-3.280215;-98.53379;-99.06797;-0.2073704;-0.2030129;0;
482.8529;0;439.4348;430.2252;-17.69928;-2.674072;469.7171;469.8706;0.1176746;0.5767992;0;
695.6355;0;648.7628;601.2692;-8.84024;-3.810095;682.0757;679.1056;0.1825237;0.2513829;0;
305.1325;0;296.7875;301.0031;-8.898705;-1.662813;296.7711;294.4287;0.1823403;-0.1386738;0;
171.1431;0;169.1783;230.7359;-11.50173;-7.421552;160.3539;163.1987;0.3770592;0.1863023;0;
96.69594;0;95.73262;143.8601;-10.75324;-6.945214;86.79214;91.57066;-0.2729931;-0.3336236;0;
-438.9445;0;-409.797;-381.8328;-18.24452;-5.531594;-439.7804;-434.6319;-0.7274902;-0.2683211;0;
-677.7582;0;-647.7029;-644.2545;-19.23057;-6.53078;-677.0316;-670.389;0.05284886;-0.008182088;0;
-331.4384;0;-326.7132;-335.1372;-21.62312;6.336139;-334.7105;-329.2615;-0.01217158;-0.59288;0;
-205.481;0;-199.0114;-221.8573;-23.94592;8.473227;-206.376;-204.8055;-0.5318981;-0.1375128;0;
-102.8885;0;-101.4229;-112.7516;-13.07087;11.81374;-104.907;-104.65;-0.07659224;0.3823641;0;
480.1718;0;440.1568;424.7166;-10.51214;15.55279;468.5352;468.2298;0.1183867;0.05714317;0;
705.076;0;659.6041;603.6372;-10.90372;0.2654186;692.4516;689.8351;0.05330045;-0.007881584;0;
318.5615;0;309.6169;312.1769;-8.81568;-2.481026;310.2601;309.3954;0.1831816;-0.267743;0;
185.7455;0;181.5575;246.0213;-9.208963;-5.827558;175.1411;179.0874;-0.2068065;-0.1375393;0;
92.66806;0;94.23135;139.3276;-8.663847;-10.44352;84.2607;89.07756;-0.01169671;0.2524029;0;
-444.2177;0;-408.1109;-386.798;-9.726868;-6.146123;-443.059;-438.3719;0.1832171;-0.1376547;0;
-667.3465;0;-634.5868;-633.2228;-10.18561;-8.48435;-665.002;-658.8204;-0.2067711;-0.2674511;0;
-332.4065;0;-328.1653;-337.0476;-13.25683;-4.523954;-334.7495;-330.1982;0.1182734;0.187589;0;
-208.7594;0;-202.586;-228.3884;-15.1859;-4.452425;-210.163;-210.1766;0.4429913;-0.1374362;0;
-91.04625;0;-91.7506;-104.596;-13.76412;-6.457318;-94.38496;-95.83528;0.1177094;-0.3322001;0;
483.5689;0;442.5731;428.6786;-14.2188;-5.847983;471.3006;470.7263;-0.2722129;-0.07199693;0;
699.037;0;653.0848;601.7856;-14.13814;-14.68373;685.0319;683.4586;-0.3369067;-0.3967613;0;
313.4656;0;304.2911;308.6405;-12.71742;-16.54438;303.8473;302.7754;-0.01173148;-0.1364933;0;
175.4073;0;173.8008;236.3666;-17.46006;-19.54199;165.3614;169.0382;0.05324765;0.643252;0;
93.02241;0;89.04366;139.9899;-18.71531;-21.79965;84.04857;89.97054;-0.0117732;0.2528016;0;
-441.365;0;-421.4767;-390.0094;-9.252037;-17.08906;-444.0829;-439.4788;0.3780427;-0.2022238;0;
-680.0513;0;-662.6193;-654.4844;-7.836221;-16.87094;-683.5162;-677.5423;-0.01214123;-0.007118599;0;
-328.6693;0;-334.743;-339.1725;-4.814237;-10.42387;-336.5034;-331.7225;-0.5968351;0.1228233;0;
-203.5268;0;-197.9128;-223.1398;-1.929011;-7.131233;-207.5425;-206.9517;-0.2064313;0.05773248;0;
-115.1791;0;-110.945;-125.9019;-9.965025;-7.994846;-118.3787;-118.9754;0.05364544;-0.07226021;0;
479.3254;0;436.8287;414.7654;-10.95939;-5.64241;467.4459;465.8503;-0.1413105;-0.137155;0;
716.2244;0;665.3372;603.7535;-11.41787;-7.177348;702.108;698.39;-0.2061358;-0.07204979;0;
312.5823;0;298.5402;303.9222;-12.74557;-6.701255;301.7909;299.8882;-0.07599403;-0.2668794;0;
180.522;0;171.8038;239.4616;-11.39359;-7.163403;166.9928;169.7147;0.3138864;-0.2016439;0;
99.6936;0;92.79576;142.3322;-11.58224;-8.227931;87.11502;91.64582;0.118669;0.3182974;0;
-443.3836;0;-418.7279;-392.2922;-11.3705;-3.865896;-447.5788;-443.1775;-0.2712543;0.4479123;0;
-668.5747;0;-642.507;-641.3976;-12.02866;-2.723301;-672.3284;-666.0574;-0.2060144;0.3175276;0;
-331.3221;0;-331.2675;-339.7794;-7.394876;-6.873384;-339.6947;-334.1172;-0.07587274;0.6420452;0;
-211.7366;0;-209.6206;-230.6177;-6.917955;-7.268376;-216.7899;-215.5284;-0.2057312;0.7063674;0;
-91.64664;0;-94.84258;-101.888;-6.777282;-6.055379;-96.88228;-96.55902;-0.6602958;0.1209516;0;
485.7178;0;441.6081;432.3833;-5.096509;-6.183261;471.9917;472.5645;-0.6596324;0.1857974;0;
697.7479;0;650.6841;600.9265;-17.01411;-5.373253;683.4109;681.9217;-0.2041982;0.4454801;0;
315.3012;0;305.2036;312.03;-19.87642;-5.50182;305.6013;305.1755;0.3157457;0.1201957;0;
182.4885;0;179.8348;245.3124;-18.24886;-2.68313;171.7363;175.6838;0.3803958;0.05510761;0;
95.34882;0;95.75876;145.0537;-20.97719;-1.273793;86.29414;91.17466;-0.009790482;0.1849869;0;
-441.0399;0;-416.58;-383.8263;-10.64098;-4.822608;-441.8397;-437.0265;-0.07474799;-0.01010098;0;
-675.4787;0;-650.856;-643.8723;-7.012969;-4.281899;-676.0278;-669.2829;-0.07467288;-0.4648622;0;
-327.4121;0;-324.3657;-335.4425;-13.43628;-6.554894;-334.0825;-328.8437;-0.1395652;-0.1395584;0;
-196.2114;0;-192.6059;-216.7274;-11.34668;-7.687017;-200.6262;-200.9524;-0.2043923;0.5102552;0;
-95.87707;0;-96.58551;-107.5644;-11.93751;-0.378276;-100.7872;-103.2995;-0.3341216;0.1199385;0;
483.6155;0;441.3662;423.5892;-12.32766;1.564487;468.6529;466.7054;-0.07391651;-0.2050187;0;
709.6407;0;660.8122;603.3231;-0.7273483;-0.04467529;694.3183;690.5612;0.4458965;0.05505662;0;
317.4995;0;309.1371;312.9875;2.488563;0.8931307;309.1264;307.0597;0.2505464;-0.07493339;0;
183.7475;0;183.8893;248.8925;1.815501;1.696028;173.9461;178.0034;-0.2044767;-0.2047928;0;
101.5416;0;103.6823;151.6912;5.229928;1.761307;92.87447;99.05163;-0.07433657;0.1202497;0;
-438.7889;0;-403.1672;-379.7567;-4.688313;1.491606;-437.8896;-432.7181;0.3805095;0.05516154;0;
-671.7307;0;-633.1463;-637.2455;-7.76506;0.08346532;-669.8328;-663.792;0.5100619;-0.3996653;0;
-334.35;0;-326.7263;-338.2552;3.898016;1.958904;-338.2011;-333.9779;0.444582;-0.3992637;0;
-214.3867;0;-209.082;-230.5942;4.898478;1.889952;-216.9221;-216.951;0.5091026;-0.0740258;0;
-97.54236;0;-96.80324;-106.2999;-0.66615;-5.34586;-101.4495;-101.8533;0.2487217;0.1209506;0;
486.6995;0;446.1461;431.9739;-1.938278;-6.948078;473.9882;473.1476;-0.3362343;-0.1390403;0;
701.6647;0;655.6548;602.2041;-0.1276696;-8.816619;688.279;684.8156;-0.2059617;-0.3338026;0;
315.341;0;303.86;310.3704;0.007156636;-9.611555;305.9042;303.5687;0.05411458;0.1862715;0;
187.9005;0;179.3047;244.7788;-5.217763;-9.802846;174.8501;176.8897;-0.01090714;0.5109211;0;
100.4431;0;96.85336;143.2088;-5.681035;-10.73064;89.34229;91.75468;0.1190385;0.1206037;0;
-443.3221;0;-408.2401;-389.1051;-10.56545;-1.543435;-444.4167;-443.4435;0.1838862;0.1204825;0;
-672.3862;0;-633.7789;-644.0858;-14.23853;0.1325668;-673.0425;-670.0089;0.1187341;0.1853288;0;
-328.2583;0;-322.8605;-338.6543;0.3778164;4.017444;-334.2862;-331.2556;0.2485495;-0.07472684;0;
-204.5529;0;-203.9707;-225.4957;3.391547;7.0945;-208.5134;-210.2334;0.1833324;0.1852176;0;
-92.96589;0;-97.69405;-106.5788;-2.506359;-3.093791;-97.23466;-100.1399;0.1831482;0.2499989;0;
487.3983;0;443.3822;427.0102;-0.8298775;-5.033187;475.1379;473.9222;0.1179968;0.05484562;0;
706.8605;0;657.8287;602.4927;-6.254051;-7.84129;694.5499;690.9617;-0.1419911;0.3146599;0;
315.6591;0;300.4095;306.7856;-7.654286;-11.38338;307.4838;303.2744;-0.07688108;0.05447434;0;
180.4097;0;170.048;234.4511;-5.235698;-10.90307;168.0572;169.3494;-0.01183649;-0.1404824;0;
98.26964;0;90.04229;138.8259;-6.770679;-12.96858;86.99152;90.71866;-0.3366613;-0.270276;0;
-441.8077;0;-417.668;-389.8604;-3.012831;-13.69236;-443.3294;-440.6679;-0.141421;-0.205037;0;
-672.3726;0;-639.1368;-644.5904;-3.411945;-14.54938;-672.3936;-668.5479;0.1185905;0.3149077;0;
-329.6814;0;-320.9042;-337.2844;-3.74331;-14.26683;-333.6378;-330.0459;0.248406;0.1196893;0;
-206.8493;0;-203.2033;-225.3765;-3.203685;-13.8506;-209.3649;-209.2124;0.5729931;0.05460167;0;
-89.82513;0;-94.05389;-104.0859;-11.908;-16.98476;-94.77454;-97.3083;0.3775153;0.3144162;0;
488.0997;0;442.396;430.5625;-14.10684;-18.30735;474.2847;471.0663;-0.2075701;-0.1406711;0;
700.5022;0;648.9724;601.981;-16.97208;-12.86346;686.1389;681.487;-0.1423942;0.1193396;0;
311.9933;0;298.3712;306.6492;-20.57235;-11.91277;302.1422;298.5569;0.247553;0.379089;0;
173.8116;0;169.3237;234.877;-13.51908;-16.38854;163.2207;164.2617;0.05240219;-0.07606328;0;
90.80358;0;90.13074;139.4389;-13.036;-17.17587;82.15988;84.69909;-0.0126178;-0.2059215;0;
-442.2697;0;-405.5857;-385.4375;-14.16198;-18.3643;-441.9093;-439.7474;0.2472642;-0.07577994;0;
-673.209;0;-628.9407;-637.8606;-12.40644;-20.15439;-670.4127;-666.0042;0.1170811;-0.2706058;0;
-327.3936;0;-315.466;-328.8122;-16.74725;-18.99543;-328.3481;-324.6312;0.1819308;-0.2703339;0;
-201.3778;0;-195.2093;-217.725;-16.12819;-19.44522;-199.8951;-201.5542;0.4416174;-0.01019292;0;
-90.16875;0;-90.81551;-100.3151;-17.25008;-23.9804;-90.06187;-94.03062;0.3762063;0.1847194;0;
492.6914;0;448.8795;434.0796;-18.77299;-25.29596;482.3659;478.5261;-0.2738451;0.4444031;0;
707.5881;0;659.8847;603.0583;-7.769415;-23.72994;696.8982;690.8758;-0.5984067;0.3140219;0;
312.263;0;304.5249;307.8504;-5.886574;-23.17023;307.3934;301.9393;-0.4029034;-0.141065;0;
180.6402;0;179.6565;243.3233;-6.683967;-24.75454;173.714;173.3254;-0.5974005;0.1189461;0;
103.7472;0;106.7626;151.5624;-5.539151;-24.52872;98.01495;99.37579;-0.07706157;0.3786959;0;
-434.399;0;-392.8436;-376.3871;-11.36073;-20.35113;-431.8173;-429.8331;0.1828852;0.1184461;0;
-669.5317;0;-623.0205;-634.3166;-13.02426;-19.25907;-665.1409;-661.0972;-0.2071026;-0.2065097;0;
-323.0327;0;-310.4888;-323.3352;-17.56552;-12.7425;-322.0197;-319.9791;0.1179422;-0.2063022;0;
-199.7699;0;-192.2361;-212.6908;-20.69571;-8.442909;-196.5715;-199.1557;0.1178237;-0.0761602;0;
-97.18318;0;-95.21658;-104.5313;-21.94771;-15.33342;-94.98745;-98.81837;-0.2720987;-0.01111633;0;
481.686;0;441.0471;429.7427;-24.53762;-14.38038;474.6342;471.5568;0.1179787;0.1837969;0;
699.4673;0;653.6218;603.0361;-19.95862;-11.3517;691.1108;686.912;0.05289284;0.2485795;0;
310.772;0;303.3908;310.3894;-17.99618;-10.40253;307.5463;303.789;-0.07709499;-0.1414743;0;
179.9629;0;177.5865;244.6729;-22.5998;-6.507189;174.6789;174.9234;0.1178845;-0.01139746;0;
93.95018;0;94.38733;142.4158;-21.03685;-5.294958;88.79645;91.03967;-0.2070706;0.3134507;0;
-442.3122;0;-406.7682;-385.3995;-18.26904;0.4037902;-439.6522;-437.9734;-0.07692791;-0.1416357;0;
-669.4409;0;-632.121;-637.7602;-16.97789;3.015597;-666.2213;-664.107;-0.01188327;-0.5962647;0;
-329.3763;0;-325.0773;-336.8328;-7.985847;-0.8053384;-332.2819;-330.9818;-0.2067734;-0.4007636;0;
-203.421;0;-205.4981;-225.6751;-5.231156;-1.474359;-206.2612;-208.8979;0.1182711;-0.07552417;0;
-85.4633;0;-94.65974;-103.3847;-2.747653;-1.606843;-89.98731;-93.18358;0.248087;-0.01048095;0;
491.0203;0;442.1656;429.5139;-1.069953;-4.016614;477.9427;476.3738;-0.01203168;0.3143663;0;
701.9207;0;650.304;601.1208;-4.351408;-4.414475;689.356;685.7272;-0.2718889;0.3140504;0;
312.5982;0;301.0133;307.8514;-4.81555;-6.218457;306.168;303.4175;-0.07671373;0.1838002;0;
175.9152;0;168.7771;233.9541;-12.11173;-12.10658;167.43;169.4298;-0.01166931;0.4434849;0;
92.28039;0;85.14949;136.1431;-14.64515;-13.30011;84.49084;87.67556;-0.3364943;0.05323519;0;
-441.7939;0;-413.6229;-389.0423;-20.99345;-23.66886;-441.6421;-438.3982;-0.01131948;-0.01178564;0;
-673.6083;0;-643.5915;-646.5218;-25.92885;-28.60169;-673.3317;-668.7791;0.1835939;0.4429976;0;
-322.1078;0;-325.4794;-334.1538;-16.52567;-15.77946;-327.4536;-325.217;0.1184421;0.1826831;0;
-195.1603;0;-200.2776;-221.0623;-16.37535;-14.75886;-199.4388;-202.0145;0.2482578;-0.2073045;0;
-98.32524;0;-107.4979;-118.6415;-14.48288;-13.40449;-103.7239;-107.9837;0.183041;-0.4019982;0;
479.7955;0;429.5277;417.3333;-11.11943;-10.7117;466.7186;462.0259;0.2478244;-0.2066923;0;
702.8885;0;648.3609;602.3833;-16.9354;-14.18405;689.9497;683.2627;0.1176407;0.4431888;0;
308.1928;0;291.451;302.7408;-15.04335;-12.76316;299.8897;295.2708;-0.01241218;0.3128088;0;
168.5157;0;159.9741;227.7242;-17.10434;-15.02763;158.6592;159.6672;-0.2722691;-0.4671136;0;
86.5125;0;83.28933;135.2292;-18.22623;-14.87857;79.60193;81.85826;-0.4668975;-0.4016769;0;
-446.2442;0;-417.7925;-389.6429;-4.610261;-14.52882;-443.6526;-441.8358;-0.07662433;0.1184655;0;
-674.3684;0;-642.6345;-642.4991;-2.061009;-15.3179;-671.467;-666.841;-0.1415147;-0.01158827;0;
-328.3019;0;-322.212;-332.384;0.687728;-9.274288;-330.6508;-325.967;-0.3362745;-0.271446;0;
-202.0978;0;-197.6382;-219.3567;4.103289;-9.131003;-202.8202;-202.8886;0.05386743;-0.2062059;0;
-85.07845;0;-87.18254;-97.63486;-7.020245;-2.222708;-87.48676;-91.11586;0.0538133;-0.07606402;0;
495.3403;0;451.8841;435.4453;-10.16102;1.59743;483.0644;477.9397;-0.2061101;0.1838818;0;
698.5527;0;651.0797;600.2372;-5.596462;-10.92962;685.1647;679.1081;-0.1409357;0.1187297;0;
311.1077;0;300.0392;310.9667;-6.193075;-11.58846;302.8556;298.2419;0.24901;-0.141259;0;
185.608;0;179.2982;245.8119;-16.03346;-14.65791;174.9904;173.6921;0.2487598;-0.1411171;0;
96.46625;0;91.662;144.9904;-19.36626;-17.38948;87.85823;87.87314;-0.0763269;0.05392676;0;
-443.5468;0;-420.5477;-383.0149;-14.7251;-9.200338;-441.7139;-441.1992;0.2485865;-0.07606211;0;
-674.7972;0;-648.0106;-636.8148;-15.04509;-9.124111;-669.6553;-667.1422;0.3133041;-0.4657897;0;
-326.1065;0;-318.4622;-324.644;-13.69081;-1.479011;-324.1557;-321.9575;-0.2067495;-0.4003544;0;
-201.9036;0;-193.0801;-216.497;-13.00649;2.474346;-198.7054;-201.0696;-0.1415744;0.05481931;0;
-100.1268;0;-100.2452;-111.0824;-10.91731;-4.762053;-99.49301;-104.2286;-0.01149746;0.05476422;0;
484.6174;0;440.3963;425.5721;-10.23676;-4.08756;474.506;470.2749;0.05348143;-0.01025814;0;
706.0189;0;655.4705;602.7427;-8.150369;-3.815521;693.7313;687.5054;0.118395;0.1196869;0;
310.9453;0;298.366;303.8495;-5.998725;-3.208841;302.1682;297.198;0.1832434;-0.07533544;0;
177.1374;0;168.8812;234.204;-15.36982;-6.688607;165.2457;165.5903;0.507896;-0.07525975;0;
97.31197;0;92.68719;140.0159;-16.7609;-8.35646;87.93096;88.27524;0.5073857;0.1197179;0;
-438.579;0;-410.9029;-388.4842;-17.41364;1.096286;-439.5798;-439.4857;0.3119738;-0.1402718;0;
-670.2716;0;-649.5573;-644.4025;-20.41025;2.903724;-671.084;-668.1165;0.246693;-0.2050982;0;
-328.7695;0;-335.1248;-338.7833;-8.065861;2.230977;-333.3291;-332.3636;0.0515431;-0.009990045;0;
-204.7513;0;-202.9794;-226.5616;-4.574156;3.300462;-207.5573;-210.8405;0.181426;0.184922;0;
-90.85269;0;-94.32993;-105.1449;-12.27272;2.158436;-94.09312;-97.9978;0.1162764;0.3796383;0;
486.8857;0;440.621;428.2552;-11.38973;1.553421;475.2153;470.6898;-0.2736445;0.1843548;0;
700.4764;0;646.7619;600.1133;-8.765342;0.6142206;686.5063;679.4243;-0.2084022;0.2491369;0;
320.4008;0;301.7851;313.4041;-7.283642;-0.2571747;310.7551;304.3672;-0.3381275;0.3138539;0;
190.394;0;178.2314;244.5611;-9.75457;-4.543702;178.5716;176.563;-0.4027551;-0.2062002;0;
99.31088;0;90.40882;138.2437;-11.35236;-6.347675;87.81272;87.61771;0.1823557;-0.2709604;0;
-439.8304;0;-411.8046;-394.1277;-0.4226122;-7.413024;-443.0087;-443.1411;0.5719765;-0.3356555;0;
-675.0825;0;-644.6486;-653.2262;1.721266;-8.678251;-677.1332;-675.4538;0.246565;-0.4002855;0;
-330.5146;0;-333.1571;-344.912;-4.24231;-5.119436;-336.7486;-336.6326;-0.4033561;0.1198554;0;
-200.0604;0;-203.1375;-226.7496;-4.639213;-3.573807;-204.1642;-208.7335;-0.2080488;0.1847023;0;
-96.84863;0;-103.9207;-116.3272;-9.658394;-4.039096;-102.2601;-107.5745;0.2469316;-0.2702547;0;
487.8923;0;438.0364;418.7083;-12.6628;-2.427447;473.4908;468.9939;-0.01318584;-0.3349504;0;
716.1621;0;661.796;603.382;-11.04248;0.1203433;700.9629;694.7839;0.1817294;0.1851248;0;
318.0172;0;300.3749;306.3622;-11.6346;1.191827;306.4565;301.3457;0.3114815;0.2499062;0;
181.766;0;168.5142;235.2775;-18.58914;6.147245;166.8436;166.6729;-0.2735375;-0.4000184;0;
100.6241;0;88.38507;138.9644;-20.98136;7.949607;87.09098;88.73205;-0.4031974;-0.4645838;0;
-442.9538;0;-428.5065;-395.1568;-14.9994;5.463373;-446.9781;-445.3387;-0.4677596;-0.009345558;0;
-671.3312;0;-655.4616;-646.1334;-14.44847;5.658832;-672.7903;-668.9661;-0.2074202;-0.3341729;0;
-327.8915;0;-331.6529;-337.5765;-11.21877;1.098307;-331.9727;-328.902;-0.01230976;-0.3988044;0;
-208.7467;0;-210.2555;-229.7913;-8.394457;-1.515009;-210.2626;-211.7552;-0.3371341;0.1863024;0;
-89.7217;0;-100.0995;-105.1229;-11.33278;-0.1068455;-93.11016;-96.16297;-0.2068607;-0.07375421;0;
490.0771;0;437.7932;430.0262;-9.982225;-1.647346;476.9469;474.5219;-0.1416855;-0.5934188;0;
696.8555;0;641.6257;599.5087;-11.84723;-5.731527;682.9264;677.6302;-0.3364451;-0.2679859;0;
315.9089;0;296.654;313.2375;-13.77771;-8.806983;305.9918;300.7634;-0.2061724;0.1220875;0;
189.0925;0;174.5422;243.8324;-4.788883;-4.444243;175.4998;175.0243;-0.3358999;0.05699745;0;
96.07419;0;84.59941;135.3294;-3.912439;-3.636104;83.43212;83.83165;-0.4654971;-0.2029292;0;
-440.3153;0;-420.8566;-392.229;-4.712791;-13.41171;-444.0116;-444.2997;0.05470939;-0.1377579;0;
-668.1331;0;-640.9478;-641.8342;-1.560224;-15.27364;-669.5144;-667.7407;0.2495564;0.1222499;0;
-328.882;0;-322.5885;-334.2186;-19.57597;-15.45924;-331.8236;-330.8013;-0.2054657;0.122127;0;
-200.4909;0;-195.9529;-217.1914;-24.44642;-18.25699;-199.494;-202.7206;-0.2052592;0.1220043;0;
-92.78095;0;-93.49488;-102.968;-11.69485;-9.263177;-93.09695;-98.50668;-0.07511832;0.2518164;0;
479.5247;0;438.1444;424.4954;-12.08524;-7.512312;469.7137;464.6218;-0.1400102;0.4464654;0;
704.6794;0;656.3442;602.4167;-5.642737;-13.26517;693.5665;687.3552;0.05503253;0.5109841;0;
318.4151;0;307.4223;309.8956;-2.690307;-13.31883;311.124;305.6061;0.1199446;0.2506013;0;
182.2885;0;176.4915;240.5564;-8.17996;-15.91766;171.6938;170.8666;-0.1400453;0.1204148;0;
105.144;0;100.6023;149.1105;-9.109746;-16.97339;95.55948;95.92003;-0.07493725;0.1202938;0;
-435.5649;0;-409.3675;-381.5851;-5.48327;-19.03281;-435.5821;-435.9716;0.2499747;-0.2696311;0;
-677.9427;0;-652.7711;-645.4438;-4.539755;-20.75512;-675.8984;-673.5388;0.2497236;-0.1394255;0;
-330.186;0;-331.5264;-336.95;-14.98502;-16.78239;-333.0163;-331.0963;-0.07536406;0.1855513;0;
-196.7961;0;-195.3241;-220.17;-16.17541;-15.96173;-199.4986;-202.2033;-0.205223;-0.2694065;0;
-89.02742;0;-94.30347;-106.9431;-20.11127;-17.55328;-93.60128;-97.42768;-0.01011478;-0.2691358;0;
483.1495;0;436.3371;423.3979;-22.03345;-16.59789;470.8341;467.1365;0.3796994;0.2508734;0;
698.8678;0;649.7287;600.5082;-13.63856;-16.38026;687.1271;681.3092;0.4442852;0.575458;0;
318.6689;0;306.5605;315.4228;-13.22272;-15.9619;311.6875;307.4372;0.1839695;0.5748798;0;
186.2276;0;180.1908;246.0156;-0.6835015;-12.06098;176.1298;176.7563;0.3137193;0.1195307;0;
92.96223;0;87.99353;137.2604;3.403022;-10.91015;82.99953;84.74989;0.3783714;-0.01052406;0;
-444.8609;0;-423.8376;-395.6722;2.528947;-10.56427;-447.3174;-445.4438;0.05315451;0.1194212;0;
-670.1129;0;-648.1113;-649.147;5.807959;-9.950809;-672.1921;-668.5089;-0.2067683;-0.01063348;0;
-322.6764;0;-326.1216;-338.8379;-7.861907;-11.07952;-329.3137;-326.8211;-0.01165848;-0.4653942;0;
-198.6644;0;-202.7933;-225.0544;-10.7344;-11.4033;-203.1086;-204.4915;-0.1415814;-0.7247959;0;
-91.64343;0;-101.2654;-112.1974;-14.7421;-13.46832;-97.39503;-100.5882;-0.2064065;-0.3342636;0;
482.3477;0;432.4431;422.0843;-19.21526;-14.52639;468.1686;463.8542;0.1836049;-0.009091021;0;
697.5671;0;644.7142;600.1954;-14.10574;-14.44481;684.0269;677.2182;0.05348575;-0.07404923;0;
312.6843;0;297.553;305.3028;-15.22967;-14.36331;304.2802;298.4153;-0.336372;-0.1389422;0;
178.6248;0;167.2569;231.3456;-9.588285;-16.49233;167.7929;166.1193;-0.4659687;-0.1388026;0;
96.17419;0;87.31642;134.4742;-6.899334;-16.74369;86.10275;85.4928;-0.1406638;-0.07369574;0;
-441.0275;0;-415.6436;-393.3957;-10.17493;-12.3731;-443.2802;-444.0145;0.1193469;-0.2685237;0;
-676.1534;0;-650.4202;-651.7454;-9.494146;-10.68609;-677.4044;-676.4513;-0.1406424;-0.4631559;0;
-324.5879;0;-328.3032;-339.3097;-7.675945;-10.27346;-331.085;-330.8824;0.05440094;0.05704818;0;
-197.388;0;-200.7248;-225.2134;-7.267066;-9.526323;-201.8796;-205.8626;0.3142156;0.3818276;0;
-97.61472;0;-105.7582;-118.6656;-8.598935;-4.225222;-102.6015;-107.5801;0.1839652;-0.07332748;0;
478.2564;0;429.2042;417.1219;-8.456573;-2.144627;463.6545;459.3056;0.118813;0.2515829;0;
698.1027;0;644.0397;599.6108;-12.13177;-6.161326;683.0156;676.2348;0.05372632;0.4462321;0;
314.3438;0;297.8788;308.0921;-12.72279;-6.222118;304.4568;298.5573;-0.1412297;-0.3987917;0;
180.0327;0;170.9556;236.0686;-12.04042;-9.966788;167.5945;166.5735;-0.2060551;-0.1385216;0;
89.02249;0;82.95295;131.2589;-12.36312;-12.70307;77.78364;78.8252;0.1189886;0.2514217;0;
-448.3594;0;-423.8757;-394.8586;-5.920335;-8.604473;-449.8419;-448.364;0.3787384;-0.07366771;0;
-678.6679;0;-650.5231;-644.6486;-3.502512;-8.796776;-677.6501;-674.2997;0.1184885;-0.07359368;0;
-331.8474;0;-327.469;-335.7183;-5.375003;-12.60584;-335.2035;-332.9809;-0.2714346;-0.008552396;0;
-201.4544;0;-198.892;-219.0644;-5.838117;-12.79412;-203.6201;-206.7721;-0.2061945;-0.07351115;0;
-95.05533;0;-98.99223;-105.5887;4.348179;-16.53219;-98.46831;-103.866;-0.07605265;0.1864321;0;
478.3145;0;435.0264;424.1886;8.630717;-18.793;467.0339;462.3289;-0.07597623;0.5110815;0;
694.6;0;646.6702;599.8614;-7.386509;-10.26741;683.0808;676.5064;0.1190021;0.4456006;0;
308.1584;0;296.4461;307.9051;-10.0584;-8.64962;300.8362;295.4554;0.1188826;0.2502508;0;
178.7887;0;171.7732;241.1916;-5.626692;-11.65504;168.6003;168.2847;0.3136651;0.1200647;0;
97.39982;0;91.64082;145.6221;-7.4297;-10.5716;88.2212;88.53065;0.1834153;0.1199441;0;
-446.6746;0;-415.0091;-387.9435;-2.0636;-12.50348;-446.0364;-446.2895;-0.07663839;-0.1400458;0;
-684.606;0;-643.9768;-647.1108;-0.3202141;-11.82109;-681.6571;-679.2238;0.2482753;-0.1399051;0;
-329.7836;0;-321.554;-329.3699;-4.674149;-13.28284;-330.8357;-329.7166;-0.07681084;-0.009829863;0;
-197.581;0;-195.9814;-211.8479;-5.070618;-13.53742;-196.6955;-200.3877;-0.2716357;-0.399624;0;
-97.37025;0;-102.5188;-107.6248;1.02907;-9.370878;-99.10931;-104.3595;-0.01149338;-0.2043205;0;
479.7501;0;430.3789;422.4669;3.439909;-9.227496;467.0807;461.3361;-0.3363186;0.3156236;0;
699.9071;0;644.5261;599.953;-4.80257;-1.2475;685.8762;677.6385;-0.0111439;0.1853718;0;
307.3383;0;291.0558;303.1866;-7.343339;2.37071;298.8812;291.464;0.3786713;0.1202182;0;
174.6585;0;163.9521;234.9161;3.314935;-5.602397;164.8981;162.0485;0.1184215;0.1850647;0;
94.3358;0;84.76457;139.7902;5.722502;-5.931683;85.70959;84.11225;0.2482372;0.05494405;0;
-442.0519;0;-412.3208;-388.7097;-6.072244;-4.787013;-441.549;-442.9574;0.1830204;0.2497909;0;
-669.9929;0;-632.3582;-640.5673;-8.94653;-5.452032;-667.9288;-667.3368;0.05290183;0.3794746;0;
-326.7419;0;-323.1904;-333.2653;-2.908345;-6.116383;-329.1776;-330.2728;-0.07708601;0.1192239;0;
-206.1616;0;-207.6735;-224.6099;-3.777055;-7.31593;-206.221;-212.7499;-0.4018453;-0.2706999;0;
-96.38448;0;-101.8929;-109.1296;-3.437491;-5.767971;-96.69377;-105.34;-0.07660478;-0.660232;0;
480.1101;0;434.8772;426.3984;-2.295937;-6.298039;471.4928;463.7299;0.3132762;-0.3996992;0;
693.8325;0;644.0224;600.0699;-9.661021;-7.095506;684.5992;675.0949;0.2479941;-0.1394282;0;
310.7651;0;297.0494;308.1759;-10.4556;-7.62424;305.664;297.0438;0.1178102;-0.3341902;0;
178.5816;0;171.4389;239.5881;-8.56908;-8.755167;170.737;167.8726;-0.2071448;-0.009017668;0;
85.8237;0;83.81057;134.3376;-8.360375;-8.813353;80.23584;79.24837;-0.07700201;0.1858934;0;
-451.8673;0;-417.1469;-393.8444;-3.796648;-14.16301;-447.2047;-448.1287;0.05301004;0.1207393;0;
-679.5486;0;-640.2404;-644.1976;-2.453662;-15.89033;-672.7043;-671.8157;0.1179241;0.2505527;0;
-334.164;0;-323.5684;-333.5187;4.313957;-12.72629;-331.5745;-331.5614;0.05283829;-0.07453581;0;
-202.1445;0;-192.6839;-211.3073;7.725874;-12.64652;-197.9958;-201.2311;-0.2720515;-0.3992976;0;
-94.24548;0;-90.97883;-98.3392;4.435582;-10.95924;-91.35033;-96.394;-0.2068108;-0.3339291;0;
477.4994;0;439.0962;425.9336;5.101686;-9.876502;471.5835;465.7328;-0.1416357;-0.1386915;0;
699.1579;0;654.5464;601.4172;3.622691;-9.062783;692.1236;684.0299;-0.4013627;-0.008617467;0;
311.3375;0;302.253;306.8982;2.479975;-8.183021;308.7455;301.0972;-0.2060574;-0.1385435;0;
174.5932;0;171.6398;238.3116;4.353494;-9.514335;169.5051;168.1114;0.1189864;-0.3333063;0;
95.95724;0;97.50453;146.1808;5.621917;-11.11237;92.43594;93.04263;-0.1410026;-0.2030367;0;
-442.9933;0;-411.1503;-384.5119;-3.627133;-4.871909;-437.0783;-438.1589;0.05404114;-0.007930679;0;
-682.4276;0;-655.8015;-646.1813;-5.766942;-2.991613;-675.519;-673.725;0.4437909;0.05704463;0;
-334.9163;0;-334.2414;-337.187;5.558358;-15.58103;-332.8247;-332.032;0.1185083;-0.1379147;0;
-206.2068;0;-200.4726;-222.3432;8.299439;-17.70883;-202.743;-207.2609;-0.07651285;-0.3976455;0;
-97.679;0;-99.44682;-108.4894;7.956307;-18.56182;-96.53008;-101.5432;-0.07643597;0.05752544;0;
482.0028;0;438.6327;426.913;8.952691;-20.88744;474.1551;468.7722;-0.4661632;0.3823044;0;
696.2855;0;648.3988;600.8964;16.64685;-12.42685;687.821;679.7574;-0.3357601;0.0570835;0;
312.9657;0;300.7967;312.4373;18.57251;-9.534099;308.1954;301.9515;0.5091527;-0.07290854;0;
187.7141;0;181.7416;251.4039;16.14198;-11.40004;179.4503;178.2726;0.3787064;-0.1378026;0;
96.25883;0;94.60271;146.0166;16.93004;-9.379098;89.62751;89.63792;-0.07644551;-0.2026315;0;
-444.4412;0;-413.4245;-387.1122;6.128409;-5.484786;-440.9459;-441.7476;0.248468;-0.07249321;0;
-673.2543;0;-641.2694;-640.908;3.376561;-4.474531;-669.2004;-668.2521;0.2482183;-0.07242037;0;
-335.1225;0;-329.344;-339.6026;-1.38323;0.6875292;-335.1955;-335.0603;-0.1418351;0.2524891;0;
-211.9725;0;-204.5132;-226.0683;-5.868842;1.959392;-207.4228;-212.0978;0.2481115;0.6420395;0;
-101.6273;0;-99.42288;-108.2128;3.380455;-2.061431;-97.51949;-104.3137;0.3128295;0.3165576;0;
475.6222;0;435.7206;422.8166;2.974917;-2.729189;469.4186;462.1939;-0.0772889;0.05637018;0;
696.7828;0;652.3611;601.4268;7.72735;-9.022598;689.8983;680.6819;-0.07721123;-0.07362115;0;
309.3396;0;302.3188;307.7823;9.930388;-10.75509;307.397;299.7516;0.3126704;-0.2684492;0;
173.2845;0;171.0183;234.5721;3.155256;-18.17926;168.4704;166.1424;0.2473889;-0.2681794;0;
94.02516;0;90.38696;140.5711;1.879288;-22.3808;90.84;89.88869;-0.0776964;-0.1379753;0;
-445.7356;0;-418.9479;-391.3654;0.002365736;-13.11491;-438.4853;-440.8099;0.182251;0.1870001;0;
-686.5414;0;-647.9741;-653.4027;-1.605227;-13.16872;-677.3619;-677.3104;0.1820679;0.2517795;0;
-340.5251;0;-325.4223;-341.0279;-8.167697;-5.586536;-336.4148;-336.4258;0.05195028;-0.1382776;0;
-207.6871;0;-199.2836;-222.7445;-10.83881;-0.4903416;-202.5189;-208.0896;0.4417021;-0.07317127;0;
-96.53416;0;-94.82324;-107.2661;-11.29741;-10.47006;-92.43313;-99.74739;0.05145426;-0.008130407;0;
478.2115;0;437.8169;424.9492;-12.55885;-10.45954;474.125;467.5052;-0.3384015;-0.3979263;0;
696.621;0;650.0825;600.8711;-9.331054;-6.832075;691.5391;682.7396;-0.1431594;-0.4624938;0;
314.8625;0;307.4137;313.8488;-9.053258;-7.361074;314.4084;306.8047;0.1818211;-0.07222503;0;
180.6759;0;179.9188;244.8804;-2.011563;-4.875309;177.9734;175.5622;0.1166711;0.4475863;0;
86.79149;0;89.84566;135.939;0.870846;-5.272308;84.7164;83.99425;-0.2082829;0.2522345;0;
-453.2118;0;-412.6796;-395.1807;-0.0006851137;-7.477447;-445.977;-446.5735;0.3116651;-0.2027903;0;
-682.0787;0;-634.3408;-645.2202;2.142769;-9.345334;-671.9775;-671.0117;0.6361886;-0.00768453;0;
-343.688;0;-325.7332;-342.0989;-2.682155;-9.402926;-337.9699;-338.4418;0.2457454;-0.007676809;0;
-216.9688;0;-204.2793;-227.4376;-2.478389;-9.66141;-210.007;-213.7268;0.2454985;-0.2025711;0;
-98.81001;0;-93.25471;-101.7722;-6.360665;-21.77537;-92.9172;-97.25797;0.1153171;-0.2673349;0;
484.5586;0;447.5672;432.1868;-8.899869;-26.24122;481.1377;476.0516;-0.1446681;-0.4619683;0;
701.2125;0;659.7606;600.6676;2.62965;-22.32997;696.9205;689.8406;-0.2744574;0.1881693;0;
299.4596;0;298.5289;301.0893;5.842188;-24.85276;301.4811;295.4703;-0.4041163;0.6427516;0;
163.8517;0;169.2937;236.1942;-0.1919016;-17.32594;163.9972;162.2402;-0.07887358;0.1873344;0;
93.5348;0;100.3457;150.3125;-0.3927796;-13.49051;94.42978;93.92399;0.2460424;0.1221788;0;
-449.1614;0;-408.9367;-383.0081;9.052087;-25.19872;-438.7721;-439.4023;0.2457952;-0.267748;0;
-689.9639;0;-646.6561;-646.6155;12.25817;-25.50832;-677.6484;-676.7788;-0.07928853;-0.1375443;0;
-337.5724;0;-322.7938;-332.0611;6.083913;-19.2534;-330.3293;-330.2726;-0.5339803;0.252398;0;
-217.1685;0;-202.967;-222.3449;6.278871;-18.22931;-208.3085;-212.0625;-0.208607;-0.2675944;0;
-111.066;0;-103.1256;-111.7395;7.410661;-11.78087;-103.0271;-108.9636;0.3113413;-0.3322929;0;
487.7446;0;452.1364;431.5997;7.536937;-8.888766;486.0929;480.0374;0.1161265;-0.1370569;0;
704.5828;0;664.6376;604.454;7.664062;-7.80823;701.9957;693.8848;-0.01392488;0.0579828;0;
309.5106;0;307.399;314.5545;7.521663;-5.65693;311.986;304.383;0.1160238;0.1228919;0;
183.6377;0;186.0884;256.7673;9.322766;-7.392803;183.362;181.014;0.1808746;-0.332003;0;
90.93716;0;97.00862;148.6885;8.911257;-7.05046;91.41141;90.9398;0.1806928;-0.006832689;0;
-449.2577;0;-408.3974;-382.5689;14.66308;-7.84717;-439.6635;-440.8843;0.2454786;0.1880762;0;
-673.4434;0;-631.0624;-629.6851;17.26031;-8.241061;-662.4221;-661.3928;0.1152973;-0.007014803;0;
-336.061;0;-323.8949;-329.0782;8.736505;-10.77813;-329.7983;-329.2073;-0.01475329;0.317829;0;
-212.1604;0;-201.3808;-217.8033;8.259212;-12.84377;-203.9051;-208.1247;-0.4045425;0.1226076;0;
-98.25436;0;-93.17027;-95.70818;7.246534;-7.740287;-90.63201;-96.65901;-0.5340707;-0.332287;0;
475.9933;0;439.2808;431.623;5.831758;-7.397594;474.3001;468.7165;-0.07876268;-0.007116423;0;
694.28;0;653.0442;601.5411;9.510569;-9.064612;691.2767;683.5748;0.1162185;0.1228254;0;
310.8997;0;306.5619;313.5187;8.830451;-8.72059;312.3348;304.8904;-0.07880031;-0.007232689;0;
179.7781;0;177.4436;248.3613;14.9845;-12.26192;178.0258;175.2116;-0.4035578;0.05774192;0;
105.947;0;103.9271;158.8441;17.51504;-13.52216;104.8211;103.1966;-0.07831564;0.2525859;0;
-434.5128;0;-395.3639;-372.5485;9.794277;-13.03969;-425.5177;-428.2025;0.3115671;0.0574301;0;
-683.7007;0;-637.2823;-644.5997;8.64536;-14.36624;-672.7156;-672.6492;-0.273452;0.1873071;0;
-337.8748;0;-326.7353;-335.3571;7.967087;-12.61037;-332.0856;-332.0191;-0.7279487;0.1871189;0;
-202.4782;0;-195.7226;-213.5188;5.212416;-12.46374;-194.8832;-199.377;-0.3374132;-0.2678405;0;
-94.51637;0;-91.51575;-100.0486;7.48533;-16.13515;-88.61568;-94.22945;-0.01223742;-0.2026041;0;
480.8519;0;443.3074;430.3478;6.137662;-16.72179;476.6892;471.3935;-0.07719247;-0.1374332;0;
695.7605;0;654.4431;601.8915;0.6391386;-18.24547;690.9773;683.0007;0.1177871;-0.07232771;0;
305.6321;0;302.5871;308.4964;-1.83975;-19.5668;305.5389;298.7572;0.1176688;0.05767965;0;
176.9521;0;178.033;244.3435;-4.584568;-16.06414;174.9849;172.7077;0.1825179;-0.3321823;0;
93.56609;0;95.77036;144.5855;-6.656066;-15.57912;93.5374;92.07465;0.3772365;-0.1369466;0;
-450.2546;0;-412.8828;-389.7913;-7.386312;-16.09933;-441.1629;-442.4367;-0.0129466;0.1230604;0;
-680.3738;0;-639.2914;-642.7722;-7.044098;-14.87746;-670.6665;-669.1905;-0.467705;-0.07196526;0;
-334.0514;0;-321.6833;-333.594;-12.86417;-17.54183;-329.976;-329.1886;-0.3373003;-0.1368603;0;
-207.5916;0;-196.6103;-219.0037;-14.52521;-17.45722;-202.146;-206.1071;0.05284263;-0.07175544;0;
-88.31789;0;-86.03073;-94.78348;-3.726969;-15.83209;-84.81431;-90.458;0.3126589;0.188186;0;
489.6054;0;449.4741;436.8571;-1.446049;-15.68222;483.8601;477.7848;-0.01249197;-0.006905084;0;
692.0739;0;650.6711;600.5231;2.306448;-10.44191;686.9591;677.9539;0.2473899;-0.07186548;0;
300.575;0;298.5689;307.1294;5.987826;-8.154;301.1499;293.4031;0.5719781;0.5129128;0;
171.3378;0;173.6441;240.1668;0.6905241;-9.083569;169.3509;166.7343;-0.07827007;0.1225934;0;
88.33223;0;89.38688;141.475;0.4223865;-6.931109;87.34689;86.1697;-0.2730934;-0.6571379;0;
-445.988;0;-413.4502;-382.3415;1.024198;-8.263681;-438.1018;-438.903;-0.272819;-0.3966082;0;
-681.6087;0;-644.481;-638.6407;-0.584421;-6.915842;-672.7934;-671.095;-0.3375123;-0.006405686;0;
-338.0337;0;-328.0546;-334.4641;0.9573837;-5.368285;-333.0378;-333.4651;0.442435;0.05856809;0;
-202.512;0;-192.6054;-214.5007;1.156516;-4.693062;-196.0219;-200.5717;0.6368924;0.1234766;0;
-93.73805;0;-88.52658;-99.71774;-7.953348;2.880481;-89.56583;-95.11054;0.05154642;0.2532872;0;
481.0048;0;442.7953;426.7429;-10.82574;5.824836;476.9269;469.5138;-0.2733421;0.318;0;
698.3495;0;652.9946;601.4136;-4.519204;5.350102;693.4012;683.5591;-0.5329368;0.2527132;0;
308.1561;0;299.6407;308.0814;-3.91145;6.148522;306.3986;298.9403;-0.467434;0.05755721;0;
180.2231;0;175.7142;242.1798;-4.911898;8.15171;175.7188;173.0156;-0.7268336;-0.007467962;0;
102.0812;0;99.70081;149.6079;-4.304726;7.94257;98.14363;97.44212;-0.9210054;0.05750689;0;
-435.9385;0;-402.8343;-378.0898;-3.629839;5.188411;-431.3139;-431.515;-0.1404718;-0.1374529;0;
-669.7578;0;-634.1256;-634.2059;-4.564197;3.843539;-662.8264;-661.3406;0.1195387;-0.2022821;0;
-332.0667;0;-325.4557;-332.0952;3.209921;-1.85375;-329.1403;-328.0308;0.05445125;0.1227578;0;
-206.9832;0;-201.3784;-220.0677;6.019735;-4.196168;-203.0603;-205.7625;0.3142659;0.1876018;0;
-92.39523;0;-94.91699;-100.4066;-5.172097;-6.536355;-90.60018;-95.11126;0.1840154;0.05747862;0;
484.845;0;439.2224;429.7404;-5.970208;-7.668375;478.1425;473.1987;0.1188632;0.3822576;0;
699.4997;0;650.9245;600.2227;-9.045668;-8.598431;692.9289;685.6786;0.1187438;0.5118082;0;
311.3041;0;297.4478;308.0161;-11.11268;-9.7285;308.4255;302.0572;-0.2062123;-0.008444841;0;
179.9947;0;170.525;241.1151;-5.341717;1.534163;174.1205;172.0689;-0.1410377;-0.07340369;0;
96.10587;0;92.39288;144.4213;-5.201652;5.082595;92.61141;91.56135;-0.01096131;-0.1382973;0;
-439.4091;0;-414.6951;-379.3981;3.041621;4.273693;-433.1549;-433.8916;-0.530689;-0.5279623;0;
-668.6646;0;-641.2893;-631.0776;7.058029;6.81475;-661.4797;-658.9672;-0.2053191;-0.07266048;0;
-329.7253;0;-323.9916;-328.4079;2.294539;5.60221;-327.2327;-326.0346;0.3146259;0.1223146;0;
-203.8945;0;-201.4775;-217.446;3.163866;6.132444;-199.5929;-203.7683;-0.1404616;0.05722431;0;
-94.68194;0;-98.38925;-102.4102;5.303164;4.920589;-91.88389;-97.55436;-0.07535309;0.3170362;0;
480.9364;0;438.3773;428.0511;5.767326;4.714696;475.1735;469.6961;-0.07527738;-0.00811909;0;
702.2792;0;654.8903;601.721;4.421384;1.427918;695.5225;688.0516;-0.4650058;-0.2679803;0;
312.2067;0;304.0333;309.5754;4.55164;-0.3150734;310.2045;303.7406;-0.0747345;0.05712568;0;
181.1462;0;180.04;248.3575;2.537334;2.833319;177.4593;175.0624;-0.1396268;-0.007899064;0;
103.5656;0;102.8353;154.9048;2.534785;2.361713;101.1318;100.0491;-0.2694211;-0.3327278;0;
-438.0163;0;-408.511;-378.5453;1.058369;5.842331;-431.3897;-432.7836;0.05568629;-0.1374915;0;
-675.7064;0;-638.7971;-638.5966;-0.8177282;7.778843;-667.275;-667.0433;-0.2692064;-0.1373533;0;
-335.0109;0;-321.1896;-335.0446;12.7134;4.288037;-331.3979;-331.5413;-0.3988706;-0.1372153;0;
-208.4877;0;-196.9916;-221.7023;17.05391;5.355455;-203.8164;-208.27;-0.3335024;0.05782458;0;
-93.83574;0;-87.9109;-99.72823;8.932447;4.010415;-90.35606;-96.61674;-0.3331673;-0.007200863;0;
486.0296;0;450.8442;434.416;10.46371;3.537505;481.7597;474.5683;0.3168409;0.05777371;0;
698.934;0;656.6;602.8322;5.965221;7.485944;694.6059;684.4857;0.4464572;0.2526177;0;
308.6151;0;301.4934;309.3112;3.347259;6.875575;307.9769;299.6785;0.05620453;0.2523639;0;
178.6201;0;178.752;246.3444;13.5253;13.90163;174.6718;171.879;0.1211154;-0.1376938;0;
93.42089;0;96.23879;149.3954;14.38237;16.56698;91.16321;90.05979;0.3158957;-0.2674901;0;
-445.1523;0;-412.2899;-381.3005;11.01901;7.641847;-437.0379;-437.9529;0.3805456;0.1225827;0;
-675.9013;0;-635.5132;-637.4759;10.33738;7.500203;-665.7336;-664.3987;0.2502286;0.05749222;0;
-335.1431;0;-318.2213;-333.1755;10.19327;0.794495;-329.9831;-329.8365;0.05507514;-0.4623043;0;
-202.9976;0;-190.9653;-213.7756;10.98731;-3.091191;-196.5934;-201.1945;-0.1398822;-0.2669377;0;
-86.53957;0;-82.26548;-90.43515;-1.081145;7.160059;-82.26576;-87.48695;-0.07477433;0.3830039;0;
486.1346;0;448.6754;433.5799;-5.299617;8.02352;480.4091;476.3801;0.05523549;0.2526844;0;
700.5381;0;656.4948;601.0598;3.01208;8.551322;693.5065;687.2952;-0.009787357;-0.2023409;0;
309.9052;0;302.4503;308.2902;2.606912;11.55696;307.8782;301.8604;-0.1397122;0.1226991;0;
176.9105;0;174.0858;240.6393;7.761856;5.249076;173.1364;171.1227;-0.1395718;0.2525105;0;
100.521;0;100.5727;149.5057;12.17469;5.109836;98.18752;97.61262;0.05547044;0.05735475;0;
-437.2472;0;-396.9033;-378.3168;0.03866445;12.00382;-430.458;-431.0948;-0.07451998;-0.2025722;0;
-678.249;0;-630.387;-641.2418;-2.037479;13.86716;-669.2177;-668.1672;-0.2043798;-0.5921727;0;
-334.9897;0;-321.9708;-335.0636;9.618866;14.724;-329.7156;-328.9785;-0.07423974;-0.3317084;0;
-202.4071;0;-195.5856;-215.7242;9.341758;16.04887;-195.3891;-198.7757;-0.2040998;0.3182984;0;
-93.25845;0;-90.94157;-98.19143;14.82473;15.36291;-87.68436;-92.75417;-0.008992718;0.1880438;0;
486.5439;0;447.1919;431.9533;16.95329;13.73989;482.4297;477.9897;0.3808204;-0.2669165;0;
702.821;0;656.9493;602.8082;4.611391;20.29029;696.5246;690.1525;0.1205683;-0.201681;0;
305.5641;0;293.0968;305.6016;2.932794;20.80576;302.5224;297.1563;-0.2043895;0.1233584;0;
173.136;0;162.7427;237.0788;-6.179832;11.54145;167.0989;165.9235;-0.3341188;0.2531691;0;
89.62895;0;83.05663;139.5145;-10.99639;9.654335;85.84674;84.98485;-0.1388811;-0.07192196;0;
-448.2533;0;-417.2129;-386.0491;-7.43537;-1.07239;-440.6624;-441.8983;-0.008806835;-0.5915884;0;
-675.8133;0;-637.7451;-634.7235;-10.17457;-6.898706;-664.7318;-663.9673;0.1211367;-0.4610593;0;
-340.8647;0;-329.5089;-334.049;-0.2503804;0.007345847;-333.48;-333.4035;0.315917;0.1890774;0;
-218.2087;0;-211.2371;-226.2049;3.165147;-0.6624908;-209.5196;-213.7535;0.2506322;0.3837894;0;
-97.23765;0;-100.8927;-103.914;-3.603188;-0.3938935;-92.74265;-98.34663;-0.1394237;0.3184364;0;
480.5072;0;432.5656;428.4854;-3.197426;1.950905;472.0042;467.7802;-0.788957;-0.07168757;0;
693.7919;0;638.7145;599.5936;-0.3811738;-1.735117;682.0491;676.5175;-0.7231969;-0.4614196;0;
309.4127;0;289.0607;305.8885;0.0886998;-1.800356;300.8676;295.7163;0.05713788;-0.2010866;0;
178.6049;0;163.8955;237.3029;-2.255914;8.315632;167.6321;166.8588;-0.007886875;-0.005982511;0;
102.0263;0;92.2043;149.546;-3.392723;10.24978;93.31339;94.29;-0.3327157;-0.2658459;0;
-428.622;0;-403.3268;-370.343;-3.188243;12.71773;-427.0189;-426.3556;-0.3973487;-0.1356441;0;
-668.9453;0;-638.7405;-631.5894;-3.921974;14.91539;-663.7206;-661.059;-0.2670147;0.1243616;0;
-330.8803;0;-325.3809;-327.6073;-8.405036;6.192863;-328.5343;-325.7505;-0.006877081;-0.1356327;0;
-202.1748;0;-196.6185;-211.7112;-10.67474;3.842237;-199.0192;-199.8613;-0.07183751;-0.1354964;0;
-96.33727;0;-97.78302;-101.054;-8.586935;2.967598;-95.80846;-98.52378;-0.2017;0.1245091;0;
482.0938;0;438.5457;427.5319;-9.448963;1.424131;472.8145;470.102;0.05837202;0.1893513;0;
701.9362;0;653.5593;601.6396;-9.84161;-3.199;691.042;686.2082;0.5780521;0.1241937;0;
310.115;0;299.83;309.744;-9.765348;-4.535445;303.1673;299.3378;0.1226999;-0.07083311;0;
176.5578;0;173.0923;244.5279;-15.44896;-4.396922;167.8055;169.4772;-0.4621295;-0.265664;0;
94.35915;0;94.58275;147.7057;-18.78234;-5.933111;88.1144;91.03373;-0.07186108;-0.2004297;0;
-438.7178;0;-403.1371;-376.6167;-10.5918;4.588927;-435.5859;-432.7945;-0.1367562;-0.2651956;0;
-666.8495;0;-627.0568;-626.4875;-10.24636;5.856992;-661.5345;-656.1846;-0.2015861;-0.3298965;0;
-329.9735;0;-319.5185;-327.2581;-17.46973;10.07091;-328.6617;-324.6291;-0.1364163;-0.004728309;0;
-208.5153;0;-200.8195;-219.3583;-18.79135;12.80697;-206.5802;-207.5491;-0.3311812;0.06024378;0;
-89.30311;0;-87.61199;-92.38914;-22.45714;0.5365892;-88.68179;-91.8361;-0.1359464;-0.2646534;0;
491.932;0;452.3922;437.0626;-23.3716;-1.540421;484.3693;480.9683;-0.07084247;-0.3943222;0;
702.5816;0;658.084;601.9778;-28.17089;-9.174684;693.1524;688.0682;-0.200706;-0.2639913;0;
314.4454;0;306.1618;316.9534;-30.41976;-13.6532;308.274;304.0695;0.1243324;-0.1337914;0;
178.635;0;173.4832;245.3583;-21.95008;-14.97914;170.1586;170.3935;0.05924014;-0.003722256;0;
91.81158;0;91.47501;143.0381;-20.72257;-19.31786;84.96783;87.32644;0.05918062;-0.1336532;0;
-442.8245;0;-407.3662;-381.9044;-15.27577;-7.643782;-440.1661;-437.8723;0.1890558;-0.1984862;0;
-677.0116;0;-644.7748;-641.515;-11.91152;-4.755835;-672.9191;-668.5662;-0.006036153;0.1265499;0;
-327.9439;0;-325.5371;-328.1526;-14.57887;-9.573706;-328.2284;-324.5045;-0.2009321;0.3213248;0;
-192.5573;0;-189.0909;-207.8831;-13.22407;-7.219805;-191.2798;-193.2443;-0.07079553;0.3859693;0;
-88.72843;0;-94.0736;-102.5396;-15.75638;-10.56157;-89.63857;-93.72503;0.05921029;-0.004222631;0;
489.0079;0;441.002;424.9858;-16.47748;-11.35476;478.2286;475.6455;-0.2656859;-0.1991204;0;
712.0916;0;660.136;602.0946;-14.51854;-4.444229;699.7615;696.3689;-0.2004516;0.2558511;0;
311.827;0;298.779;304.9511;-13.36488;-3.635968;305.2563;302.1794;-0.005348173;0.1906267;0;
171.3966;0;164.6711;233.6179;-18.50901;-4.838007;164.2078;164.8822;-0.1352775;-0.004466933;0;
95.76227;0;91.2924;139.243;-19.29469;-5.168061;88.83064;91.19096;-0.005206871;0.3203743;0;
-438.3156;0;-409.6726;-386.2578;-11.97429;-4.426055;-437.0568;-434.5739;0.3196351;-0.004784359;0;
-670.1334;0;-642.8935;-640.2418;-11.02425;-3.349881;-667.7515;-662.9598;0.1893792;-0.3945836;0;
-330.0056;0;-333.4652;-339.8742;-3.578437;-13.46069;-334.1229;-329.7108;-0.07068044;-0.1992851;0;
-203.8623;0;-208.8801;-228.2136;-0.1585896;-16.26045;-207.8505;-207.8781;-0.2005441;0.1257519;0;
-85.15453;0;-96.03933;-102.4224;-2.971469;-10.61767;-89.8883;-91.41512;-0.5251793;0.06065816;0;
488.3928;0;437.9763;430.1628;-0.9597277;-10.94191;475.7927;474.4548;-0.1998149;-0.3292069;0;
693.4862;0;637.4982;598.1459;-9.800022;-7.782722;679.7744;675.8141;0.3201246;-0.1989414;0;
307.9828;0;287.8456;304.3798;-13.4075;-6.100451;299.0324;294.6389;-0.005033757;0.3859646;0;
176.5518;0;163.9935;232.9847;-4.35072;-5.022594;166.7357;165.9698;-0.06999604;0.5804788;0;
90.10522;0;80.24568;135.2995;-3.676763;-2.874094;82.04819;83.03217;0.1249763;0.5149282;0;
-439.719;0;-423.8941;-385.3248;-9.500217;-5.483541;-439.0848;-437.1024;0.1898181;0.0596394;0;
-671.473;0;-655.7264;-640.1843;-9.62537;-5.745962;-669.2777;-664.6111;0.3845294;-0.4601592;0;
-327.2835;0;-330.8555;-330.8212;-11.6918;-0.7835737;-328.776;-324.7388;0.1242736;-0.3947296;0;
-198.3942;0;-195.7158;-211.9859;-13.35499;0.4229065;-195.6999;-196.5393;-0.3306226;0.1254058;0;
-101.0562;0;-102.316;-105.8886;-4.098175;-3.864304;-98.11472;-100.7648;-0.00545371;0.4501165;0;
475.7554;0;433.6425;423.2019;-1.548461;-4.798182;469.6985;467.2385;0.3193885;0.5146316;0;
698.915;0;651.7219;601.6243;-6.235954;-2.850856;691.4898;686.6584;0.3190676;0.4491471;0;
306.4721;0;296.2454;306.2304;-6.094991;-2.981957;302.3028;298.5382;0.3837143;0.05889178;0;
176.167;0;171.1979;240.0184;-5.887795;-4.854483;168.3787;169.6154;0.2533941;-0.07110208;0;
99.59092;0;90.94116;149.8224;-6.819885;-5.117537;92.74744;95.48218;-0.006729923;-0.006063296;0;
-433.9285;0;-415.7081;-373.3152;-7.751037;-6.853951;-431.145;-429.35;-0.1366578;-0.4608286;0;
-666.1255;0;-638.3658;-627.3748;-9.886703;-8.454533;-660.6586;-657.6786;0.1233488;-0.3953982;0;
-326.3142;0;-317.2604;-322.3349;-7.867036;-4.494166;-324.0387;-321.8112;0.3181269;-0.0701642;0;
-203.9227;0;-194.3782;-212.3786;-7.524339;-4.690599;-199.5255;-201.1734;-0.007029443;0.1248083;0;
-94.14787;0;-91.42207;-95.91113;-17.36339;-4.283989;-91.44176;-93.77512;0.1229123;0.05971557;0;
485.1556;0;446.337;433.3568;-18.95354;-3.073992;478.6761;476.7199;0.2527235;-0.3951158;0;
702.4337;0;658.7816;601.5865;-20.34101;-13.18508;694.0241;690.883;0.1875022;-0.0698821;0;
318.8578;0;312.5433;320.498;-22.1956;-16.72193;314.892;313.2533;0.05737912;-0.06981188;0;
185.9165;0;185.2931;257.8948;-10.58538;-10.94472;180.6429;182.9413;-0.07261322;-0.7194151;0;
96.58705;0;99.64983;152.5635;-6.154112;-12.00545;92.44314;95.36395;0.3172638;-0.3938556;0;
-436.0548;0;-392.5155;-370.3895;-9.898973;-14.00275;-432.0736;-429.1558;0.511847;-0.1985578;0;
-665.6885;0;-615.8836;-622.3905;-8.348784;-14.92644;-660.7743;-655.1732;-0.07337335;-0.1333909;0;
-327.2519;0;-314.1036;-322.603;-0.2350948;-15.31334;-326.8404;-323.1815;0.2515371;0.1266125;0;
-199.862;0;-193.5359;-210.7724;1.506454;-15.097;-198.139;-199.9185;0.576121;-0.3282862;0;
-93.96426;0;-93.39173;-98.367;5.791848;-20.03845;-93.18008;-96.39457;-0.2690333;-0.5228583;0;
480.7788;0;439.0595;425.4686;9.134931;-21.02306;473.2539;469.7928;-0.2037956;-0.1325289;0;
708.3061;0;660.5693;601.8896;-4.270835;-19.79624;699.1021;693.6454;0.1862132;-0.1973631;0;
316.1037;0;304.8965;311.1807;-6.677441;-20.31221;310.5321;306.8925;0.1210588;-0.5220014;0;
171.7335;0;167.5965;238.342;-8.077251;-15.33519;163.9811;164.9678;0.05596977;-0.326575;0;
94.66206;0;93.77761;147.3356;-12.22232;-13.44426;88.85399;91.339;0.1208809;-0.001410086;0;
-441.2262;0;-410.1259;-379.5476;-2.162356;-12.15819;-437.096;-434.4261;0.2506941;-0.06637601;0;
-677.1016;0;-642.8466;-642.284;-0.8210125;-8.997781;-671.3513;-666.6226;-0.1393618;-0.001341974;0;
-329.0334;0;-326.4843;-335.9798;-2.963641;-14.5482;-330.4727;-326.6234;-0.6589605;-0.06630797;0;
-199.0804;0;-204.1551;-223.636;-0.8172097;-15.20341;-201.9551;-202.8572;-0.2684944;0.06369334;0;
-84.87517;0;-97.25362;-104.9708;-4.834877;-8.757896;-89.74598;-91.95901;0.05661212;0.193564;0;
489.6089;0;437.7627;427.9294;-4.628948;-9.351942;476.6221;474.7861;0.05655523;-0.1964345;0;
702.7595;0;648.1544;599.288;-3.016706;-4.051016;689.6608;685.0156;0.1214658;-0.3261718;0;
322.3068;0;305.8623;314.7036;-3.95168;-3.176167;314.3437;310.765;0.2512784;-0.06597472;0;
184.4895;0;175.8702;244.0477;5.094621;-9.000369;175.0352;176.3952;0.3159932;-0.1308758;0;
90.22646;0;78.5548;135.4195;8.17096;-9.393223;82.53069;84.38909;0.3156757;-0.1957116;0;
-440.7849;0;-428.0195;-391.1395;1.129176;-19.69891;-441.6638;-440.6194;0.7051626;0.06435441;0;
-670.1014;0;-646.1671;-645.7433;1.261764;-22.76021;-671.4792;-668.7492;0.3796173;-0.260547;0;
-334.3466;0;-333.3622;-344.3081;1.729986;-24.34493;-339.0963;-336.9937;-0.01056817;-0.2602852;0;
-209.5107;0;-216.3359;-230.3942;2.063041;-27.3347;-211.8818;-213.9667;0.05440979;0.1297804;0;
-96.4194;0;-110.9839;-111.5349;0.1185847;-16.59021;-101.0995;-104.9314;-0.2704816;-0.1951867;0;
482.8863;0;428.419;422.4963;-1.489125;-14.16216;469.4653;466.1995;-0.07530778;-0.3898926;0;
701.6035;0;643.8176;600.1073;7.755772;-11.06683;687.7587;683.0593;-0.01026477;-0.2595661;0;
310.2823;0;290.0357;303.8404;10.02516;-7.103842;300.5119;295.4424;-0.07522179;0.0005640438;0;
174.2887;0;161.1839;232.6333;4.99124;-8.43624;163.4662;162.2749;0.1197558;0.1304982;0;
97.33971;0;89.74524;144.0065;4.585059;-6.150466;89.46403;90.33539;0.05466814;-0.1944697;0;
-440.3004;0;-409.5315;-384.2478;6.723906;-8.890464;-438.2357;-437.1778;0.3144826;-0.3242089;0;
-676.8638;0;-638.3173;-642.1694;7.386734;-10.02024;-671.9901;-668.7469;0.1192646;-0.3888505;0;
-329.7329;0;-320.6478;-330.0557;0.74788;-5.053557;-329.1119;-327.0588;-0.0757573;-0.3884598;0;
-206.3384;0;-199.9486;-218.2176;-0.9278108;-4.981497;-203.5941;-206.7905;0.3790902;-0.06323277;0;
-95.43674;0;-94.42564;-99.55784;0.8154098;-6.584082;-93.50729;-97.63746;0.508644;0.3266348;0;
488.6781;0;447.6468;432.7747;0.01030725;-6.309534;480.4232;477.1718;0.2482635;0.391274;0;
703.7662;0;657.3414;602.3169;5.43628;-9.920151;695.0823;688.7732;-0.07682264;-0.1288579;0;
322.313;0;313.9781;323.539;8.243857;-10.11113;319.8222;313.7068;-0.07674545;-0.06376112;0;
190.9924;0;188.9753;258.7463;2.073632;-12.11046;186.8175;185.4559;-0.206603;0.06623763;0;
93.22457;0;95.14503;145.6055;0.6640527;-13.57179;90.11584;90.2548;-0.2713628;0.06617108;0;
-443.3494;0;-405.0117;-382.5878;12.11759;-3.176046;-438.6465;-438.82;-0.2061228;0.325974;0;
-666.7914;0;-629.5542;-630.3287;14.51631;0.3771185;-661.3436;-660.3925;-0.2059156;0.3256464;0;
-330.2278;0;-325.0119;-329.9085;10.75166;-3.709097;-329.2831;-329.0826;0.2490627;0.0004824945;0;
-211.4555;0;-203.1839;-223.1305;12.88431;-2.231746;-207.9506;-212.3729;0.3787471;-0.19442;0;
-98.48719;0;-93.7846;-100.7177;0.8139449;-0.08617155;-95.73542;-101.4027;-0.07640488;-0.06428998;0;
480.196;0;444.9139;431.3036;-3.473781;0.1148638;474.3243;469.4748;-0.07632811;0.0007419627;0;
697.479;0;659.6712;601.7843;8.051262;3.12898;692.4878;684.2698;0.05368327;-0.3240955;0;
314.6577;0;311.9953;318.0095;8.109545;3.058853;313.7945;305.3974;-0.07630535;-0.3887372;0;
185.4064;0;183.996;253.5347;7.364462;2.385951;179.9838;175.9054;0.053706;-0.06350987;0;
105.8849;0;106.4749;157.578;7.558134;2.115621;100.9051;98.45504;0.3784887;0.00152129;0;
-433.0131;0;-395.5672;-371.0647;5.675505;-4.986573;-429.4922;-431.1902;0.05327173;-0.1284149;0;
-672.7698;0;-632.8004;-634.8715;4.932868;-7.325843;-668.0031;-667.6379;-0.3365858;0.3914528;0;
-325.7054;0;-317.1353;-325.2014;1.176867;-10.33271;-325.1914;-326.1384;-0.07637828;0.7158962;0;
-199.3165;0;-191.7545;-210.0574;-0.7666985;-12.93454;-196.8665;-201.9979;0.05363315;0.2604055;0;
-99.54128;0;-97.60909;-102.5253;-3.646316;-8.433813;-98.53046;-105.0935;-0.2712575;0.1302092;0;
479.3303;0;438.7195;426.4369;-6.05355;-6.750887;470.9698;466.0375;-0.1410502;0.0001436321;0;
704.048;0;657.7308;602.982;-7.052821;-10.36106;694.7589;689.6442;0.1189609;-0.1297912;0;
319.8458;0;308.1203;317.8316;-8.653325;-10.01573;314.564;309.0796;0.248776;0.1951759;0;
185.1545;0;176.4393;251.483;-8.912074;0.1085077;176.6921;174.649;0.4434281;7.778891E-05;0;
94.76378;0;91.36714;147.9072;-10.10857;3.993287;88.05901;88.20435;0.1181458;-0.2597916;0;
-445.8098;0;-415.5324;-384.4739;-5.74513;2.917669;-443.5123;-442.68;-0.3367443;-0.3894653;0;
-673.6846;0;-647.0608;-639.0219;-3.595903;4.790138;-672.3264;-669.246;-0.2064712;-0.389074;0;
-325.8696;0;-329.1951;-330.597;-11.42917;4.919291;-330.9471;-329.3066;0.0536056;0.001121031;0;
-202.479;0;-205.1765;-219.5705;-12.22099;3.775638;-204.553;-208.2239;0.1834864;0.2609893;0;
-93.95503;0;-102.3969;-101.9089;-8.859812;9.331306;-95.65206;-100.6312;0.1183347;0.1957597;0;
483.2868;0;438.1219;428.1771;-8.918259;10.9965;474.3451;469.4959;-0.1416536;0.3254977;0;
700.1294;0;655.5096;600.4101;-2.612658;-4.018358;692.1962;685.2905;-0.2714459;0.1302686;0;
319.5544;0;310.0868;321.5092;1.207384;-8.100157;316.3143;310.1651;-0.07627113;0.0002030045;0;
184.7384;0;176.1549;252.5956;-7.300295;-6.149635;177.8159;175.5459;-0.01122716;0.0002028005;0;
92.66145;0;86.83519;143.3965;-8.565758;-9.224548;85.55853;84.22785;0.1187188;-0.1297321;0;
-442.6002;0;-415.8744;-383.9825;2.361189;-4.861511;-440.5755;-442.6545;0.1835669;0.1302676;0;
-671.665;0;-645.0286;-636.4696;3.564266;-4.655677;-667.3936;-668.0961;-0.01151961;0.2600714;0;
-321.8532;0;-320.8557;-322.0503;4.967204;-6.459538;-322.0837;-324.5347;-0.2064101;-5.926241E-05;0;
-191.2827;0;-189.3492;-205.2852;6.971945;-6.386065;-190.701;-198.5218;-0.27117;-0.06502654;0;
-87.08031;0;-92.70741;-96.50852;-3.684981;-7.585219;-88.87296;-97.99775;0.05393918;-0.1299285;0;
491.7787;0;445.4278;430.4486;-7.298601;-8.649324;480.6801;472.6889;0.443689;0.0001366889;0;
709.3;0;660.3095;601.0551;-1.530491;-7.836838;698.5248;688.7926;0.3133085;0.0001365516;0;
314.7228;0;305.3866;313.9702;-1.395231;-8.230862;310.0179;301.5448;-0.011843;-0.1297983;0;
182.4104;0;181.5168;254.7468;-9.832947;-13.71507;176.211;172.8688;-0.4016351;-0.1946352;0;
98.95648;0;100.1877;157.7895;-11.23056;-15.50983;94.51244;92.92272;-0.2063296;-0.3243743;0;
-441.3089;0;-416.4658;-373.4147;-11.48672;-15.49424;-437.2528;-439.2782;0.7034205;-0.3890157;0;
-670.6875;0;-651.6164;-629.8478;-14.1545;-15.88057;-665.8858;-666.8472;0.377877;0.001179224;0;
-322.7506;0;-323.5637;-319.3083;1.600837;-17.74002;-322.0767;-324.1615;-0.2072087;0.3260148;0;
-195.2402;0;-187.3069;-204.545;6.622095;-18.12409;-192.8179;-199.3359;0.1828035;0.3256872;0;
-89.28474;0;-87.10651;-91.08385;-3.498616;-13.55116;-88.17662;-96.18736;-0.1422169;0.4552946;0;
482.3302;0;445.276;434.2437;-2.356025;-12.33185;475.3788;468.6879;-0.6618127;0.3249024;0;
699.2363;0;659.4082;601.598;-5.234046;-7.831725;692.5417;684.6082;-0.336311;-0.1301954;0;
317.975;0;314.9184;321.1966;-7.840755;-4.608797;316.5345;308.9838;0.05383098;-0.3249666;0;
186.8462;0;187.8532;261.3413;1.611595;-7.216378;182.7835;178.6137;0.4435809;-0.2596728;0;
98.32787;0;94.2739;155.2569;3.150217;-5.199761;94.26923;90.60334;0.5730699;0.06542487;0;
-434.3157;0;-408.6931;-371.2595;-4.8909;-6.868988;-430.999;-435.161;0.3126247;0.3901958;0;
-658.7038;0;-625.1109;-620.2611;-6.225156;-6.929068;-655.4529;-657.1744;-0.2074281;0.1299344;0;
-317.713;0;-307.6421;-314.7286;-4.276518;-2.300406;-318.4009;-320.4955;-0.1422524;-0.1300655;0;
-192.8939;0;-181.5212;-200.907;-4.33957;-2.164128;-190.0203;-196.673;0.1827273;-1.482047E-07;0;
-85.12912;0;-79.26509;-85.95026;-5.004795;3.263542;-82.50835;-91.27827;-0.0773257;-1.480558E-07;0;
487.1688;0;449.4863;434.562;-3.794317;4.934714;480.4167;472.2177;-0.3371174;-0.3248369;0;
706.0065;0;662.3649;601.6037;-7.607922;2.518492;697.7619;687.6348;0.05302542;-0.2595431;0;
314.3062;0;308.0646;313.2063;-9.207868;3.654549;310.8174;301.8249;0.3778088;0.06555438;0;
178.496;0;175.634;246.1752;0.9818139;-3.783984;171.0752;166.9642;-0.01237483;0.1304559;0;
107.5397;0;102.5567;154.5987;1.785111;-5.923636;98.62717;95.26994;-0.2722318;0.1303248;0;
-431.1726;0;-409.0393;-375.3528;6.73981;-5.314837;-432.3926;-435.3091;0.05287849;0.1951612;0;
-672.5554;0;-646.5087;-638.9055;10.55046;-8.122659;-671.775;-673.0021;-0.01214199;0.1299977;0;
-320.3063;0;-314.4007;-322.1724;-5.26763;0.1241599;-322.0255;-325.5002;-0.07709713;-0.06503493;0;
-191.4241;0;-185.9617;-205.1573;-8.41017;1.329728;-191.2675;-198.7366;0.1828497;0.06496511;0;
-87.34643;0;-89.3233;-95.63115;-6.92785;-1.886667;-89.31396;-98.02496;0.05273129;-6.751419E-05;0;
488.327;0;445.6851;432.7619;-10.33714;-0.6122175;477.3035;469.6632;-0.07725637;-0.2599368;0;
702.6034;0;653.5076;600.7424;-7.513715;-8.046464;689.7169;681.0223;0.1826906;-0.0647736;0;
319.5896;0;307.2746;316.7187;-9.448547;-9.980884;311.776;303.6524;0.3124417;-0.06470852;0;
189.7711;0;181.7163;253.0573;-4.951076;-6.822657;178.8419;176.2237;0.3121278;-0.06464349;0;
97.43918;0;90.01723;142.3586;-2.467854;-7.485631;85.89631;84.46763;0.2468468;0.3901929;0;
-438.5144;0;-418.2553;-384.0824;-13.45009;-4.330033;-439.9257;-442.0401;-0.07823791;0.2598661;0;
-663.6479;0;-646.9073;-629.448;-13.57127;-2.919041;-663.0588;-662.0477;-0.01319196;-0.1951664;0;
-324.4637;0;-330.9159;-327.5919;-17.77719;-3.251023;-328.8102;-328.9245;0.311658;-0.130003;0;
-204.8851;0;-206.7706;-223.9397;-21.44303;-1.908097;-207.2283;-212.5898;0.1814102;0.06502969;0;
-94.23476;0;-102.8649;-106.7734;-3.336819;-1.303456;-98.26225;-104.6804;0.1162605;-0.194905;0;
494.0018;0;444.4009;428.0026;0.953441;-0.6323167;481.4826;475.5707;-0.1437256;-0.0647745;0;
719.3919;0;666.2177;601.4227;-4.071359;1.377807;707.0727;698.4181;-0.5333853;0.3250946;0;
328.4277;0;314.5371;319.7096;-1.18688;2.046252;321.0559;313.0971;-0.3379473;-6.872446E-05;0;
190.2295;0;184.2239;256.9198;-4.53459;2.714025;180.8661;178.2876;-0.2076731;-0.1949707;0;
106.9551;0;99.64375;158.6484;-4.061519;3.782902;99.60013;98.89832;-0.0775297;-0.1947748;0;
-433.1934;0;-411.1372;-369.2458;-2.985711;1.434821;-430.7959;-431.8093;0.3123522;-0.06464438;0;
-675.9484;0;-646.3557;-633.1794;-3.116433;1.701311;-671.3044;-670.1304;0.1171364;0.0003879176;0;
-326.8193;0;-318.683;-320.5125;-0.2329134;0.8958062;-325.6783;-325.1302;-0.1428507;0.0003875278;0;
-191.1215;0;-180.8694;-198.689;-0.567472;0.09111092;-188.7947;-193.432;-0.07773981;0.1303218;0;
-87.54393;0;-84.98581;-92.85497;5.929832;5.583498;-89.15497;-96.47379;-0.2075964;-0.2596132;0;
491.628;0;450.2056;430.5378;8.402121;6.515648;478.7117;470.9005;-0.1424204;-0.389287;0;
712.0229;0;667.8311;603.0182;-0.7823734;6.24117;698.9948;688.6301;-0.01234266;0.1958102;0;
325.3765;0;319.6473;324.1147;-3.193461;6.569813;318.7332;309.3785;-0.2072323;0.0007114573;0;
196.2393;0;197.5123;268.6293;-0.6446567;3.54898;187.6037;183.0685;-0.2719914;-0.1941913;0;
105.0878;0;109.9203;163.2872;-2.519043;1.736997;97.64778;94.30405;-0.01184873;0.2607752;0;
-435.3087;0;-399.8715;-368.2973;-5.3969;0.9314563;-433.6208;-437.0237;-0.01183682;0.4554152;0;
-660.0081;0;-618.7969;-615.8651;-6.999067;-0.8780188;-656.323;-657.0363;-0.206727;-0.06478111;0;
-318.3289;0;-302.8337;-310.4619;-12.28332;-5.56582;-318.3331;-319.2955;0.1832848;-0.259618;0;
-192.9469;0;-182.7146;-199.1433;-14.68285;-7.703559;-191.077;-197.4108;0.3780027;0.1304469;0;
-75.81177;0;-71.71172;-74.81808;-14.06489;-12.58545;-75.44304;-83.83189;-0.07714853;0.0003811193;0;
497.4763;0;460.3429;444.746;-14.92141;-16.05592;488.5993;481.0309;-0.07707102;-0.1945213;0;
708.8699;0;664.7149;601.72;-14.77269;-10.74825;698.5651;689.0678;-0.1419609;0.1305109;0;
325.9123;0;319.0954;323.5674;-15.42744;-10.87142;319.2409;310.3779;-0.07685093;0.06541239;0;
196.0249;0;193.9625;267.9575;-8.9152;-14.14254;186.924;183.5047;-0.1417411;-0.25949;0;
116.7427;0;116.0567;172.1738;-5.892132;-15.26704;108.9003;107.4209;-0.59637;-0.194262;0;
-424.9149;0;-392.3045;-363.4176;-13.05253;-13.77807;-425.6904;-427.4182;-0.3359014;0.0008352598;0;
-666.2415;0;-636.9746;-630.6679;-12.70462;-14.03216;-667.7034;-666.9931;-0.1406619;-0.06413292;0;
-316.31;0;-317.245;-316.9416;-12.08962;-17.702;-321.3312;-320.6217;-0.2054879;-0.1290358;0;
-187.182;0;-184.3678;-198.9947;-12.81441;-18.35404;-189.6369;-192.6137;-0.1403141;0.001028517;0;
-83.60835;0;-87.66857;-90.59917;-7.57662;-23.02428;-87.74743;-92.03312;-0.4650098;0.3258642;0;
495.2473;0;450.1492;432.8538;-6.631001;-24.67572;482.4916;478.7725;-0.3346079;0.2605694;0;
712.8275;0;664.5264;601.209;-5.41889;-22.97635;699.7099;694.3078;0.1854671;-0.1944638;0;
323.9938;0;311.7857;321.6826;-3.738505;-23.35517;315.4496;311.5522;0.05534605;-0.1293011;0;
193.1089;0;187.1599;265.2626;-6.481415;-19.58078;182.262;184.4904;-0.07464425;0.455535;0;
104.9591;0;95.08051;159.6115;-5.470525;-18.02049;96.05956;99.34772;0.05536544;0.3901099;0;
-436.3119;0;-420.0686;-375.2801;-9.416167;-15.18923;-436.1445;-433.6717;0.1852445;0.4546852;0;
-668.6315;0;-645.4705;-633.4605;-11.21537;-12.09275;-668.2769;-663.4327;0.120091;0.5191957;0;
-331.1914;0;-330.48;-335.5359;-3.300843;-16.7023;-336.7092;-332.3697;0.1849377;-0.06603206;0;
-204.3597;0;-204.586;-222.7553;-2.694314;-17.28836;-208.3727;-208.7852;0.3796539;-0.4557697;0;
-86.96326;0;-95.81002;-99.28094;-2.223093;-10.17104;-92.15913;-94.57023;0.119403;-0.1304751;0;
488.8972;0;439.4547;428.0538;-1.751368;-9.022113;475.2108;473.4893;0.05431572;-0.0004093041;0;
704.0475;0;652.5309;597.8506;-2.352821;-12.42906;690.8747;687.6556;-0.0107062;-0.1953109;0;
317.4091;0;302.8007;313.9548;-1.211381;-13.68924;309.9966;307.5929;-0.07566278;0.1297221;0;
187.0306;0;177.7466;251.7954;-9.783979;-12.73773;177.7514;180.0353;0.5091193;0.4544284;0;
107.2576;0;102.9805;158.0269;-11.31439;-13.52872;99.48707;103.1429;0.1188037;-0.0007996006;0;
-439.5753;0;-404.4305;-376.5508;-11.1693;-16.86415;-437.593;-434.6279;-0.4660217;0.06416854;0;
-679.3879;0;-637.969;-641.1017;-13.10046;-16.98117;-675.7833;-671.7593;-0.1407168;0.5188755;0;
-321.2599;0;-313.2409;-322.0551;-3.106961;-25.33685;-324.1557;-321.2602;0.119294;0.3884194;0;
-187.4417;0;-185.865;-200.9797;-0.826663;-28.12456;-190.7719;-192.8767;-0.01076057;0.06319241;0;
-88.74036;0;-91.85041;-96.01788;0.4469654;-18.78592;-93.25412;-97.54325;-0.07571709;-0.001838424;0;
487.9965;0;445.9091;427.3781;3.460626;-17.02548;475.8036;471.8311;-0.4654451;0.3230001;0;
709.582;0;664.6009;600.3615;0.1072703;-15.46789;697.7762;691.6838;-0.5299447;0.2577083;0;
321.6262;0;316.7326;321.9604;1.178889;-13.71079;315.3919;310.4925;-0.07464084;0.06254727;0;
192.9925;0;194.3508;268.3511;-1.300542;-9.343246;184.5156;184.6187;-0.2045005;-0.06745026;0;
100.9072;0;105.6375;160.9478;-2.102542;-7.726268;93.87569;95.10304;0.185509;-0.2622845;0;
-445.9818;0;-402.9006;-375.6942;-0.02432448;-8.187385;-443.7609;-442.0351;0.6400939;-0.06711894;0;
-673.7314;0;-623.8845;-624.504;-1.229749;-7.576312;-669.2015;-664.7912;0.2496468;0.06288318;0;
-334.0374;0;-313.226;-321.6534;6.072505;-13.86497;-332.5105;-328.9792;0.1194613;-0.002147348;0;
-201.6432;0;-184.5383;-203.5144;8.678371;-14.85579;-198.4311;-199.2137;-0.01059347;0.06282215;0;
-73.50484;0;-64.41312;-68.12785;-0.3726788;-22.54365;-72.48242;-74.88841;-0.1405175;-0.002208314;0;
501.4675;0;466.7596;449.4305;-2.247338;-26.60684;492.9312;490.6526;0.2494277;0.1277286;0;
707.4224;0;668.3766;600.7776;2.510342;-20.55188;699.1445;694.4319;0.5740138;-0.1322691;0;
317.5322;0;317.506;321.7514;1.971956;-23.14344;316.1967;312.2384;0.2486003;-0.3270382;0;
187.9031;0;191.1878;266.5182;0.4297332;-12.20221;184.445;185.6132;-0.4662902;0.1930291;0;
108.5666;0;114.4092;170.1737;0.6293961;-9.041878;105.6117;108.7152;-0.5957564;0.4527045;0;
-429.9594;0;-394.2002;-359.1688;-6.403834;-19.54887;-423.9158;-421.2527;-0.4002557;-0.00252176;0;
-669.1569;0;-636.7444;-623.3;-9.076716;-19.12733;-662.1824;-658.1476;-0.3348862;-0.1974213;0;
-323.5954;0;-315.3909;-314.7035;-0.6948519;-27.94961;-321.5004;-318.4068;0.2501564;0.1276138;0;
-189.7748;0;-180.5166;-193.9478;2.118885;-30.80179;-186.5575;-187.6524;0.444807;-0.06741642;0;
-85.88625;0;-86.19503;-86.86916;-3.509322;-28.49343;-85.54575;-87.20173;-0.2053133;0.062586;0;
489.0361;0;446.0616;430.0208;-1.697135;-30.20635;478.8191;478.4766;-0.4000091;0.5172945;0;
708.7465;0;661.255;598.4414;-1.093193;-21.46834;697.6027;694.4495;-0.3346398;0.06200333;0;
316.9185;0;305.0193;312.8583;-2.364892;-18.96852;310.0338;306.7588;-0.07443417;-0.1979283;0;
186.1031;0;178.8386;253.5736;16.99592;-17.54282;175.5397;177.203;0.3154447;-0.06779477;0;
103.9573;0;99.26128;156.43;22.27013;-14.97996;94.40398;98.00216;0.185193;-0.3925634;0;
-434.8139;0;-411.6442;-375.2725;13.00435;-13.89319;-436.2992;-432.4547;-0.2047971;-0.1972669;0;
-665.9481;0;-641.7397;-632.391;13.25872;-11.73577;-666.245;-661.3424;-0.2045913;0.1927354;0;
-326.824;0;-325.6909;-329.0327;7.686673;-17.48439;-330.1816;-326.9706;0.05548362;-0.132295;0;
-201.0587;0;-201.1136;-216.571;4.798561;-18.60553;-202.4764;-203.6414;-0.07450681;-0.002227377;0;
-82.97842;0;-92.21619;-95.22674;1.444837;-17.38114;-85.95638;-89.0568;-0.3992687;0.1277096;0;
494.7521;0;442.4203;435.1649;-1.235932;-18.30144;482.9066;479.8718;0.1208713;-0.1322881;0;
700.2764;0;642.8123;598.4578;-3.579215;-16.60848;687.9431;682.4125;0.1857172;-0.1321552;0;
310.0811;0;288.9065;304.7538;-5.250558;-16.39084;302.1329;296.9203;-0.3342082;-0.1320224;0;
187.2686;0;169.9258;243.5407;-3.704065;-14.63294;176.205;176.3074;-0.1389703;-0.4567265;0;
105.1841;0;90.85724;146.1573;-5.24156;-13.01064;95.38094;97.35733;-0.07386337;-0.4562675;0;
-434.5879;0;-414.73;-383.6608;7.289637;-15.14102;-435.2607;-433.4113;-0.008821811;-0.06600505;0;
-668.9706;0;-646.8214;-641.6454;10.69856;-15.25978;-668.5184;-665.0466;0.3809911;-0.000971389;0;
-331.0305;0;-337.8889;-340.2768;6.802072;-11.02452;-335.7636;-333.2323;0.1207389;0.1289643;0;
-200.8881;0;-210.5507;-223.8683;10.34521;-10.41072;-204.8668;-206.8983;-0.009317087;0.2587694;0;
-89.05489;0;-105.0796;-106.7646;-6.678117;-10.06534;-94.77872;-99.05703;0.05565962;0.06360734;0;
487.4324;0;429.3199;423.0764;-11.96269;-9.653329;472.0941;467.7576;0.2505057;0.06354342;0;
706.6447;0;643.5931;598.9377;-1.099681;-12.38981;689.8851;683.8038;0.3801887;0.2583816;0;
312.2575;0;289.6241;305.9828;-3.174681;-12.84624;301.3243;296.4986;0.249872;0.3880567;0;
180.0101;0;165.8326;243.7066;2.588309;-16.85218;167.6511;167.3279;0.4445229;0.1277974;0;
101.4311;0;92.57772;152.7573;4.59544;-18.91172;90.27142;91.32289;0.1842069;-0.6519392;0;
-437.4625;0;-415.7598;-375.6307;-1.906888;-16.07944;-438.8658;-437.3157;-0.2057822;-0.1965127;0;
-667.9694;0;-646.0386;-627.439;-1.100689;-16.46518;-665.8106;-663.1376;0.05429391;0.3883909;0;
-325.5325;0;-323.6137;-319.7754;-8.065807;-17.38639;-327.8736;-326.0778;-0.01072798;-0.3266402;0;
-197.8944;0;-192.042;-205.0741;-10.4686;-17.8378;-199.4835;-201.0628;-0.2056192;-0.2613446;0;
-86.25153;0;-88.21364;-85.99026;-6.439594;-15.60944;-89.33834;-92.22791;0.05445674;-0.06617999;0;
486.7346;0;443.7951;435.4591;-8.375506;-14.99104;473.9059;471.7063;-0.4003694;-0.1310808;0;
703.324;0;657.4916;600.3759;2.215481;-14.57408;689.8834;685.812;-0.5299017;0.5187243;0;
313.2505;0;305.5075;315.0408;6.768582;-12.01408;305.0707;302.003;0.2502388;0.1933664;0;
179.0655;0;176.89;254.6919;-5.897871;-21.24541;168.4577;170.1407;-0.009882015;-0.06669729;0;
98.05122;0;99.31369;159.921;-6.093016;-23.09958;88.8284;91.94641;-0.1398068;0.3231738;0;
-440.6516;0;-403.6583;-367.5996;-6.019545;-11.68952;-439.8701;-436.2555;0.4450398;0.127947;0;
-673.1542;0;-631.7629;-623.9762;-8.961233;-9.802372;-669.9373;-664.6396;0.1197559;-0.00211622;0;
-330.0874;0;-319.1599;-319.377;3.975843;-4.701942;-331.8088;-328.1406;-0.01029912;0.1927879;0;
-202.4447;0;-194.839;-205.2383;6.115302;-0.6112587;-202.9774;-203.7483;0.1846133;0.3225289;0;
-90.73487;0;-88.38416;-86.90398;0.0135882;-5.768209;-93.01617;-94.66077;0.05449307;0.3222048;0;
483.2553;0;443.8122;435.4208;0.549438;-5.963361;472.7305;471.4623;-0.205431;-0.06792298;0;
697.6617;0;651.8864;598.6511;-6.551061;-1.067737;687.5847;683.5693;-0.3351593;-0.3277241;0;
308.7808;0;299.0334;311.6935;-8.35314;-0.7317496;301.7749;298.763;-0.1399205;0.06240925;0;
179.9727;0;173.8582;253.1595;-11.09141;-2.338605;169.4131;170.7145;-0.1397799;0.1922812;0;
104.5172;0;100.0955;162.0134;-13.89331;-1.465477;95.28003;97.8295;-0.1396395;-0.1327487;0;
-433.6924;0;-401.0657;-366.3839;-4.970739;-10.64042;-433.2376;-430.9406;0.2503049;0.1922214;0;
-673.261;0;-635.6696;-629.5708;-2.62122;-13.51;-669.6832;-666.2016;0.5099227;0.516865;0;
-327.4455;0;-322.7503;-323.5917;-5.766418;-8.539806;-328.369;-325.6405;0.5743777;0.1915089;0;
-198.1188;0;-196.5518;-207.5122;-4.756246;-10.67456;-198.0419;-198.7519;0.3788986;0.1913165;0;
-97.09538;0;-99.84029;-98.85822;-0.5319077;-0.1477554;-98.20552;-100.0392;-0.01128622;-0.003777777;0;
482.0861;0;437.0527;425.8524;0.6077026;3.067452;472.3564;470.2747;-0.07624222;-0.198676;0;
705.3642;0;655.7534;599.587;3.420131;-5.911099;695.7692;690.5662;-0.01119827;-0.00357435;0;
