Fp1;Fp2;O1;O2;POLY3;POLY4;A1;A2;Video;Audio;event;
-240.7094;0;0;-200.5053;6.354755;2.673786;-227.5796;-222.4634;0.4247565;-0.1387703;0;12:33:44 Глаза закрыты;
-696.3633;0;0;-651.9518;1.995089;6.221072;-677.7495;-672.8259;0.4243297;-0.2685655;0;
-436.2316;0;0;-434.5307;1.590943;7.956378;-422.8838;-416.8407;0.2290013;-0.138361;0;
-224.3995;0;0;-233.0701;2.995864;5.871912;-211.9397;-207.9641;-0.09606552;-0.008287247;0;
-246.1629;0;0;-255.1997;2.859132;5.464115;-234.6527;-232.6177;-0.03100165;-0.2681483;0;
266.7017;0;0;220.8176;2.186674;-1.038476;268.4553;271.4878;-0.1609052;-0.07297683;0;
710.2107;0;0;664.4976;0.576886;-3.448818;708.9015;710.7441;-0.3556455;0.7067046;0;
396.2795;0;0;397.0265;8.278489;-10.47844;401.9057;402.2471;-0.2253535;0.3161905;0;
194.7949;0;0;206.2233;10.74842;-14.01788;201.29;204.1298;-0.1601597;-0.07393131;0;
233.3297;0;0;246.0584;-1.117751;-13.40095;239.381;244.0296;-0.2249661;0.3159471;0;
-238.855;0;0;-193.9678;-3.795945;-15.32999;-224.8139;-222.2939;-0.02983806;0.1856949;0;
-672.2096;0;0;-628.1795;-0.2421579;-8.750382;-655.3715;-652.6666;0.1001266;0.05557362;0;
-434.7157;0;0;-428.5234;-1.849505;-7.468915;-422.8919;-418.0034;-0.1598434;-0.009449572;0;
-250.3713;0;0;-251.3691;-0.9096415;-2.638761;-237.9348;-235.3625;-0.2246501;-0.2693094;0;
-251.619;0;0;-252.4284;-0.1054203;0.9138643;-238.8826;-237.3748;-0.09448969;0.05579788;0;
271.496;0;0;235.9549;-6.468327;-4.914447;274.5995;278.8543;-0.4841988;-0.00922554;0;
713.0636;0;0;674.997;-7.533555;-5.043475;711.2289;713.6679;-0.3537776;-0.07418361;0;
401.1286;0;0;408.7647;-2.569492;-4.167629;405.2927;404.6058;0.4911533;0.5755644;0;
186.5831;0;0;204.394;-1.226763;-4.498356;191.8675;194.4922;0.4906598;-0.00972006;0;
230.3111;0;0;245.3555;0.180989;-7.306997;235.1529;240.3361;0.1653301;-0.3995143;0;
-235.9986;0;0;-187.1113;1.989468;-8.304399;-222.9158;-219.1745;0.2950987;-0.2691782;0;
-685.1605;0;0;-634.5733;2.790776;-7.96114;-667.5307;-662.2939;0.3597695;-0.3988424;0;
-431.9115;0;0;-424.6658;2.989043;-8.823919;-418.5473;-411.5042;0.164506;-0.07360497;0;
-230.0163;0;0;-232.7729;9.884915;-2.987659;-217.4151;-213.0028;-0.160496;-0.00856367;0;
-252.1489;0;0;-255.4025;12.21951;-0.3724451;-239.8103;-237.2765;0.1645019;-0.1384898;0;
264.6573;0;0;225.6125;4.303976;-5.261703;268.6128;271.7687;0.424206;0.05655145;0;
715.4771;0;0;675.597;3.227924;-5.390382;716.0553;717.6464;0.2938451;0.1864293;0;
401.728;0;0;406.7404;0.1432218;-0.2274017;408.615;409.3923;-0.09625423;0.2512093;0;
197.3019;0;0;210.5551;-2.803683;0.6436049;204.057;208.8316;-0.3560269;0.1859896;0;
240.8942;0;0;250.7608;1.753485;1.37977;246.0183;253.0369;-0.09579977;0.1208353;0;
-237.2951;0;0;-192.456;2.086516;2.584077;-225.0547;-219.2925;-0.03073617;-0.009220773;0;
-673.7122;0;0;-625.8572;-1.398205;-1.035476;-657.0488;-650.7927;-0.16064;0.05575585;0;
-423.4107;0;0;-418.02;-1.062007;-1.235384;-410.075;-403.3878;-0.2254459;0.1206672;0;
-241.4515;0;0;-243.3126;-1.664153;-2.104921;-228.1292;-224.4472;-0.2901867;0.2504806;0;
-250.6417;0;0;-251.7512;-2.332066;-3.040567;-237.1453;-235.0287;-0.4847971;0.4451309;0;
277.4073;0;0;239.0676;5.105017;1.182291;282.5194;285.7583;-0.289408;0.1848143;0;
714.034;0;0;673.4214;7.10962;1.917915;715.018;717.6913;0.0357195;-0.1402081;0;
398.4123;0;0;405.3167;6.566612;3.724527;405.08;407.126;-0.09425107;-0.2050346;0;
195.8011;0;0;216.1918;8.83719;5.663167;203.0868;207.3796;0.03577831;-0.2697959;0;
235.8967;0;0;253.0185;1.125151;3.112248;242.8001;247.4635;0.1007097;-0.2045575;0;
-238.5395;0;0;-191.6998;-0.9520845;3.77895;-223.3346;-220.4251;0.1655758;0.1204848;0;
-677.6415;0;0;-630.9738;3.202058;4.980724;-658.5164;-654.7977;0.3603115;0.5751351;0;
-423.1507;0;0;-415.3229;1.523901;5.578566;-408.9173;-404.2654;-0.09482193;0.1197858;0;
-228.2607;0;0;-226.4378;8.823387;7.448482;-215.1037;-212.5178;-0.2246613;-0.1402039;0;
-244.8979;0;0;-247.3247;12.56557;7.976861;-231.5666;-230.795;0.2953031;0.4446431;0;
276.836;0;0;234.4943;-3.991478;11.25089;282.2204;283.9908;0.2300391;0.3142616;0;
719.6476;0;0;676.4739;-7.872233;12.51226;721.0911;721.7977;0.3597426;-0.4006949;0;
397.7735;0;0;400.8698;2.249733;11.49494;405.3374;404.7314;0.4243485;-0.4002923;0;
190.1654;0;0;203.9408;0.4388115;12.35417;198.7837;201.7391;-0.160784;0.1198486;0;
232.3905;0;0;245.5274;5.864354;10.53322;240.2505;244.6397;-0.5504265;0.1846956;0;
-241.1051;0;0;-191.937;7.197632;10.79057;-225.1945;-222.3715;0.03483268;-0.07535941;0;
-673.9576;0;0;-620.2787;-2.722586;8.36846;-654.2525;-650.2454;0.1647324;-0.01031635;0;
-424.343;0;0;-416.3202;-3.791577;6.886426;-410.03;-405.2773;-0.1602699;0.05466137;0;
-238.0726;0;0;-245.8624;-11.22251;13.37673;-223.649;-222.5242;0.2296952;0.1845411;0;
-240.9568;0;0;-249.3634;-13.55575;14.23407;-225.7356;-226.8608;0.3593991;0.3142904;0;
287.8321;0;0;244.2641;-14.14535;14.55456;292.106;294.1054;-0.03076608;0.05410522;0;
719.0135;0;0;674.9271;-16.20724;15.67864;717.7234;720.2205;-0.03073516;-0.3357532;0;
399.3889;0;0;402.8228;-7.684487;12.38085;404.7842;405.0299;-0.03070428;-0.2704485;0;
195.3399;0;0;207.2662;-7.744114;11.89953;201.7293;204.9733;-0.1606081;-0.1402421;0;
232.1251;0;0;240.3537;4.655876;9.074408;237.9458;242.6858;-0.03051205;-0.07513381;0;
-240.4957;0;0;-196.9806;9.942483;6.452955;-226.8098;-224.9482;0.1644206;0.05487638;0;
-679.4708;0;0;-633.0634;-2.526089;11.47007;-663.2374;-660.1282;0.09928808;-0.07511345;0;
-430.4754;0;0;-426.2184;-1.987687;12.12837;-420.3177;-416.0873;-0.2256484;-0.1400053;0;
-235.9529;0;0;-239.5713;-11.63123;5.953879;-226.1178;-225.5773;0.09941505;-0.009929962;0;
-249.0841;0;0;-253.386;-15.63803;5.545999;-238.5717;-238.6564;0.6190539;0.5747861;0;
275.0903;0;0;233.5615;-12.47449;4.133784;277.5337;279.698;0.2935952;0.8340779;0;
714.8427;0;0;672.9808;-15.14127;2.991043;714.0353;715.3228;-0.03153656;0.2485338;0;
391.4742;0;0;395.7561;-6.484892;8.078618;396.9144;397.0762;-0.09647221;0.1183494;0;
188.6201;0;0;202.8302;-4.46962;8.27145;194.617;197.7771;0.03355941;0.4430671;0;
232.0336;0;0;243.1685;-5.067366;10.07156;236.9626;241.3689;-0.1613763;0.3126872;0;
-246.4591;0;0;-199.9157;-3.053518;9.659538;-233.6641;-231.1362;-0.2261815;-0.01246365;0;
-683.3043;0;0;-633.5593;-4.322271;9.783798;-667.1487;-662.9368;-0.09601957;-0.01245113;0;
-429.9947;0;0;-424.4649;-2.978758;9.171121;-419.6025;-413.6457;-0.4857271;0.1174961;0;
-243.5311;0;0;-244.5037;-9.539848;1.39213;-232.8371;-230.6343;-0.4202718;0.1823454;0;
-251.6572;0;0;-251.5043;-12.87916;-0.5517742;-239.7245;-239.7729;-0.09501275;0.3120968;0;
279.2039;0;0;242.3128;-3.08696;-11.40209;283.1911;285.3292;-0.224852;0.1818485;0;
712.7053;0;0;676.2261;-2.07948;-16.41435;713.5651;714.764;-0.3545607;-0.2731056;0;
393.1495;0;0;401.1845;-7.301327;-9.565722;399.3807;399.1416;-0.2892371;-0.2078638;0;
190.731;0;0;210.1272;-6.691755;-9.690076;197.5181;200.5902;0.1008576;0.3770511;0;
222.3359;0;0;242.4622;-12.37846;-6.063383;228.1792;233.497;0.4255929;0.2467376;0;
-253.7733;0;0;-200.8087;-14.50947;-2.976075;-239.8775;-236.1267;0.1652959;-0.5331184;0;
-681.803;0;0;-625.6433;-6.054801;-1.030702;-663.361;-659.1142;0.1651298;-0.6625174;0;
-433.2426;0;0;-417.6189;-4.106334;1.984566;-420.7535;-415.4491;0.1649639;-0.3370151;0;
-247.338;0;0;-241.725;-5.241284;5.733494;-236.1108;-233.6853;0.2297655;-0.2067417;0;
-249.6507;0;0;-247.9164;-3.092564;8.273084;-237.4978;-237.0112;0.6193387;-0.2715013;0;
278.3349;0;0;238.7133;-3.290527;7.32701;283.0418;285.4644;0.163945;-0.1412939;0;
709.4634;0;0;667.6952;-2.482938;7.118699;711.7293;713.8372;-0.6158279;0.1187175;0;
387.9742;0;0;390.2884;2.743494;7.446461;396.7971;396.7164;-0.3553397;0.3135003;0;
188.6844;0;0;198.7423;4.080884;6.032337;197.5609;198.4798;-0.1600806;0.1182832;0;
228.787;0;0;239.397;4.880091;2.543285;235.5931;237.7605;-0.1599198;-0.141705;0;
-251.7014;0;0;-203.1212;5.20998;0.1293443;-236.7813;-234.866;0.1001103;-0.01162795;0;
-682.1695;0;0;-633.2008;3.329711;-4.492486;-663.3289;-659.9787;0.2299444;0.1183184;0;
-424.051;0;0;-422.6701;2.321987;-6.966218;-412.9753;-407.817;0.09977864;-0.01173516;0;
-236.9687;0;0;-242.898;-1.297669;-8.700775;-227.341;-224.5616;-0.160191;0.1182113;0;
-245.851;0;0;-246.9643;-3.037677;-8.825998;-233.2345;-232.8941;-0.03009534;0.2480272;0;
283.0053;0;0;245.0367;-7.455254;-13.43883;287.9256;290.0146;0.3597389;-0.4018954;0;
710.8182;0;0;668.7649;-10.19443;-15.56878;711.5482;712.5107;0.3593775;-0.3365242;0;
385.2673;0;0;384.9227;-7.170076;-1.018207;391.931;390.2064;-0.3556244;0.443422;0;
192.8517;0;0;200.0662;-7.430315;2.064031;199.5712;200.5345;-0.7450711;0.3130418;0;
231.0137;0;0;239.2828;-7.221778;4.942101;236.3521;240.9376;0.03528565;-0.07707684;0;
-255.1617;0;0;-208.4202;-6.478564;9.42487;-242.3324;-238.3762;0.6199563;0.05293531;0;
-681.5034;0;0;-631.498;-5.065534;0.7078627;-665.4387;-661.6113;0.4244313;-0.01208524;0;
-425.0097;0;0;-414.7846;-3.988718;0.8411173;-414.2709;-408.8857;0.2291028;-0.1420078;0;
-247.1718;0;0;-244.5157;-1.305392;0.5053575;-237.3184;-233.4379;0.2288726;-0.4017344;0;
-249.922;0;0;-252.141;1.576307;0.6388156;-239.5787;-238.2008;0.09870796;-0.5312654;0;
284.4982;0;0;243.6757;-5.123082;-0.2995874;286.7726;288.9612;-0.2262279;-0.1409276;0;
706.9998;0;0;666.0934;-6.189661;-1.303908;705.0865;706.7107;-0.03109859;0.1190834;0;
387.3872;0;0;392.124;3.796893;10.55301;390.9106;390.9715;0.228802;0.05399638;0;
191.4712;0;0;207.76;6.606117;13.55664;194.8037;197.5506;-0.1612319;0.2488441;0;
222.6381;0;0;236.2243;4.92454;17.15998;224.2181;228.9612;-0.745776;0.1836268;0;
-257.0946;0;0;-212.3502;6.996673;21.09461;-246.5207;-243.0941;-0.4201899;-0.2063618;0;
-682.4973;0;0;-635.4865;6.38643;15.44697;-666.5617;-662.8263;-0.1598984;-0.2711218;0;
-418.7563;0;0;-412.5222;6.112569;16.03429;-409.0211;-404.4148;-0.09477035;-0.400784;0;
-235.8647;0;0;-237.0707;11.12929;11.53045;-227.1388;-225.2233;0.03525956;-0.2054793;0;
-249.2459;0;0;-252.1998;10.44853;8.236817;-240.2164;-239.8021;-0.3545799;0.1845312;0;
289.1091;0;0;245.9908;14.45651;15.26151;288.6342;290.9847;-0.419191;0.1193785;0;
721.6635;0;0;676.4022;16.11693;15.38014;717.0038;718.2899;-0.3538024;-0.01067619;0;
391.1667;0;0;394.8637;0.2932495;10.47505;393.1957;393.2311;-0.2884796;-0.1406001;0;
188.8126;0;0;204.3125;-4.529816;9.325815;192.4014;195.6851;-0.02832035;-0.2703936;0;
226.3539;0;0;236.0287;-2.047018;9.45041;229.002;233.7818;0.3615122;-0.2051545;0;
-255.3815;0;0;-213.2328;-4.523208;8.637241;-245.2398;-241.9017;0.2312142;0.1848557;0;
-685.2836;0;0;-638.8045;-9.542505;6.887006;-671.4665;-666.6325;-0.5486262;0.6394413;0;
-421.9146;0;0;-418.2731;-13.08289;5.272496;-414.1708;-408.0923;-0.2882056;0.5088641;0;
-234.9594;0;0;-241.4415;-3.557924;7.276686;-228.7226;-225.6487;0.3617574;-0.1413206;0;
-238.9087;0;0;-247.4458;-0.8086586;6.93446;-233.053;-232.4809;0.2314592;0.05372344;0;
294.3759;0;0;251.1773;-9.850176;2.573723;291.9799;294.0506;-0.02864268;0.3785062;0;
706.4353;0;0;669.5895;-10.37614;1.164496;702.0427;703.4243;0.1662881;-0.1416129;0;
375.5789;0;0;385.3717;-5.945086;-1.047111;377.8124;377.256;0.2310884;-0.07650328;0;
182.1736;0;0;200.1399;-5.268551;-3.323357;185.5917;187.4097;-0.02901319;-0.01145906;0;
216.5357;0;0;232.6724;-4.392601;-2.047342;219.2632;223.0159;-0.09395138;-0.4012516;0;
-253.4458;0;0;-206.3409;-3.58488;-2.983046;-244.7865;-242.037;0.101045;-0.01104437;0;
-669.9191;0;0;-622.6741;-2.174759;-5.123502;-658.0201;-654.4614;0.1659109;0.2488361;0;
-405.0038;0;0;-401.5968;-0.698705;-5.7212;-398.2392;-393.1223;0.1007768;-0.07625065;0;
-219.1901;0;0;-223.1578;-4.716491;-7.925766;-212.7446;-210.3815;0.03570821;-0.2061087;0;
-246.5185;0;0;-245.9845;-6.051898;-8.3197;-238.8926;-239.0931;-0.02929501;-0.1409343;0;
283.2755;0;0;243.8916;-0.4861121;-8.579272;281.8358;283.9469;-0.1592003;-0.07582532;0;
722.8323;0;0;676.3665;-0.08348199;-8.570652;717.0212;718.6929;-0.02910561;-0.07574913;0;
381.902;0;0;383.2714;-1.222474;-7.42333;382.4061;381.7023;-0.02907637;0.05426168;0;
176.5588;0;0;192.0447;-0.6180332;-7.683803;177.9369;179.7326;-0.3538839;0.1191745;0;
226.5437;0;0;238.4533;-1.957559;-2.183604;227.2957;230.5264;-0.09365891;0.05408741;0;
-248.8826;0;0;-208.3743;0.1205129;-0.6409241;-240.6975;-239.3442;0.2962393;-0.01093429;0;
-665.8603;0;0;-626.6421;-6.510065;-2.917578;-655.1847;-652.2086;0.03607222;-0.33576;0;
-396.014;0;0;-399.1889;-6.838315;-2.110851;-390.8464;-386.2491;-0.02893137;-0.205488;0;
-223.5776;0;0;-235.6823;0.6696678;-7.534225;-218.7275;-217.3207;0.4908364;0.5743266;0;
-237.7832;0;0;-252.2496;0.668995;-9.268211;-232.5007;-233.719;0.4253759;0.3138802;0;
295.6252;0;0;245.0666;18.15075;-9.99571;293.0314;293.1886;0.1001118;-0.01127193;0;
706.1217;0;0;657.3629;24.02701;-12.93279;700.532;700.5016;0.2299459;0.4435108;0;
376.5775;0;0;373.2824;16.03226;-8.699996;376.1158;374.024;-0.2250566;0.3780978;0;
190.7923;0;0;196.1212;17.28895;-9.829965;189.7688;190.1155;-0.5496671;-0.01208616;0;
222.3971;0;0;224.2224;8.496691;-9.150258;220.5626;223.0953;0.03559123;-0.3369107;0;
-259.4593;0;0;-224.0277;4.133897;-7.399508;-252.8587;-252.1401;0.4253595;-0.6614089;0;
-674.9271;0;0;-636.0329;3.728578;-20.4535;-663.8354;-662.7427;-0.09480661;-0.2059729;0;
-407.508;0;0;-412.0061;0.1748577;-22.84421;-402.5494;-400.4583;-0.224646;0.3139728;0;
-223.5033;0;0;-237.6795;-3.576362;-21.48172;-220.2363;-221.2708;0.4252531;0.443592;0;
-244.0808;0;0;-256.3062;-5.917293;-24.00537;-238.943;-241.2883;0.2948911;0.2482442;0;
286.7727;0;0;238.4527;-6.313489;-13.3312;284.2217;283.6279;-0.4850133;-0.07684192;0;
719.5794;0;0;670.6208;-7.177802;-11.44229;712.5332;710.878;-0.2896239;0.05316999;0;
380.1516;0;0;378.3435;-3.151125;-9.153491;379.4218;376.0816;0.03550381;-0.07681814;0;
177.9336;0;0;186.0598;-1.741439;-5.259405;178.4539;177.9282;-0.09446654;-0.271643;0;
227.6672;0;0;233.7863;1.006001;-14.69847;227.0626;228.9112;-0.2243063;0.4432707;0;
-252.6327;0;0;-214.2235;3.349514;-14.88465;-245.9904;-244.8933;-0.0291789;0.6377274;0;
-677.1029;0;0;-638.7323;1.001624;-16.94604;-666.5317;-664.7485;0.3606545;0.3772172;0;
-403.06;0;0;-404.8952;1.33541;-19.94325;-398.1841;-395.778;0.2953247;0.3118708;0;
-223.6824;0;0;-231.8876;0.2623416;-7.665575;-219.686;-221.1554;0.2300607;-0.07824659;0;
-237.7005;0;0;-248.9584;-1.345512;-4.710746;-233.0209;-236.8627;0.09989481;0.05176673;0;
300.393;0;0;250.041;2.541582;-10.66737;295.9474;295.0456;-0.549879;0.3115841;0;
716.1945;0;0;667.0176;3.945548;-9.383977;707.8804;707.0419;-0.3544244;-0.07853307;0;
385.2034;0;0;383.8018;-6.307172;-10.78119;384.2689;381.4948;0.4905071;-0.3383235;0;
196.2236;0;0;207.4422;-8.376939;-11.90894;195.9148;195.892;0.4250469;-0.1430815;0;
222.4507;0;0;236.0942;-5.019619;-4.395134;220.9552;223.1814;0.03481578;-0.2079051;0;
-264.0909;0;0;-215.3537;-6.622166;-3.051059;-256.7768;-255.24;-0.4199906;-0.2726636;0;
-672.6201;0;0;-625.9308;0.6181568;-6.263052;-661.5652;-659.6552;-0.2896339;0.1174145;0;
-404.1413;0;0;-403.8507;1.82396;-6.390725;-397.7202;-395.6872;0.1654285;0.1822638;0;
-230.2599;0;0;-237.6532;0.8841227;-9.666467;-222.0961;-222.1891;0.100295;-0.2726907;0;
-243.6467;0;0;-250.6578;1.954961;-11.53215;-234.679;-235.9588;0.03522683;-0.2074494;0;
292.7036;0;0;249.4053;-4.879506;-11.58755;292.3545;292.2004;0.1001588;0.1175958;0;
720.8192;0;0;678.6263;-6.414845;-12.58065;716.4099;715.194;0.2949602;0.182445;0;
388.3866;0;0;391.8383;-9.422509;-15.11336;390.3536;387.5772;0.1647291;-0.3374771;0;
185.0359;0;0;199.2287;-11.55649;-15.90197;188.625;188.6626;-0.2252405;-0.5970073;0;
224.1427;0;0;237.759;-10.47316;-16.28777;226.9162;229.1401;0.09982257;-0.4664728;0;
-254.4671;0;0;-207.3812;-11.06585;-16.6733;-244.8248;-243.9775;0.424559;-0.3360694;0;
-675.3746;0;0;-626.9619;-8.57648;-13.30752;-661.994;-661.5223;0.164263;-0.010895;0;
-406.0186;0;0;-398.7588;-8.299442;-12.08846;-397.3365;-396.0532;-0.03080407;-0.0758514;0;
-227.7001;0;0;-227.6314;0.7512271;-10.33488;-219.5265;-219.9311;0.03419422;-0.2057099;0;
-237.0914;0;0;-241.2707;6.712319;-8.515952;-228.2389;-230.3922;0.03415986;0.1193336;0;
300.3768;0;0;258.7205;-6.28887;-11.85642;300.4748;300.0728;-0.2907112;0.2491483;0;
714.1793;0;0;677.2501;-6.752042;-13.31813;709.717;709.0031;-0.4853211;0.248898;0;
386.6884;0;0;394.024;2.766563;-5.936748;388.0402;386.14;0.0349053;0.2486479;0;
197.5198;0;0;210.5951;3.901883;-4.122365;198.7453;200.0329;0.2947396;0.1834307;0;
218.9979;0;0;230.6858;9.190225;-13.22766;219.535;221.8833;0.1645088;0.3131811;0;
-266.6656;0;0;-224.1924;11.12337;-14.62101;-256.6338;-256.6617;0.3592455;0.2478991;0;
-667.571;0;0;-629.8257;11.71443;-15.41011;-654.6133;-653.0169;-0.1608542;-0.2071214;0;
-396.2238;0;0;-400.1205;12.77439;-17.06908;-390.0257;-385.9947;-0.5504966;-0.53175;0;
-228.8471;0;0;-236.6754;7.738687;-12.29626;-222.8426;-221.5643;-0.09517211;0.1834251;0;
-239.9865;0;0;-249.556;5.92225;-10.54247;-233.2384;-234.8349;-0.1600438;0.5730448;0;
299.9209;0;0;252.63;1.896835;-11.60348;298.229;297.8835;-0.02994833;0.3125996;0;
714.7234;0;0;670.1037;-1.587695;-9.716425;708.9727;707.628;0.1000164;0.7670569;0;
379.8607;0;0;379.9509;-1.85452;-7.898123;378.9883;376.5206;-0.1599534;0.1166128;0;
186.3886;0;0;194.3497;-3.861412;-6.684494;186.4541;187.1747;-0.09482536;-0.4682105;0;
224.1822;0;0;232.5726;-7.675925;0.2212205;225.0597;227.029;-0.02976273;0.1819334;0;
-258.9878;0;0;-215.1861;-10.21381;2.565401;-250.1776;-249.7096;0.2951039;-0.1430862;0;
-681.7649;0;0;-636.2582;-6.586223;3.969465;-670.7147;-669.9348;0.1648727;-0.01300769;0;
-407.0926;0;0;-405.2971;-6.445883;6.309757;-402.2379;-400.959;-0.225097;-0.01299462;0;
-226.0868;0;0;-233.2886;-8.515511;0.4760236;-221.9866;-223.0204;-0.02996884;-0.3378183;0;
-241.6017;0;0;-248.7963;-8.104813;-0.3282498;-237.0059;-239.9127;0.09999596;0.2472273;0;
300.8685;0;0;255.3254;-10.64226;-2.069354;296.0269;295.6218;-0.2249412;0.1170442;0;
716.4196;0;0;669.548;-11.23478;-4.746592;707.9597;707.2427;-0.2247152;-0.2728775;0;
383.4917;0;0;380.6451;-9.080041;2.492212;382.5366;379.6964;0.3602167;-0.59744;0;
201.6976;0;0;206.8498;-8.333983;3.829366;200.4311;200.7796;0.4248221;-0.466905;0;
222.7967;0;0;228.6309;-9.732129;-0.1934574;220.2196;221.4424;-0.09534353;-0.07663184;0;
-275.6767;0;0;-232.742;-9.856071;0.8114809;-269.1933;-270.5954;0.03468695;-0.4013915;0;
-677.0728;0;0;-631.6201;-3.415807;-2.270427;-666.7853;-666.9367;0.09961944;-0.3360209;0;
-404.2168;0;0;-401.913;-0.06347188;-3.27289;-398.4373;-396.5271;0.034552;0.05412082;0;
-237.7066;0;0;-243.9634;-6.49377;2.758741;-231.1834;-231.3365;0.2294193;-0.1408356;0;
-238.0925;0;0;-244.8427;-6.553617;3.358815;-231.5758;-233.5404;0.03428676;-0.01075941;0;
304.3742;0;0;262.9607;-1.992681;6.36955;301.8889;301.7379;-0.2905844;-0.2056506;0;
714.1123;0;0;676.1137;-2.794962;8.238672;708.1937;708.5425;-0.2253251;-0.79015;0;
386.8089;0;0;392.2017;7.724045;4.613315;387.0806;386.2422;0.3596074;-0.4645194;0;
197.7026;0;0;209.3993;12.00319;5.613424;198.4738;200.0101;0.2942787;-0.0742486;0;
222.4914;0;0;235.6131;-2.007692;-1.023283;223.0744;226.4207;-0.03085367;-0.1391413;0;
-273.0457;0;0;-223.393;-3.479544;-3.902521;-263.5302;-262.3737;0.4239487;0.1858352;0;
-691.3734;0;0;-641.8331;-1.667386;4.005264;-678.7441;-676.5892;0.293588;0.1206811;0;
-415.3171;0;0;-408.6801;-2.87116;3.733308;-408.5726;-404.3584;-0.291413;-0.2042769;0;
-235.3026;0;0;-237.2304;-0.8595186;6.207804;-228.8147;-227.5408;0.0337165;-0.1391043;0;
-242.4999;0;0;-247.4243;-1.193448;8.144071;-236.7682;-237.6819;0.3585193;-0.07399714;0;
297.8472;0;0;255.4467;1.755489;-0.4378056;294.5778;294.7269;-0.226547;-0.008955449;0;
711.5273;0;0;669.4193;1.686376;-2.513715;705.7625;704.5371;-0.4861887;0.1209882;0;
382.6649;0;0;387.2632;5.033584;-0.4348399;385.0267;381.6161;0.03403854;0.2508014;0;
198.6227;0;0;214.3358;5.966531;-2.24282;202.7937;202.0728;-0.1608977;0.575386;0;
221.1617;0;0;236.9839;1.137765;-1.704703;224.5789;225.7952;-0.4855727;0.1850039;0;
-275.3736;0;0;-223.273;1.203971;-2.372819;-263.714;-263.8107;-0.09528077;-0.6597575;0;
-680.7055;0;0;-624.0346;-8.710225;-7.126101;-665.6218;-664.6565;-0.09518503;-0.7240619;0;
-408.2831;0;0;-391.4616;-12.3188;-8.994463;-398.5244;-397.8099;0.0348453;-0.463465;0;
-240.8943;0;0;-237.2081;-8.28793;-8.382579;-230.6457;-233.805;-0.0951244;-0.4629993;0;
-237.7787;0;0;-243.6539;-9.618773;-8.642088;-227.1655;-231.0088;-0.4848329;-0.2026647;0;
310.9345;0;0;267.3342;-4.518893;-13.79097;313.1038;311.0759;-0.2244763;0.382245;0;
709.2343;0;0;670.7376;-2.973135;-16.25536;708.8401;705.6899;-0.2892181;0.3818609;0;
377.9378;0;0;385.2068;-1.563628;-9.942872;383.4785;379.8317;-0.1589928;-0.1382615;0;
203.2081;0;0;217.5289;0.5140485;-9.798916;208.4935;208.4735;0.03606895;-0.008187898;0;
218.4337;0;0;231.928;2.322193;-9.588121;223.4014;224.8807;-0.2238367;0.3816244;0;
-280.8474;0;0;-235.1954;6.271975;-7.903913;-266.9518;-267.9727;0.101225;0.05640423;0;
-680.6766;0;0;-635.945;-6.126536;-15.39794;-663.1093;-663.0672;0.5558946;-0.2035218;0;
-401.8824;0;0;-399.5495;-9.469282;-16.25312;-389.5801;-387.5391;0.5553361;-0.07338265;0;
-226.1293;0;0;-233.4189;6.080273;-17.30852;-214.5264;-214.9238;0.2299414;0.05662579;0;
-234.8351;0;0;-242.742;7.413334;-19.90346;-224.2434;-225.5149;-0.0951264;-0.07336581;0;
304.38;0;0;262.1233;9.080824;-9.970232;305.4033;305.9447;0.03490387;-0.2032268;0;
712.4314;0;0;671.9037;11.21515;-8.486589;710.3927;709.1219;-0.09506588;0.1218142;0;
372.636;0;0;377.8761;4.103938;-11.29122;377.7208;374.0775;-0.1599377;0.4465285;0;
187.8542;0;0;202.5219;2.291153;-10.00732;192.8715;193.0424;-0.02984231;0.1212431;0;
216.7134;0;0;229.9919;4.097512;-16.69532;220.9759;223.0208;-0.354649;-0.07378079;0;
-276.5066;0;0;-229.9456;4.695631;-18.55406;-262.878;-264.271;0.03551137;-0.3985434;0;
-681.8373;0;0;-633.699;-5.891658;-16.59292;-664.5369;-665.4286;0.6201817;-0.5280775;0;
-406.103;0;0;-400.1168;-8.029192;-17.38004;-394.6294;-393.5838;0.2297546;-0.1377429;0;
-229.1587;0;0;-232.6737;-4.672222;-17.42956;-217.6342;-219.0259;0.09958901;-0.07263717;0;
-228.4911;0;0;-234.4389;-7.213123;-17.34506;-216.9158;-219.6804;0.1644563;0.1223379;0;
308.4062;0;0;266.7323;10.27655;-17.19367;310.3498;309.0872;-0.1605457;0.05724759;0;
707.3331;0;0;671.5107;14.48578;-17.10941;707.4632;704.5776;-0.03044967;-0.2676467;0;
377.2255;0;0;389.4774;10.58646;-13.14035;384.7892;379.9075;-0.09538642;-0.007508362;0;
201.4971;0;0;219.4838;14.25952;-11.11765;206.8667;205.5508;-0.03032323;-0.07246816;0;
220.2226;0;0;238.9409;-0.2894967;-14.65658;225.0871;226.1463;0.5544133;-0.2672974;0;
-282.4337;0;0;-226.1905;-3.169594;-14.30694;-267.579;-269.3945;0.3589542;0.25271;0;
-678.6381;0;0;-626.0121;-0.6208136;-14.22558;-663.1736;-664.3002;-0.03121052;0.5772927;0;
-395.2857;0;0;-387.8151;-2.22778;-15.34999;-387.583;-387.2716;0.2286902;0.3818107;0;
-228.6596;0;0;-229.1924;0.7212193;-10.5118;-221.9641;-225.1513;0.1634931;-0.07334439;0;
-237.6752;0;0;-240.5813;0.4530509;-10.16644;-231.2363;-236.4817;-0.2264753;-0.138238;0;
303.7291;0;0;264.9065;10.56665;-13.50525;301.6658;298.4247;-0.09631301;0.1217702;0;
711.7811;0;0;674.1219;14.4408;-14.76436;704.9723;700.9223;0.4884898;-0.2681562;0;
379.4826;0;0;386.3389;14.15885;-17.16079;377.3658;371.5082;0.2281296;-0.2678867;0;
198.0673;0;0;213.4125;18.36418;-18.95208;195.5153;192.5997;-0.5517077;0.1221865;0;
228.1031;0;0;240.7467;8.43274;-22.55;223.4297;222.641;-0.4212186;-0.1378057;0;
-271.0004;0;0;-225.8233;6.147092;-24.46984;-267.8604;-271.2096;0.1639107;-0.2026345;0;
-679.0228;0;0;-635.6403;12.30286;-26.9235;-672.7002;-675.921;0.2287133;0.1224058;0;
-393.7336;0;0;-392.8733;9.812248;-28.30309;-392.977;-395.0077;0.09854882;0.05731547;0;
-224.7977;0;0;-230.1851;18.10778;-28.0737;-223.9794;-228.5068;0.03348246;0.1222252;0;
-229.5068;0;0;-238.1372;20.23304;-29.25119;-228.9392;-234.8989;-0.09648587;-0.07279963;0;
318.8233;0;0;274.9693;7.419339;-20.44715;310.957;306.1903;-0.2263236;-0.2026612;0;
710.181;0;0;671.9308;6.139087;-16.80965;699.5741;693.4378;0.2286752;0.2523139;0;
372.6367;0;0;377.4034;-1.301821;-21.54843;367.85;360.4081;0.5532821;0.187093;0;
205.4712;0;0;213.6063;-5.854865;-18.71361;201.8762;197.1903;-0.03197988;-0.007997021;0;
222.8184;0;0;230.0083;5.604246;-23.11556;219.4769;215.6703;-0.2918171;0.05697837;0;
-284.4631;0;0;-240.299;7.742068;-23.96311;-281.2421;-286.669;0.1632475;-0.07301358;0;
-677.2297;0;0;-633.3599;2.911518;-10.94459;-671.5132;-676.1226;0.03314878;-0.2678422;0;
-398.3141;0;0;-398.7161;3.177012;-7.651552;-397.226;-400.269;-0.1617866;-0.3325405;0;
-233.559;0;0;-242.8936;9.604181;-6.572136;-232.7843;-238.3855;-0.2915587;-0.2022716;0;
-224.4538;0;0;-237.0898;10.46519;-3.48444;-222.6803;-230.5873;-0.4212004;0.05780099;0;
320.1856;0;0;270.206;14.47316;-4.753614;314.2736;308.561;-0.3558098;0.1227103;0;
708.481;0;0;660.4257;16.73579;-3.610128;699.0767;693.7448;-0.4204197;-0.2022498;0;
368.8145;0;0;365.6599;8.078788;-4.544262;366.1663;358.5283;-0.03019316;-0.07211186;0;
187.8472;0;0;194.191;7.333736;-5.14242;186.2012;180.2575;0.1647392;0.577634;0;
215.457;0;0;223.1063;0.5612131;-3.328836;213.6876;209.8739;-0.4850997;0.4471189;0;
-280.5728;0;0;-240.0102;-3.123046;-3.52644;-274.032;-278.9664;-0.1597756;-0.07306908;0;
-687.6486;0;0;-649.4381;3.778968;-4.862555;-678.8031;-682.9204;0.4900584;0.1219064;0;
-405.4741;0;0;-407.4069;3.306656;-5.661342;-401.2602;-404.4363;0.3596313;0.05681654;0;
-231.404;0;0;-236.958;9.063134;-4.048185;-224.8205;-230.4297;0.2943026;-0.7228487;0;
-233.108;0;0;-238.9063;13.00614;-3.64222;-225.1568;-231.6349;0.2940069;-0.462253;0;
316.5376;0;0;273.014;6.696434;-5.647926;314.8606;310.5129;-0.2909946;0.3178196;0;
713.6447;0;0;673.1635;7.695059;-5.441302;708.4088;703.0659;-0.2257349;0.1225982;0;
368.6007;0;0;377.8227;10.50037;-5.837733;370.5539;363.4673;0.09932861;-0.2023617;0;
194.7551;0;0;212.7133;10.35609;-5.697901;196.3315;192.0631;0.03426146;-0.137191;0;
218.235;0;0;231.8649;16.84242;-3.548844;217.6859;215.6082;0.03422704;0.0578489;0;
-285.6062;0;0;-241.193;18.16565;-2.6745;-279.4706;-282.1709;-0.1607094;0.4475948;0;
-674.9359;0;0;-632.8786;17.00832;0.3422974;-668.6815;-668.8803;-0.4853846;0.252243;0;
-393.9611;0;0;-394.9869;18.26402;2.217476;-395.9588;-394.9081;-0.2899949;-0.07284712;0;
-233.0834;0;0;-243.8533;8.801202;2.28223;-236.8283;-238.902;0.03513323;0.05716077;0;
-220.293;0;0;-233.8007;5.710899;3.619596;-223.222;-225.4186;-0.09483676;0.05710334;0;
329.4647;0;0;284.1115;9.389832;3.749925;321.7285;321.658;-0.2896435;0.05704596;0;
708.318;0;0;666.696;8.107599;4.081071;700.8395;698.0829;-0.1594178;0.05698864;0;
367.2149;0;0;369.925;6.625584;6.689183;366.9278;361.3629;0.1006118;-0.1379707;0;
199.555;0;0;212.0699;4.943987;8.223069;198.8933;196.2701;0.1005107;0.1220374;0;
223.3424;0;0;235.2826;10.83352;3.526124;221.2447;220.5606;0.1004097;0.2518494;0;
-280.254;0;0;-235.3424;13.16716;2.115939;-274.8534;-277.7857;0.3601782;-0.07324037;0;
-679.7714;0;0;-637.4037;2.436657;8.142155;-671.94;-673.8698;0.4247836;0.05676792;0;
-392.7948;0;0;-394.3851;0.2907551;8.535871;-391.343;-391.5218;0.03455272;-0.2031585;0;
-219.4245;0;0;-226.6354;4.64472;8.460311;-218.5989;-222.0884;0.22942;-0.2679217;0;
-225.201;0;0;-230.5306;3.500977;9.523537;-223.0644;-228.3619;0.3591242;0.1221516;0;
318.8144;0;0;278.008;6.377847;3.284677;314.0149;310.9091;-0.03104071;0.3169309;0;
715.5445;0;0;674.9665;7.376792;1.405854;708.3759;704.2738;-0.03100952;0.1217104;0;
371.3107;0;0;374.9388;1.675953;4.753589;369.3342;363.3621;0.09895632;-0.008346621;0;
198.8366;0;0;207.7084;0.668915;4.48088;194.9256;191.7081;-0.03107779;0.05662912;0;
223.062;0;0;230.1758;2.811697;3.873532;218.4053;216.6279;0.2288228;-0.07336248;0;
-285.5316;0;0;-242.6304;3.880599;4.137571;-280.3135;-283.5885;0.3585276;0.05664594;0;
-678.3596;0;0;-638.0627;-0.6776522;3.463584;-669.8984;-671.9832;0.09829795;-0.2032804;0;
-398.3184;0;0;-399.6037;-1.547627;3.393121;-395.9252;-397.2582;-0.03173551;-0.2680435;0;
-240.185;0;0;-247.0286;5.219082;4.729371;-238.2314;-242.4366;0.09823106;-0.00790475;0;
-226.7003;0;0;-238.3472;6.285564;4.590652;-225.061;-230.0117;-0.2267043;-0.2677662;0;
331.0598;0;0;283.5676;9.092288;7.064286;323.8893;321.13;-0.5513133;-0.3324645;0;
716.7206;0;0;675.4606;10.22125;8.061932;707.3085;703.1777;-0.2259226;-0.2671631;0;
375.3592;0;0;379.118;9.072882;4.369892;372.1409;365.8903;0.2940432;-0.2019273;0;
205.817;0;0;213.9449;8.594275;4.298518;200.9778;197.7944;0.4886497;-0.006822349;0;
226.912;0;0;233.345;5.304085;1.212984;221.0781;220.0844;0.163322;-0.1367502;0;
-280.7484;0;0;-239.0896;4.293402;-0.395703;-277.2061;-280.5102;-0.1616788;-0.2015801;0;
-681.015;0;0;-638.3985;-1.671783;3.489583;-674.3528;-676.2793;0.03338568;-0.3313122;0;
-395.3489;0;0;-392.6303;-2.608109;3.419093;-394.5031;-394.3661;0.09831948;-0.7207834;0;
-225.3494;0;0;-228.5056;-7.829424;4.353419;-224.6918;-228.2407;-0.2915834;-0.5251571;0;
-226.9971;0;0;-230.3999;-10.2998;4.683959;-225.9028;-231.1972;-0.1613557;0.125044;0;
324.3915;0;0;283.7608;1.633263;4.746236;316.2392;313.9487;0.03370846;0.3847877;0;
720.054;0;0;678.5271;2.636;5.076381;708.0369;704.8116;-0.3561295;0.3194337;0;
368.8192;0;0;371.062;13.41699;0.1815265;363.3733;357.7775;-0.4857063;0.4490474;0;
189.4135;0;0;196.964;18.56108;-2.095954;185.1601;182.1311;0.03452047;0.5785309;0;
214.4605;0;0;220.6916;7.826133;0.4513818;209.6492;208.5597;-0.1604162;0.1881456;0;
-287.94;0;0;-247.0452;6.812915;-0.1517961;-285.8126;-287.5256;-0.3551571;-0.1368802;0;
-680.6407;0;0;-641.6609;4.729964;-2.630012;-674.5173;-675.1667;-0.1598982;-0.006807984;0;
-401.2843;0;0;-403.7605;3.050272;-2.091506;-399.2276;-398.4395;-0.4845742;-0.07176849;0;
-242.7106;0;0;-252.4306;-6.865778;-7.04602;-241.0933;-242.8672;-0.5490547;-0.00672903;0;
-228.8486;0;0;-241.4324;-11.6143;-8.110666;-227.6701;-230.6917;-0.1586989;0.1881798;0;
328.3514;0;0;282.422;-8.052658;-1.337363;322.0324;321.0129;-0.2884741;0.252958;0;
704.7696;0;0;665.5705;-11.12603;-0.197309;696.5204;694.5025;-0.3531516;0.05780183;0;
361.796;0;0;367.3013;-4.684485;5.362228;358.865;354.7876;-0.09292742;-0.1371583;0;
204.3864;0;0;214.3214;-5.215641;8.036158;200.0215;198.447;-0.0278667;-0.007085789;0;
222.7342;0;0;233.6588;-0.9234932;7.9611;218.4362;217.9876;0.03712864;-0.2019807;0;
-289.1699;0;0;-238.6512;3.498064;9.828623;-282.4066;-285.1036;0.361928;-0.3966798;0;
-678.4335;0;0;-627.0286;-20.8194;5.263908;-667.3043;-668.3743;0.4265317;-0.07144447;0;
-396.9555;0;0;-389.5801;-26.22446;4.32098;-392.584;-391.5916;-0.02866826;-0.2013074;0;
-237.5741;0;0;-236.2655;-18.42761;4.651552;-233.7067;-236.151;-0.3534762;-0.2011051;0;
-231.5882;0;0;-230.1561;-20.82096;4.311964;-227.6623;-231.1661;-0.2231863;0.188901;0;
325.3647;0;0;288.4396;-14.30233;2.23116;320.2911;319.9767;-0.2879294;0.05877655;0;
715.9662;0;0;678.766;-12.48028;1.559089;708.2117;706.5858;-0.3526074;-0.006249866;0;
364.1108;0;0;372.6125;-11.12759;3.56701;363.423;358.9876;-0.02741641;-0.006243586;0;
192.3311;0;0;207.8832;-7.901227;2.558682;192.7059;190.5239;-0.1573235;-0.07120465;0;
218.8744;0;0;231.9121;-11.17582;11.19667;218.062;217.8186;-0.2221328;-0.006165765;0;
-288.8404;0;0;-243.0822;-10.495;13.5968;-282.5306;-284.6478;0.1678945;-0.3959636;0;
-680.0409;0;0;-637.8894;-7.201928;7.219882;-671.1138;-672.9789;-0.2220783;-0.2656311;0;
-395.1879;0;0;-398.4935;-6.525106;7.145645;-392.3917;-393.3804;-0.4817245;0.2543746;0;
-235.4959;0;0;-246.1694;-5.11203;0.708225;-232.7025;-236.5638;-0.1564038;0.3190863;0;
-223.7651;0;0;-233.9906;-3.834096;-2.641511;-221.9115;-225.8313;0.1685901;0.188831;0;
337.1154;0;0;290.1062;-6.241141;1.112065;328.2226;326.8679;0.42829;-0.1361954;0;
713.3999;0;0;667.3749;-6.369568;0.909999;702.8918;700.2891;0.03805565;-0.2659933;0;
359.8604;0;0;357.2974;-3.48278;-2.506923;355.6097;351.2605;-0.4817213;0.05911073;0;
197.5802;0;0;201.8288;-2.608624;-2.303455;190.8351;189.3638;-0.2863353;0.5787901;0;
215.685;0;0;221.3036;-2.739725;-1.095448;209.3839;210.1629;-0.2210802;0.7081432;0;
-292.5264;0;0;-257.5531;-2.201108;-0.3575349;-291.0126;-292.858;-0.3507927;0.3176276;0;
-671.9166;0;0;-642.913;0.5477697;6.876737;-668.0305;-669.7491;-0.4154076;0.2523411;0;
-387.8214;0;0;-396.7029;2.087461;10.15199;-387.4999;-386.3433;-0.2850555;0.1871202;0;
-231.2602;0;0;-245.8175;-0.1254395;12.35211;-231.6887;-233.5317;0.105035;-0.2028719;0;
-220.2833;0;0;-241.2601;-0.3927572;15.88967;-223.0851;-228.2995;0.1698968;0.05720134;0;
337.158;0;0;280.2827;3.492404;14.46718;323.8642;320.5291;-0.02517598;0.3170132;0;
715.0042;0;0;663.4333;4.293178;16.26106;696.8512;693.5193;-0.02515069;0.1217927;0;
358.6519;0;0;350.1114;-1.003398;15.50791;344.9525;341.3117;0.03984193;0.05670295;0;
193.8117;0;0;190.3398;-4.417665;14.82262;179.0641;179.3;0.1047692;0.3165153;0;
223.3521;0;0;221.8201;3.623749;21.37181;207.9321;209.3547;0.1696313;0.1212953;0;
-284.6172;0;0;-251.6025;3.888528;22.02016;-292.5254;-294.2277;0.1694609;0.05620605;0;
-673.5106;0;0;-645.7139;-6.698926;20.5914;-679.9116;-681.1124;0.1692906;0.4459536;0;
-383.3543;0;0;-401.4376;-8.366158;19.76703;-396.3081;-395.5088;0.1691205;0.5104729;0;
-220.6132;0;0;-247.3614;-17.53478;18.34053;-233.3666;-235.2542;-0.02595148;0.1201559;0;
-219.1422;0;0;-245.5512;-22.13886;17.18339;-231.5079;-235.0803;-0.1558601;-0.2048016;0;
329.8022;0;0;271.1235;-15.28411;10.13304;308.266;306.6962;-0.09073614;-0.009693746;0;
713.8401;0;0;658.906;-15.20141;7.242714;689.9517;687.5715;0.1692244;0.3151527;0;
365.2352;0;0;353.772;-13.84696;4.958017;348.6172;344.9275;0.03911968;0.2498687;0;
195.6408;0;0;191.9352;-12.29281;2.809703;179.914;179.1016;-0.2857563;-0.07521909;0;
214.9344;0;0;214.6683;-9.466439;6.021939;201.8471;202.0974;-0.2205019;-0.2050782;0;
-292.714;0;0;-255.9984;-8.117757;7.556495;-294.5438;-296.7924;-0.09034562;-0.3348068;0;
-670.105;0;0;-633.9261;-7.305317;7.347954;-668.872;-671.056;0.2995492;-0.4644051;0;
-381.7638;0;0;-390.2238;-7.901189;9.61799;-388.4656;-389.3979;0.5591176;-0.07413439;0;
-228.5195;0;0;-247.6532;-8.831255;13.22528;-238.9002;-241.5807;-0.09111763;0.0558748;0;
-212.7977;0;0;-234.5983;-10.76476;14.7526;-225.1045;-228.0322;-0.2859281;-0.07411604;0;
347.2597;0;0;290.4986;-16.5811;23.64626;326.9693;326.1685;-0.2206735;-0.2039763;0;
717.4745;0;0;669.1412;-18.57417;26.16773;696.4549;694.468;-0.4153537;-0.2037713;0;
364.9929;0;0;363.5597;-31.54995;24.19906;351.1783;346.5697;-0.2850017;0.05630283;0;
204.4567;0;0;204.649;-36.60846;24.17474;190.2187;186.4267;-0.08981332;0.1212136;0;
230.6754;0;0;225.9326;-30.74453;17.25133;213.5782;211.4767;-0.02475573;0.1210918;0;
-281.4865;0;0;-253.2412;-30.84736;14.42083;-291.0079;-293.5445;0.3650732;-0.008964564;0;
-669.446;0;0;-640.4794;-22.51097;6.837396;-673.4606;-675.5574;0.6245757;-0.3337923;0;
-371.9226;0;0;-384.027;-15.92426;2.878654;-382.3674;-381.9008;0.3640788;-0.4633915;0;
-210.0051;0;0;-233.0918;-18.58758;-0.6072288;-224.25;-224.8459;0.03887625;-0.3979586;0;
-206.1709;0;0;-232.7951;-14.88423;-4.223697;-221.276;-223.433;-0.02613015;-0.2026567;0;
347.3831;0;0;288.2395;-1.674738;2.74665;324.672;325.0784;-0.09107124;-0.007551041;0;
716.8482;0;0;667.2593;2.48013;3.078805;693.0979;693.6913;-0.2858818;-0.07251079;0;
361.806;0;0;362.3667;14.13194;8.56819;347.1375;345.0442;-0.2206272;0.1874314;0;
200.5858;0;0;206.6432;21.08396;11.97559;186.2444;185.4025;0.0394639;0.5120798;0;
216.9384;0;0;218.6794;5.791156;8.882462;199.8004;200.3336;0.4292283;0.3816306;0;
-289.8374;0;0;-259.8624;4.177746;11.35178;-301.5859;-301.3031;0.623699;0.05641042;0;
-657.7361;0;0;-634.4129;4.039827;4.508362;-668.2859;-666.3792;0.2332683;-0.008613612;0;
-372.8431;0;0;-388.8985;1.423799;2.494344;-387.5052;-385.9752;-0.2217375;0.1862971;0;
-227.4164;0;0;-245.5796;4.034337;7.984316;-241.0643;-243.9086;-0.286482;0.1211426;0;
-206.5107;0;0;-227.6542;4.968288;6.569652;-222.5812;-227.5466;0.03864253;0.05605348;0;
357.4759;0;0;297.0609;-1.600787;12.72536;331.9263;328.2153;0.3634404;-0.2038722;0;
719.0598;0;0;660.3297;-4.613289;14.78904;692.7863;689.3288;-0.09169617;-0.5285041;0;
368.1383;0;0;351.9458;14.48038;5.99954;348.138;345.2462;-0.2865061;-0.138169;0;
215.22;0;0;204.791;18.28423;5.055751;193.6157;193.8503;0.2984879;0.1868066;0;
229.6839;0;0;223.0759;14.44746;2.304493;205.8524;207.8983;0.3631553;-0.07325052;0;
-286.2877;0;0;-256.0325;16.97854;-0.04222549;-302.2866;-301.1173;0.1678884;-0.00820957;0;
-665.0594;0;0;-639.7073;4.971414;4.512656;-676.1698;-674.5644;0.1027524;-0.07316867;0;
-371.7258;0;0;-391.1891;0.9479308;5.043863;-388.5721;-385.7189;0.1676165;-0.008127801;0;
-215.4307;0;0;-242.4956;2.822012;2.560549;-235.6333;-234.9694;0.36235;0.1218151;0;
-211.9034;0;0;-241.4398;0.2745574;2.624959;-233.3351;-234.1711;0.1021166;-0.07320938;0;
350.2771;0;0;284.8509;-2.137592;5.703414;321.6205;322.472;-0.2228227;-0.07313582;0;
732.9201;0;0;671.5576;-3.408242;6.635445;702.9805;702.0195;-0.0276968;-0.4628664;0;
372.8643;0;0;356.5409;-4.409195;7.499555;349.2641;345.8678;-0.02766897;-0.5923359;0;
205.9483;0;0;195.8257;-5.07435;8.429781;181.4973;181.4153;-0.09260851;0.1878673;0;
230.6039;0;0;221.7408;0.4904539;7.014669;205.1154;206.7202;0.2323212;-0.007223484;0;
-281.2456;0;0;-254.8051;2.432344;6.806672;-298.2752;-298.3588;0.1021531;-0.4619876;0;
-660.085;0;0;-636.2947;3.166834;6.665866;-673.7241;-672.6832;0.1020505;-0.07171936;0;
-370.442;0;0;-387.53;5.038686;6.257271;-389.7521;-387.4003;0.4267847;0.0582874;0;
-222.0192;0;0;-243.2754;3.358684;4.844342;-241.3723;-241.2718;0.2314538;0.3830656;0;
-203.5553;0;0;-228.101;3.155215;4.102784;-222.7641;-224.4127;0.1012865;0.3177133;0;
360.9906;0;0;299.6755;4.558564;5.237249;331.9935;331.2835;0.1011848;-0.5921487;0;
718.6979;0;0;666.7523;4.553983;5.566902;688.2307;685.1476;0.03611576;-0.4616191;0;
367.1521;0;0;363.1096;2.740746;4.757513;344.5241;339.695;-0.09385521;0.1235509;0;
218.4202;0;0;218.7546;2.871714;5.288596;195.8775;194.8638;-0.4185976;-0.20141;0;
224.6975;0;0;225.6562;-2.422457;5.953111;202.927;203.6635;-0.1583076;-0.1362403;0;
-296.4539;0;0;-259.5143;-4.831896;6.549976;-308.7073;-308.5963;0.03675345;0.4486027;0;
-664.4709;0;0;-629.5049;3.880496;8.619865;-672.714;-669.9794;0.1666512;0.5780866;0;
-371.3877;0;0;-378.0609;5.752607;9.013102;-384.9948;-380.6388;0.2964184;0.252669;0;
-222.0269;0;0;-235.7524;2.263226;12.15212;-236.4949;-236.3911;0.03625123;-0.1373889;0;
-210.7469;0;0;-229.1437;2.462023;13.3456;-225.8251;-228.0327;-0.02875254;-0.007316165;0;
353.5563;0;0;299.0711;6.076871;10.98779;329.7477;330.2284;-0.02872365;0.05765854;0;
726.5759;0;0;679.1419;7.678356;11.64658;701.3544;700.7102;-0.2885641;-0.5271055;0;
365.6519;0;0;364.18;2.714147;7.883955;347.015;343.3729;0.03656251;-0.3966412;0;
202.1165;0;0;207.4552;1.170203;7.675085;183.4983;182.0463;0.3613625;0.1234961;0;
226.1512;0;0;231.7969;7.130874;8.06927;208.7386;209.2871;-0.09377201;-0.07152999;0;
-287.2556;0;0;-249.5692;8.061714;8.195127;-295.7177;-296.1068;-0.3535472;-0.2013928;0;
-668.1503;0;0;-633.2504;1.623252;12.94256;-673.9178;-672.9946;0.1665468;0.1886136;0;
-380.6232;0;0;-387.3;-0.1196914;13.80033;-392.3193;-390.585;0.3612815;0.05848942;0;
-238.437;0;0;-252.7282;4.502129;22.42702;-251.3083;-253.4488;0.2309838;-0.2664061;0;
-218.2699;0;0;-236.6698;5.904125;26.02144;-231.5031;-234.9533;0.1657844;0.1236657;0;
355.2862;0;0;302.4222;-1.470174;22.24437;333.5706;332.4352;0.2955525;0.3184434;0;
710.8753;0;0;667.5596;-2.741495;23.69565;687.4324;685.7359;0.1003535;0.1232214;0;
358.4003;0;0;360.1056;2.352451;18.04539;341.6651;338.5336;-0.3545188;0.4479343;0;
210.2395;0;0;217.8151;2.282738;16.21872;192.709;191.767;-0.09429317;0.5124516;0;
216.2126;0;0;230.3398;7.370659;17.74303;198.5123;198.8207;0.360573;0.1221326;0;
-301.6819;0;0;-254.648;8.837122;16.51951;-311.181;-311.8725;0.1653086;0.05704257;0;
-673.4418;0;0;-639.511;5.881481;17.23973;-679.0583;-678.1873;-0.02975949;0.05698525;0;
-381.3491;0;0;-393.0545;5.47343;16.75352;-391.2703;-389.2133;0.2951071;-0.1379741;0;
-226.481;0;0;-242.7974;3.592896;17.74143;-238.8286;-240.2094;0.6196473;0.05706663;0;
-211.261;0;0;-230.8093;2.785003;17.25472;-225.2203;-229.3484;-0.09561608;0.4468133;0;
353.3551;0;0;298.2818;-2.710152;19.4477;331.1015;329.1015;-0.8101608;0.05656033;0;
721.6897;0;0;672.1689;-4.113948;19.83006;696.6474;694.8992;-0.289608;-0.3982679;0;
362.1449;0;0;354.5904;-7.257647;14.85352;342.4376;339.3169;0.03551973;-0.3329004;0;
204.7349;0;0;200.7487;-9.795949;13.76699;183.1109;182.4296;0.03548404;-0.007729181;0;
224.1444;0;0;222.2236;0.595394;8.863523;201.1053;202.0489;-0.02951895;0.1871806;0;
-296.8191;0;0;-263.0059;2.671877;6.041334;-310.4648;-310.6465;0.03547805;0.1220252;0;
-668.8962;0;0;-639.2399;6.888751;8.848546;-679.0298;-678.7117;0.4252464;0.05693525;0;
-367.1879;0;0;-378.9156;12.70898;8.437757;-383.4958;-381.7412;0.09998246;-0.2679587;0;
-226.8268;0;0;-241.5412;0.3723244;6.084877;-242.806;-243.8018;-0.2249547;-0.1377548;0;
-217.6659;0;0;-234.1146;-0.9008474;5.34195;-233.1917;-236.8102;0.100108;0.3171551;0;
357.139;0;0;304.9748;9.347836;7.480037;331.7588;331.1424;-0.354764;0.1869017;0;
719.2855;0;0;674.3575;9.071;7.00364;690.9322;690.6288;-0.6792442;-0.1381228;0;
359.3683;0;0;360.4623;16.3629;10.54658;337.6027;334.9258;-0.02888827;-0.07301669;0;
202.2734;0;0;207.7392;18.69001;12.21055;180.7171;180.7291;0.1010754;0.1219587;0;
204.1941;0;0;211.5285;12.57664;3.490746;181.9723;184.2956;-0.02896081;-0.2030005;0;
-311.3145;0;0;-267.5684;13.50103;1.343784;-326.455;-325.6958;0.101003;-0.1378292;0;
-667.6974;0;0;-627.4935;0.1582259;2.414161;-679.8867;-678.5035;-0.02903319;0.5119827;0;
-375.3606;0;0;-378.3004;-5.06587;0.4692304;-392.785;-390.0289;-0.1589387;0.3165662;0;
-236.1158;0;0;-248.9226;2.37396;0.334793;-254.0849;-254.6424;-0.09381166;-0.008588584;0;
-214.8266;0;0;-236.2412;-0.7098843;-1.206029;-232.5902;-235.2087;-0.2236521;-0.1385146;0;
353.2289;0;0;293.2926;9.539583;-0.6020926;326.9873;326.9327;-0.15846;-0.5281795;0;
710.3817;0;0;657.3148;14.28542;-0.5345047;682.1051;681.3634;0.03660123;-0.3977141;0;
359.2816;0;0;354.3687;-3.613499;-4.887736;337.7799;335.1025;0.2314665;0.05745693;0;
200.9374;0;0;204.5253;-5.953416;-5.552654;178.9577;178.5943;0.3611686;0.3822359;0;
208.6066;0;0;214.3772;1.553678;-6.61868;186.0867;187.0355;0.230871;0.1219825;0;
-303.2833;0;0;-264.5351;1.150951;-7.348842;-316.7851;-317.399;0.4905084;-0.3329115;0;
-674.0421;0;0;-643.8284;6.642151;-3.858467;-684.2819;-684.3329;0.6199502;0.05722706;0;
-377.576;0;0;-389.9963;9.715961;-3.050795;-392.6781;-391.8545;0.0346212;0.1871042;0;
-230.7077;0;0;-244.24;2.406156;-0.9043975;-244.0455;-246.4087;-0.03038093;-0.1379205;0;
-219.294;0;0;-234.4369;1.063591;0.7041016;-232.0562;-235.1042;0.3594536;0.1870548;0;
353.8259;0;0;303.6533;9.77006;0.7033941;331.9561;331.4724;0.1641904;0.2518342;0;
719.4739;0;0;675.786;10.96569;1.841397;695.1898;692.6451;-0.03087656;-0.008288215;0;
359.1192;0;0;361.3272;8.611125;1.437649;341.1064;337.065;-0.03084554;0.1866222;0;
199.276;0;0;209.7276;9.40578;2.039051;181.5312;180.9921;-0.1607492;0.1864346;0;
203.1362;0;0;216.2635;2.698523;1.233207;186.0964;187.6818;-0.3554897;-0.008654736;0;
-315.8071;0;0;-268.5227;0.4176601;1.164985;-323.8344;-322.8127;-0.3551325;-0.2685154;0;
-672.9351;0;0;-634.8811;2.761765;2.972354;-679.0803;-677.8723;0.03502836;-0.3981803;0;
-374.5961;0;0;-379.9335;1.419819;3.03635;-387.1068;-385.5877;0.1649278;0.1869259;0;
-236.6013;0;0;-243.1203;3.963012;4.372836;-249.0995;-249.9557;-0.1600746;0.5115748;0;
-215.3742;0;0;-226.6967;4.695964;4.435425;-229.0467;-231.2139;-0.2248811;0.1212567;0;
354.5559;0;0;306.2633;3.083655;5.234763;332.5888;332.1729;-0.2246551;-0.008799836;0;
703.8989;0;0;662.6513;4.085911;5.229503;680.8293;678.7272;-0.159462;0.1211437;0;
354.8666;0;0;357.0762;3.612315;2.344105;337.8798;333.7808;0.03560021;0.05605464;0;
208.5834;0;0;216.288;4.881483;1.203039;191.1139;191.1419;0.1654991;0.185933;0;
202.4393;0;0;212.8848;6.484169;-0.8076575;185.2997;187.0768;0.2952675;-0.1390906;0;
-322.1255;0;0;-278.02;8.01887;-1.878451;-330.6273;-331.3506;0.5548402;-0.2039181;0;
-679.3096;0;0;-643.6192;11.56079;-2.814324;-686.4285;-685.9643;0.3593807;0.4459602;0;
-374.9672;0;0;-382.3535;12.95569;-2.610548;-389.5752;-387.4872;-0.09575184;0.3805448;0;
-226.7273;0;0;-237.9167;18.23396;-5.153276;-241.4455;-242.1707;-0.09565563;-0.1395764;0;
-214.6304;0;0;-230.5562;20.15802;-6.085859;-228.5842;-230.1208;-0.1605269;-0.009501442;0;
354.2369;0;0;300.721;21.14214;4.637281;331.5515;331.8905;-0.4852023;0.2503775;0;
715.2618;0;0;668.0466;23.19798;8.2497;689.5383;688.6276;-0.4197474;0.05522388;0;
349.8514;0;0;350.1598;14.46713;5.227179;330.4006;328.6162;-0.09448892;0.1201357;0;
193.2035;0;0;200.2581;12.24179;6.628568;173.4598;174.5508;-0.09439398;0.4448517;0;
202.692;0;0;210.9889;12.63163;11.6455;182.1561;185.0576;-0.09429913;0.05460069;0;
-324.4343;0;0;-280.7261;9.470134;14.64791;-336.079;-334.2425;0.2955997;-0.2702909;0;
-688.8625;0;0;-650.5704;13.74753;8.47101;-697.8718;-695.4749;0.36027;-0.205052;0;
-383.9482;0;0;-387.3612;12.39454;8.328532;-399.8201;-396.426;0.03507129;-0.3997479;0;
-238.8227;0;0;-244.9184;10.37236;12.0041;-254.9909;-255.4733;0.1000034;-0.1394769;0;
-218.4678;0;0;-227.9307;8.821692;12.66187;-234.1825;-236.6635;0.03493556;0.380402;0;
352.8396;0;0;308.4663;5.530298;15.66326;328.3326;329.0401;-0.03006688;0.3800198;0;
701.2473;0;0;667.5382;4.855156;16.98718;674.8284;674.973;-0.09500401;0.05480119;0;
339.849;0;0;352.2756;-6.938718;20.11819;320.1407;318.661;-0.02994121;-0.2700906;0;
187.5838;0;0;203.3713;-10.88288;21.97349;167.8954;169.2282;0.2299582;-0.07491718;0;
183.7097;0;0;194.4213;-7.656769;19.67399;164.2285;167.559;0.0997925;-0.009874563;0;
-339.3371;0;0;-301.0251;-9.592435;18.31469;-350.5528;-348.4126;-0.0952098;-0.1397993;0;
-688.0706;0;0;-652.046;-2.147081;21.84626;-697.5885;-693.8887;-0.03014679;0.2501452;0;
-373.7869;0;0;-378.528;-0.2025404;21.15448;-389.7294;-384.4717;0.09981818;0.1849265;0;
-224.7985;0;0;-236.1565;2.142188;12.89457;-240.1004;-239.533;0.1646852;-0.4649327;0;
-214.3902;0;0;-227.0487;5.957452;9.063582;-228.8646;-231.4838;-0.09534962;-0.3345309;0;
355.7262;0;0;307.0986;-2.756071;6.576229;331.8336;331.8408;0.09964821;-0.07432537;0;
710.7526;0;0;667.7336;-4.092472;3.82332;684.0105;684.3925;0.1645154;-0.2691527;0;
339.4747;0;0;341.3513;2.408374;-2.610639;319.8184;318.6383;-0.0305519;-0.3338496;0;
182.7123;0;0;188.0852;2.740747;-5.287333;163.0132;164.9577;-0.09548854;-0.008677444;0;
193.0859;0;0;199.5154;3.006413;-5.616935;172.7819;176.8484;-0.4851967;0.05629863;0;
-329.5955;0;0;-286.316;4.409912;-7.21876;-341.1335;-338.6953;-0.2248397;0.2511441;0;
-692.7691;0;0;-653.7185;-1.757437;1.2281;-700.3599;-696.9871;-0.02971181;0.1859244;0;
-381.6041;0;0;-385.6335;-3.630706;4.10701;-393.4976;-390.0657;-0.1596166;-0.4639359;0;
-232.4829;0;0;-240.3814;4.611965;2.696363;-243.6773;-244.3094;-0.02952157;-0.2685677;0;
-216.1949;0;0;-228.2708;6.214921;4.301122;-228.0027;-229.1339;-0.02949191;0.1864736;0;
358.5461;0;0;306.8147;5.203323;4.96663;337.6921;337.9989;-0.159397;0.05635155;0;
703.5122;0;0;658.2047;7.811039;4.961639;680.4304;679.2375;-0.09426945;0.3811316;0;
338.3635;0;0;340.4527;1.372829;4.956654;321.8016;320.2977;-0.2241094;0.3157813;0;
190.5976;0;0;198.8691;-0.236141;4.549776;174.7395;175.7358;-0.548721;-0.2042747;0;
182.785;0;0;192.0476;10.21295;-0.5453766;167.4425;169.4998;-0.4182349;-0.2690368;0;
-341.2604;0;0;-298.0241;11.67655;-2.353246;-348.5914;-347.2859;0.1668914;-0.1388318;0;
-690.3044;0;0;-651.6093;9.386668;-5.097181;-695.0044;-692.6381;-0.09314563;0.4460138;0;
-390.3237;0;0;-392.7719;7.836995;-6.900477;-399.2044;-396.778;-0.6777581;0.1856963;0;
-241.1313;0;0;-249.0742;13.99106;-5.219092;-249.1909;-249.2033;0.102531;-0.5291311;0;
-212.4033;0;0;-225.7106;16.18781;-5.548762;-221.142;-221.7166;0.492232;-0.008860681;0;
355.4623;0;0;306.6862;-4.056573;-1.256401;338.7364;339.2243;-0.0280013;0.1210829;0;
702.9303;0;0;663.0738;-9.544853;0.4194343;684.0972;683.8975;0.1019615;-0.07394078;0;
337.095;0;0;342.3184;-4.377699;0.285047;322.1539;321.3922;0.4916631;0.5108396;0;
180.2724;0;0;189.4886;-6.181961;0.95459;163.5973;164.0232;0.101365;0.3803916;0;
188.1497;0;0;198.606;-5.573513;2.360272;172.0536;172.9164;-0.09363884;-0.074762;0;
-339.5242;0;0;-292.9716;-4.696281;2.625833;-345.6092;-344.9347;0.231292;0.2501498;0;
-703.4999;0;0;-659.9926;-4.290396;0.7476719;-706.268;-704.4072;0.2310596;0.5097678;0;
-381.2047;0;0;-378.9703;-4.553529;0.7469206;-390.2793;-388.5453;-0.02904198;0.2493863;0;
-227.3987;0;0;-231.4135;8.712934;-4.880274;-236.7766;-238.2303;-0.1589475;0.1841684;0;
-210.8035;0;0;-221.186;13.52695;-6.282012;-221.7336;-223.873;0.1660489;0.119016;0;
366.1809;0;0;320.7015;5.074242;-7.146356;345.5167;345.5034;0.2958168;-0.2059404;0;
707.0165;0;0;670.2659;6.14087;-9.282629;684.4365;683.3612;-0.02931717;0.1840706;0;
340.2401;0;0;345.8801;0.9097871;-0.1638671;321.9306;319.6695;-0.09425506;0.7036244;0;
196.2204;0;0;205.6654;-1.03351;1.71182;175.8054;176.67;-0.224095;0.1831787;0;
181.2807;0;0;194.4018;1.312053;-0.1654225;161.0736;163.9988;-0.1589025;-0.2068094;0;
-353.1954;0;0;-306.6043;0.2390077;0.7725048;-365.1988;-363.7133;0.2310612;0.1182351;0;
-691.7952;0;0;-654.1839;3.788741;-1.103794;-701.725;-699.8662;0.1008943;-0.01181842;0;
-380.0064;0;0;-386.5358;4.1861;-1.437477;-396.2357;-393.5666;-0.09410906;-0.2067086;0;
-237.0712;0;0;-249.0913;5.789484;-3.914401;-253.7839;-254.7407;-0.02904716;-0.07656619;0;
-203.2874;0;0;-221.8545;6.052086;-5.049178;-220.483;-222.4384;-0.1589527;0.2483475;0;
368.6295;0;0;311.1631;5.844934;-7.187436;342.7055;344.0005;-0.02885826;0.3130653;0;
705.4646;0;0;654.8026;5.035754;-8.854788;676.2559;677.1123;-0.0937966;-0.1420207;0;
340.6888;0;0;338.6157;1.547094;-7.506232;317.194;316.3004;-0.3535717;-0.33678;0;
185.2994;0;0;191.849;0.1390195;-8.838348;161.266;163.3718;-0.1583144;-0.01160492;0;
190.9228;0;0;199.5273;-7.831723;-3.939835;166.7261;171.0162;0.03674667;-0.01159326;0;
-331.694;0;0;-290.6769;-11.03903;-2.529235;-345.6839;-343.0223;0.1666444;0.05338575;0;
-693.3038;0;0;-663.4473;-14.31047;-5.808857;-704.4686;-701.2474;0.4263464;0.05333211;0;
-370.519;0;0;-384.5455;-18.51565;-3.994481;-387.5446;-383.702;0.2959833;0.05327852;0;
-213.3505;0;0;-229.237;-8.315641;-12.89895;-229.422;-228.5193;0.3606532;0.5079964;0;
-199.6429;0;0;-216.5754;-6.498624;-15.29738;-215.9482;-216.7955;0.2953235;0.5724533;0;
371.7705;0;0;326.1195;-9.506205;-5.301794;347.2983;347.9511;-0.3546467;0.2470414;0;
716.9733;0;0;678.677;-6.683614;-4.090774;692.0884;691.6161;-0.2243556;0.3117605;0;
346.5012;0;0;346.0994;-12.10288;-0.4027245;330.0746;327.4788;0.2306412;0.5063493;0;
189.4193;0;0;196.0768;-11.88965;2.410963;174.6334;175.0387;-0.09442727;0.1810037;0;
178.2345;0;0;190.4451;-5.31362;3.212336;164.4629;167.6165;-0.09433239;-0.2739495;0;
-345.8687;0;0;-304.9974;-3.365897;6.49115;-353.567;-350.9164;0.1006644;-0.1437396;0;
-683.6013;0;0;-657.576;0.2548071;0.05438803;-693.2283;-688.8312;-0.02937141;0.3111763;0;
-368.8222;0;0;-390.799;1.995863;-1.084376;-385.6235;-380.7936;0.2954948;0.6357003;0;
-220.1512;0;0;-246.2913;7.486214;5.614884;-234.0621;-234.047;0.2302306;0.05035547;0;
-186.5093;0;0;-212.7481;10.15801;5.274328;-197.845;-199.3917;0.03509719;-0.2745318;0;
389.0139;0;0;330.4428;7.334764;7.412482;370.3808;371.8342;-0.09487276;0.5053521;0;
724.5792;0;0;676.874;8.801262;7.539;706.7769;707.4167;-0.4196141;0.439877;0;
347.2279;0;0;349.1082;-0.4509822;3.445588;337.9392;337.8912;-0.2242905;0.04963095;0;
189.1458;0;0;201.0817;-4.201573;1.566603;179.804;184.7535;0.03580425;0.3094504;0;
193.8908;0;0;211.3743;4.241766;-1.783995;184.9956;193.3135;0.2306703;0.1792048;0;
-334.8509;0;0;-280.5284;3.97006;-4.059622;-334.3043;-326.6195;0.4903079;-0.08084462;0;
-696.5824;0;0;-647.6243;1.219405;-10.35182;-691.7886;-684.4238;0.2949132;0.1141387;0;
-377.8548;0;0;-370.9249;-0.1209912;-13.69044;-377.6885;-370.1437;0.1646822;0.2439587;0;
-223.3651;0;0;-219.628;1.955235;-14.0116;-221.3249;-215.9116;0.1645167;0.1787462;0;
-196.7165;0;0;-198.3554;1.351034;-16.14097;-192.3045;-187.8962;-0.03055062;0.1785666;0;
382.1278;0;0;344.5711;-4.14268;-11.56992;378.1646;384.3176;0.03444742;0.1134198;0;
718.0123;0;0;693.7366;-6.61774;-10.35272;713.1785;717.4513;-0.2904239;0.0483385;0;
340.7302;0;0;367.2658;-9.021988;-11.4809;344.8342;346.7914;-0.2251647;0.1132573;0;
191.6501;0;0;225.0931;-10.75423;-10.12983;195.5626;200.6412;-0.03003647;0.1781108;0;
184.1487;0;0;217.9329;-17.37486;-10.78948;187.0578;193.8804;0.1648957;-0.1469049;0;
-352.017;0;0;-288.0943;-19.96937;-10.44373;-342.1768;-336.7353;0.2946647;-0.01682259;0;
-690.1806;0;0;-637.3167;-16.66775;-7.686933;-678.4762;-672.2281;-0.2903374;0.04816167;0;
-374.0207;0;0;-365.4376;-16.58365;-6.540499;-367.0132;-360.5215;-0.6148824;-0.3416908;0;
-231.4039;0;0;-225.4531;-13.75395;-6.60091;-224.5284;-220.6669;-0.3543952;-0.2114128;0;
-187.2559;0;0;-184.2472;-12.19892;-4.651894;-180.6372;-177.7167;-0.1591371;-0.146233;0;
390.7668;0;0;358.0405;-7.498584;-6.9915;389.2579;393.4249;-0.02904249;-0.08111872;0;
714.0864;0;0;691.8877;-4.142147;-5.845888;710.0803;712.619;-0.2239153;0.5036689;0;
340.4938;0;0;365.2314;-7.754332;-4.969235;342.4263;344.0878;0.1661137;0.2432934;0;
181.8563;0;0;210.8168;-6.943233;-6.504728;183.8493;189.8819;0.4907835;-0.08178777;0;
165.9315;0;0;196.7369;-3.185212;9.711189;169.7965;177.01;0.1654537;0.5679678;0;
-360.2834;0;0;-298.337;-0.8374867;13.78739;-347.5516;-342.7192;0.2302548;0.5024298;0;
-700.5626;0;0;-648.4236;-7.334356;4.463031;-687.219;-680.7673;-0.09481332;0.1770883;0;
-378.4577;0;0;-369.5369;-9.47044;3.721857;-371.6243;-364.3669;-0.2896201;0.04697563;0;
-219.907;0;0;-217.6792;2.931284;-0.8367224;-212.4557;-209.6409;0.100475;-0.08300626;0;
-189.9509;0;0;-191.5985;5.205515;-3.849992;-182.6321;-181.6942;0.100374;0.1769465;0;
381.078;0;0;345.0119;2.85576;-9.271619;379.2066;381.5803;-0.1595962;-0.148068;0;
711.8411;0;0;684.1196;4.795273;-12.61133;707.9726;709.157;-0.2244032;-0.4077886;0;
331.3168;0;0;350.9743;-1.505209;-14.94306;333.4491;334.8198;0.1656264;-0.01757479;0;
182.8708;0;0;206.7564;-3.245985;-17.47327;184.1265;189.4313;0.2304273;0.1773449;0;
178.0644;0;0;201.1764;1.378977;-13.16893;179.4437;186.3674;-0.1596083;0.3720687;0;
-358.2825;0;0;-301.0859;1.71336;-13.02173;-348.159;-342.6166;-0.02951325;0.3716949;0;
-694.8157;0;0;-645.4851;-0.1643713;-8.989793;-681.8912;-675.2299;-0.09445094;-0.08345;0;
-371.3423;0;0;-367.8507;-0.09685716;-7.038255;-364.1779;-356.8362;-0.02938869;-0.4731702;0;
-222.9186;0;0;-225.0527;0.7065473;-6.428337;-216.3861;-212.7374;0.2954775;-0.4726948;0;
-184.5262;0;0;-190.5938;0.5047666;-4.010614;-178.2502;-175.7921;0.165246;-0.4072525;0;
386.3098;0;0;344.9536;2.38027;-10.70475;384.5211;388.476;0.1001126;-0.08200653;0;
706.7604;0;0;671.0054;1.573595;-11.22986;703.0369;704.3018;0.1649793;0.3078799;0;
331.426;0;0;340.2471;3.448024;-11.48639;335.3275;335.4666;-0.0950558;0.04770121;0;
179.0444;0;0;197.102;3.176139;-13.08244;184.1289;188.7031;-0.02999295;-0.08228142;0;
165.8711;0;0;186.4717;-1.984616;-5.902362;169.6386;176.7069;0.2299066;0.242638;0;
-365.6535;0;0;-311.6529;-2.919651;-4.020909;-355.2057;-348.5192;0.3596102;0.3073615;0;
-698.1813;0;0;-649.7321;-12.89705;-5.557477;-684.2457;-676.379;0.2293142;0.2420853;0;
-374.3297;0;0;-371.5938;-16.83621;-4.145251;-366.0927;-357.9841;-0.03078558;0.5666788;0;
-225.778;0;0;-229.604;-13.40304;-3.270308;-217.9866;-213.6343;0.2940821;0.3712074;0;
-185.6962;0;0;-192.3295;-14.93079;-2.195295;-177.7252;-174.7516;0.5536559;-0.2138717;0;
387.3899;0;0;347.53;-8.551798;-2.996884;386.5448;391.0772;0.1632956;-0.1486895;0;
707.2147;0;0;679.8886;-5.462723;-3.663702;704.309;707.7748;-0.1617052;-0.01860538;0;
332.817;0;0;354.2438;-8.270273;-0.5789278;335.9111;337.9367;-0.09657539;-0.1485214;0;
186.9932;0;0;215.4574;-6.587023;-1.047105;190.3341;194.7315;-0.1614457;-0.2133395;0;
181.2456;0;0;214.1165;-1.422841;-1.44795;187.0819;192.8492;-0.2262508;-0.08319043;0;
-358.103;0;0;-290.9074;1.592699;-1.848393;-344.3391;-339.4521;-0.2909908;0.2417299;0;
-704.3815;0;0;-646.1239;-0.8207753;-5.731545;-690.8812;-683.3755;-0.4206331;0.241487;0;
-375.0889;0;0;-362.7418;-0.6188797;-5.993718;-367.4117;-358.5393;-0.3552431;-0.08359238;0;
-227.9732;0;0;-224.634;4.606655;-14.29333;-219.6167;-215.3133;-0.0950168;-0.2784104;0;
-202.4444;0;0;-206.2924;5.405333;-17.69498;-194.8458;-193.233;-0.09492133;0.1116734;0;
380.9659;0;0;343.2012;2.921655;-9.840442;380.2485;382.8592;-0.2247606;0.5013652;0;
718.2883;0;0;691.4937;1.311129;-9.897537;716.0099;717.681;0.1003019;0.1110574;0;
340.756;0;0;360.9022;1.979397;-4.395113;344.3519;346.4586;0.2301358;0.04597849;0;
189.2396;0;0;218.8607;0.5045159;-0.9075847;192.6445;199.4967;-0.09493213;0.2408343;0;
181.7406;0;0;215.5799;-5.524211;-5.86341;184.2676;193.1743;-0.0298694;0.04569029;0;
-359.545;0;0;-294.0057;-8.197977;-4.115962;-349.9616;-344.1873;0.03512795;0.3704811;0;
-701.824;0;0;-644.7214;-11.73971;-5.518468;-689.814;-685.2324;0.10006;0.3051415;0;
-373.5959;0;0;-363.4021;-13.26913;-5.713871;-367.7824;-362.7056;0.4247962;0.2398675;0;
-226.2319;0;0;-224.9814;-17.07322;0.1192629;-220.799;-218.6634;0.359402;0.1096918;0;
-181.4645;0;0;-187.0867;-18.39621;1.458802;-176.7867;-175.7776;-0.3555999;-0.3451898;0;
405.9227;0;0;365.5111;-12.5496;3.533807;401.7877;405.1696;-0.5501446;-0.4098103;0;
722.4805;0;0;696.04;-11.66634;4.936776;716.6005;719.4168;0.359951;-0.01959445;0;
338.5721;0;0;360.384;-1.474183;6.673371;338.0704;339.9468;0.2296546;0.305262;0;
186.7456;0;0;215.2821;3.35007;8.81012;184.87;190.805;-0.2253476;0.04508587;0;
173.1897;0;0;202.1973;-0.4043407;1.835164;171.5034;178.9317;0.09971558;-0.2148288;0;
-354.844;0;0;-298.8792;2.141661;-0.3101335;-348.0953;-343.2357;-0.0303193;0.1751911;0;
-687.0703;0;0;-639.6574;-2.615913;4.914725;-676.7676;-671.4132;-0.1602235;0.4348844;0;
-362.4178;0;0;-359.2803;-4.154502;3.302318;-356.6857;-351.1492;0.0348395;0.2395454;0;
-207.9436;0;0;-212.4929;1.677797;7.9207;-203.0294;-200.8717;0.1647392;-0.1504993;0;
-172.6898;0;0;-179.2335;2.88156;10.05607;-168.4052;-167.624;0.229541;-0.1503481;0;
401.8825;0;0;360.7378;-3.551697;-4.756893;396.6051;399.322;0.2293103;0.04470501;0;
720.0061;0;0;688.5853;-5.155718;-8.570019;712.6101;715.4492;0.1641126;-0.02030726;0;
329.7909;0;0;347.4396;2.217829;-2.800997;329.8986;331.9227;0.09898034;0.2395825;0;
181.5339;0;0;206.2863;3.488398;-3.534995;181.2042;186.2872;0.09888089;0.1094071;0;
168.7953;0;0;195.9591;1.407812;-2.727648;168.5284;175.4179;0.03381419;-0.3454742;0;
-365.7932;0;0;-307.2975;1.205327;-0.715541;-356.877;-351.7434;0.09874756;-0.1502251;0;
-686.077;0;0;-637.9473;2.343191;-5.537471;-673.0468;-667.9184;0.09864833;0.3046973;0;
-364.4239;0;0;-362.507;1.536554;-5.866822;-356.0919;-351.2811;0.09854921;0.3043911;0;
-219.6303;0;0;-225.9612;-0.608444;3.516562;-212.5561;-210.5612;0.2283849;-0.0857188;0;
-166.8111;0;0;-178.3829;-2.281796;5.321445;-160.2437;-158.813;-0.09668132;0.239204;0;
404.8193;0;0;361.0253;-5.427335;8.732228;402.8218;405.563;-0.2265189;0.6287677;0;
706.1983;0;0;676.129;-6.694679;10.73282;702.2039;704.0677;0.09854546;0.4332339;0;
325.6172;0;0;343.429;-15.46284;6.770164;328.6232;330.2978;0.4232832;0.1079619;0;
185.985;0;0;211.0877;-19.66686;6.093533;187.3014;192.9722;0.03305378;-0.08704861;0;
177.6148;0;0;210.126;-11.94394;0.9968288;178.8049;186.3441;-0.2918161;-0.1519285;0;
-359.044;0;0;-295.8934;-11.66449;-1.683368;-349.172;-343.7018;0.1632485;-0.2167432;0;
-692.8903;0;0;-645.6076;-11.31798;-5.63367;-682.1536;-675.3146;-0.1617523;-0.3464601;0;
-365.5457;0;0;-361.5389;-9.095806;-8.977034;-360.0672;-352.7354;-0.6163611;-0.1512099;0;
-218.6896;0;0;-216.2485;-11.29747;-7.159474;-211.5299;-209.3278;0.293801;0.04384406;0;
-185.8612;0;0;-186.7334;-9.879599;-7.956076;-179.146;-178.5704;0.4884078;-0.2810367;0;
399.4689;0;0;363.1154;-7.190354;-7.412218;394.8705;398.5691;-0.09678904;-0.3457217;0;
728.7768;0;0;700.3309;-5.642888;-6.667958;721.4344;724.2546;-0.03172445;-0.02053758;0;
334.4298;0;0;352.4267;-2.086268;-7.130138;334.7785;337.0337;-0.1616272;-0.08548428;0;
183.9193;0;0;207.8951;-0.4775574;-7.189957;182.7684;189.0818;-0.1614649;0.174471;0;
179.674;0;0;207.4363;3.408664;-1.690254;177.8996;184.8938;0.1635341;0.5640997;0;
-361.3596;0;0;-299.5799;6.017208;0.1868447;-354.5741;-348.7739;0.4232391;0.04379419;0;
-691.5179;0;0;-640.9196;2.192769;-4.903924;-682.1155;-674.6345;0.3578465;-0.02121717;0;
-367.4231;0;0;-362.2279;2.190565;-5.568826;-362.9027;-355.5541;0.0976176;0.4335755;0;
-222.1268;0;0;-223.4335;1.652501;-4.491503;-218.7354;-215.5795;-0.1623498;0.3032052;0;
-169.7423;0;0;-176.6699;-0.3579156;-4.152075;-167.0415;-166.6374;-0.2271541;-0.08690351;0;
409.6371;0;0;368.2338;4.196795;-6.961065;402.7151;404.7429;-0.03202379;-0.4116529;0;
714.8843;0;0;685.3917;3.790437;-6.351224;703.1592;705.2475;-0.09695896;-0.2813046;0;
332.6078;0;0;353.2446;1.040938;-9.359074;327.766;329.8522;-0.1618289;0.1087821;0;
193.9681;0;0;220.1439;0.9061702;-11.8949;189.3186;195.0258;-0.09669892;-0.02126187;0;
179.2805;0;0;205.2426;-6.128314;3.857676;173.1989;179.3377;-0.03163442;0.1736615;0;
-361.4404;0;0;-304.1452;-7.99719;6.800927;-359.4575;-355.2614;0.09833205;0.3683891;0;
-694.5346;0;0;-647.0421;-9.261952;5.387451;-690.3673;-685.1759;0.2931353;0.1081495;0;
-368.3753;0;0;-366.6575;-11.66452;9.200066;-370.3341;-364.3983;0.03297136;-0.08686117;0;
-213.2705;0;0;-221.6118;-2.676842;-5.143282;-216.1643;-213.2955;-0.2269311;-0.4116106;0;
-171.3896;0;0;-187.2813;-0.5306988;-7.482395;-176.4045;-175.6;0.2280683;-0.3462297;0;
413.3637;0;0;363.1303;-4.013766;-6.269184;398.5463;401.0992;0.2928064;-0.02104507;0;
735.2239;0;0;694.2863;-3.607591;-9.411082;718.4224;720.9102;-0.1622591;-0.08599126;0;
334.2488;0;0;340.9534;-1.460513;2.789023;323.6486;325.8215;-0.09712877;0.1089972;0;
184.1757;0;0;197.8076;-0.8558327;5.264467;171.962;177.631;-0.2269659;0.4337244;0;
183.6783;0;0;198.7958;-2.060421;4.3884;171.2894;178.2646;-0.09680312;0.2383865;0;
-358.109;0;0;-309.5861;-0.7191806;7.197273;-360.6154;-354.8342;0.2930982;0.3031144;0;
-689.0826;0;0;-650.1036;-9.023853;0.9607507;-689.7749;-682.8126;-0.09700036;0.2378424;0;
-361.617;0;0;-369.6536;-11.62773;-0.3128904;-368.9927;-362.4747;-0.1618702;-0.08723328;0;
-217.0136;0;0;-233.0381;-2.707439;3.23752;-224.1946;-222.4307;0.2280965;-0.02217828;0;
-163.5098;0;0;-183.5787;-2.503648;2.363488;-171.3707;-171.0454;0.09793258;-0.08712334;0;
422.0477;0;0;369.3904;2.924851;1.82525;407.3232;409.0225;-0.2270025;-0.2169705;0;
726.9702;0;0;682.0494;5.801324;1.354535;710.9485;710.8971;-0.2917418;-0.2817198;0;
337.3102;0;0;338.4739;0.5715587;-3.335509;324.8029;324.8764;0.1633228;-0.1515021;0;
196.292;0;0;208.0117;0.9731259;-5.207679;183.36;187.6188;0.3580607;-0.2812845;0;
182.8514;0;0;198.9322;0.4362847;-4.398652;170.5571;175.9361;0.09783153;-0.6058385;0;
-356.7487;0;0;-308.5128;0.9717097;-5.26501;-362.0966;-356.7855;0.1627006;-0.1504584;0;
-680.2275;0;0;-640.6606;-5.058463;-6.800205;-682.9464;-675.5791;-0.1622996;0.1745295;0;
-355.0196;0;0;-359.7828;-7.932792;-8.133031;-361.6712;-354.8112;-0.3570386;-0.02054794;0;
-215.5453;0;0;-225.1138;3.394685;-5.981405;-220.0663;-216.8988;-0.0318431;0.1094074;0;
-177.5352;0;0;-191.5293;5.132586;-6.377292;-181.0522;-179.0748;0.03315623;-0.02063723;0;
409.7856;0;0;360.8855;5.730641;-7.911492;397.6514;399.0647;-0.2917138;-0.4753879;0;
733.7108;0;0;695.2297;8.872715;-8.908286;718.0281;717.0662;-0.09651864;-0.08510616;0;
337.3599;0;0;343.645;0.7594745;-9.368216;324.8164;323.4806;0.4882844;0.5646528;0;
181.4116;0;0;194.4995;-0.848879;-8.822939;167.1941;170.045;0.2928917;0.3042161;0;
175.9195;0;0;194.4914;3.237811;-17.72256;162.341;168.125;-0.09720659;-0.2158284;0;
-359.6132;0;0;-309.2009;1.023755;-19.71424;-364.245;-359.3413;0.4875972;-0.08567683;0;
-687.212;0;0;-647.0327;9.1944;-16.94813;-689.153;-683.6296;0.2272379;-0.08559074;0;
-354.251;0;0;-360.3389;12.26662;-18.20378;-362.9992;-357.6687;-0.4226639;-0.3453741;0;
-212.0288;0;0;-227.9182;-2.883604;-8.674153;-223.5793;-222.627;-0.1623698;-0.4099944;0;
-163.7774;0;0;-187.3345;-4.890439;-5.71831;-179.0644;-178.8627;0.2275974;-0.2146804;0;
426.1532;0;0;367.9497;-4.550732;-8.525726;402.0735;404.3365;0.1624013;-0.01956268;0;
726.1365;0;0;681.2349;-6.957057;-7.646381;703.018;702.9674;-0.1625986;0.1103917;0;
339.5383;0;0;345.8436;-0.1175635;-5.763298;325.1887;323.9512;-0.09746784;-0.08462129;0;
202.0786;0;0;220.7463;0.01627648;-4.283882;189.8048;192.5666;0.1624995;-0.214471;0;
175.6387;0;0;203.2207;5.977131;-10.70982;165.6886;169.3847;0.2922709;0.1105813;0;
-366.1405;0;0;-306.9147;9.387377;-11.10083;-368.5844;-366.7037;0.4219119;0.2404048;0;
-680.0522;0;0;-637.9398;1.875856;-14.43882;-684.68;-681.052;-0.0982508;-0.08467343;0;
-349.7845;0;0;-360.4379;2.477183;-17.03653;-364.2777;-360.466;-0.03318473;0.04534635;0;
-208.4414;0;0;-230.3909;-0.4056938;-4.761899;-225.5437;-225.359;0.0967833;-0.01966658;0;
-159.0692;0;0;-187.6183;-1.744457;-2.211763;-178.3407;-179.5305;-0.48802;-0.4744182;0;
427.9832;0;0;367.1664;2.074713;-2.343507;401.6096;402.0452;-0.4875297;-0.1491048;0;
735.7107;0;0;688.6357;1.871558;0.1370947;710.7379;710.2361;-0.1622031;-0.148955;0;
338.7956;0;0;339.8687;7.897897;-2.676204;320.4071;318.3441;-0.09707276;-0.473642;0;
188.7804;0;0;195.0999;10.77035;-2.874464;169.4734;170.161;0.03295946;-0.2782641;0;
181.7816;0;0;189.7814;8.415003;-2.938559;163.0562;165.055;-0.03204099;-0.2130171;0;
-359.629;0;0;-318.4664;10.55;-4.275265;-370.7769;-369.8421;-0.2918782;0.1120336;0;
-691.9753;0;0;-660.5993;7.391569;-4.5389;-701.8627;-699.7419;-0.2266175;0.3717904;0;
-357.0106;0;0;-371.2681;6.044971;-5.539084;-373.3223;-371.391;0.03347953;0.1765148;0;
-211.2874;0;0;-233.6516;14.54536;-8.815559;-229.3943;-231.5255;0.3582826;-0.1484993;0;
-165.4731;0;0;-197.7472;15.46778;-9.945412;-185.061;-189.5638;0.3579226;-0.14835;0;
426.0835;0;0;355.6109;13.84464;-11.8778;397.6447;394.2083;0.03272624;-0.2781357;0;
732.1887;0;0;672.2193;14.1665;-13.00458;700.2803;695.7855;-0.09724133;-0.4727582;0;
335.5895;0;0;328.7786;7.922976;-8.905673;310.4597;306.1568;0.0977584;-0.2124138;0;
190.7;0;0;195.2028;5.235698;-6.954219;168.3441;169.1054;0.1626275;-0.01729837;0;
171.7053;0;0;177.4529;4.962018;-8.085941;151.2459;153.3183;-0.1623726;-0.08224832;0;
-367.3838;0;0;-327.8465;2.345064;-6.269278;-379.7642;-379.6304;0.03269258;-0.147133;0;
-677.2962;0;0;-649.2928;1.739495;-3.047919;-689.5392;-688.6559;0.1625944;-0.3418872;0;
-344.0953;0;0;-367.032;0.3312274;-1.236318;-364.1346;-363.7519;-0.227373;-0.08167432;0;
-210.7539;0;0;-238.9773;-4.022386;3.72154;-229.3363;-233.0145;0.03272482;0.3731792;0;
-162.3164;0;0;-195.9462;-6.296496;5.526217;-179.8806;-184.2422;0.09765928;0.2428695;0;
427.8626;0;0;354.599;-4.682579;7.46317;400.3211;398.5876;-0.2922429;0.04772344;0;
731.8422;0;0;668.2724;-5.347459;8.460415;700.8301;698.0988;-0.03207988;0.3075449;0;
339.2413;0;0;325.8352;-7.886705;6.107511;313.7576;310.2794;0.09788703;0.4371705;0;
189.538;0;0;183.5167;-9.017857;5.833443;163.018;164.7282;-0.09711335;0.1768619;0;
177.6035;0;0;173.7746;-7.133761;-2.679007;150.7353;155.2548;-0.09701577;-0.4080219;0;
-352.0588;0;0;-321.0264;-6.188588;-7.097067;-370.4668;-367.9508;0.1629511;-0.602514;0;
-676.8541;0;0;-654.3486;-10.40193;-4.343758;-692.8698;-690.6686;0.2277547;-0.01720248;0;
-345.028;0;0;-371.2706;-9.989335;-7.487469;-367.3369;-366.0125;-0.03234353;0.1127495;0;
-201.6907;0;0;-231.7175;-8.97492;-5.47058;-223.29;-225.84;-0.4221151;-0.1472332;0;
-164.3192;0;0;-192.6292;-7.894175;-5.398099;-183.523;-188.0695;-0.4216909;-0.08211789;0;
421.3641;0;0;358.7873;-4.135199;-13.16245;395.3705;392.1405;-0.2913325;0.1128667;0;
730.4102;0;0;679.4529;-2.791873;-14.35492;703.0684;699.1544;-0.1611051;0.2426879;0;
338.248;0;0;337.2543;4.846743;-16.34986;316.4309;312.5834;0.4237628;0.04754206;0;
193.2933;0;0;200.0468;7.52119;-17.67309;170.5611;171.5275;0.2934023;-0.01747307;0;
176.1701;0;0;185.9777;8.920152;-11.35906;153.5857;156.4877;-0.03172917;0.1124792;0;
-356.3643;0;0;-316.5192;11.59051;-8.735434;-371.8671;-370.1549;0.3581068;0.2423009;0;
-672.0974;0;0;-641.4127;3.541884;-9.061571;-685.3357;-681.8137;0.2927796;0.17709;0;
-344.8987;0;0;-359.472;2.331901;-6.1722;-362.3091;-359.1029;-0.0323513;-0.08295728;0;
-208.8078;0;0;-230.8628;-1.95735;-5.094393;-225.5761;-227.1208;0.09761589;-0.3427433;0;
-163.2458;0;0;-189.2766;-6.509735;-4.08453;-180.9967;-183.2895;0.03255047;-0.2124642;0;
433.4933;0;0;370.1949;3.879283;6.167719;406.0777;406.3484;-0.03244958;-0.2772181;0;
740.2159;0;0;690.5992;4.477621;9.7786;712.2655;710.3496;0.2924197;-0.3419069;0;
344.9829;0;0;346.4529;-1.019234;7.223423;324.3694;321.1436;0.4220606;0.1132081;0;
205.2688;0;0;207.6119;-1.219281;9.493585;182.4897;184.2021;0.1617671;0.3079964;0;
182.9487;0;0;190.2245;-7.045205;2.450959;160.7546;164.152;0.0316699;-0.01714983;0;
-359.3377;0;0;-312.4016;-10.11959;0.1710769;-371.2646;-369.4948;0.5513768;0.2427368;0;
-669.5705;0;0;-633.6761;-3.410635;5.5964;-678.4244;-675.2197;0.4208881;0.4373949;0;
-333.8161;0;0;-346.9332;-2.068038;4.920948;-348.3458;-344.2072;-0.3591429;-0.017816;0;
-197.9863;0;0;-220.3355;-10.50508;5.652815;-212.8762;-212.4275;-0.09891267;-0.08276544;0;
-152.6851;0;0;-184.1322;-11.36615;5.446187;-170.0587;-172.5464;0.1610561;0.04725242;0;
439.6707;0;0;371.3987;-10.68417;5.57468;411.4449;409.2721;0.03095957;-0.08272976;0;
739.7653;0;0;685.0551;-12.41475;5.903994;711.1307;708.4602;-0.03403888;-0.01767929;0;
339.223;0;0;336.2293;-0.4131831;1.94619;318.9254;316.7574;0.1608973;-0.08262886;0;
195.4542;0;0;201.2716;3.539347;1.140439;175.4269;177.0717;0.3556377;-0.2124805;0;
180.2654;0;0;191.1368;-4.502161;-0.8700725;161.1952;164.8373;0.095411;-0.2772344;0;
-358.5825;0;0;-312.1773;-3.961774;-2.409806;-368.7005;-365.8117;0.03034778;0.04788093;0;
-675.6876;0;0;-639.2616;-3.42193;-1.536606;-683.8589;-679.7236;-0.09961739;0.04783282;0;
-345.6118;0;0;-357.6979;-3.552213;-3.343601;-361.396;-355.8281;-0.4893214;-0.277052;0;
-210.3948;0;0;-230.1525;-1.40519;2.420168;-225.6009;-222.4124;-0.358895;0.04806314;0;
-158.4594;0;0;-183.3821;-0.1983293;3.824378;-170.6518;-168.7159;-0.293567;0.1779495;0;
431.216;0;0;374.147;-0.5329226;-3.279533;412.9764;416.2847;-0.3582394;-0.147066;0;
725.9468;0;0;682.0536;0.8067835;-4.080033;706.4138;708.2819;-0.03304273;-0.3418202;0;
340.2234;0;0;342.3512;3.016776;-8.094788;324.1458;325.5748;0.2918272;-0.4064441;0;
205.6366;0;0;214.009;4.420264;-10.76585;185.5146;190.5029;0.2265666;-0.08119903;0;
174.8828;0;0;187.5572;7.965796;-6.803161;154.2813;160.1391;0.03143693;0.1137846;0;
-369.3944;0;0;-323.8743;8.762075;-6.796325;-381.1047;-376.6271;0.2263074;-0.2111665;0;
-675.3693;0;0;-642.576;13.84349;-9.937694;-685.5685;-679.5337;-0.03378939;-0.3408889;0;
-341.733;0;0;-357.4483;15.77196;-10.59754;-358.6062;-351.8278;-0.3585922;-0.2755791;0;
-208.6439;0;0;-233.4638;9.459472;-6.634896;-225.9998;-222.4141;0.2264742;-0.01543282;0;
-165.1435;0;0;-197.5596;8.311867;-4.953778;-182.2946;-180.4616;0.6160507;-0.08038465;0;
421.9774;0;0;357.9222;4.08298;-9.369552;398.3468;401.115;-0.09920904;-0.4051406;0;
726.3377;0;0;677.7142;0.7973237;-10.02997;702.1061;703.1849;-0.2940114;0.1150052;0;
332.9303;0;0;334.3929;1.265037;-6.000913;314.3452;314.9231;0.09608809;0.5046937;0;
190.3547;0;0;198.9373;-0.8796879;-6.195831;170.9138;175.6765;0.2259262;0.2443172;0;
177.17;0;0;189.742;-2.486394;-3.108513;158.873;164.8179;0.4855686;-0.08076496;0;
-364.9231;0;0;-316.132;-4.225208;-1.29685;-373.0818;-368.9545;0.4201133;-0.2106185;0;
-684.2083;0;0;-644.4617;-1.541645;-10.4051;-689.4227;-683.8004;0.0948545;0.1144299;0;
-346.3153;0;0;-352.1482;0.1348429;-12.53798;-358.7084;-352.6544;0.1597265;0.1143149;0;
-212.347;0;0;-224.8582;-6.831518;-9.24334;-225.9145;-223.3024;-0.1003033;0.04923268;0;
-167.531;0;0;-187.4634;-7.025724;-10.03785;-180.7726;-179.4124;-0.1651699;0.1141505;0;
428.4004;0;0;372.631;-6.55015;-8.889052;407.4885;409.4095;0.2248001;-0.2108009;0;
726.7572;0;0;682.788;-8.418602;-7.875377;704.2421;704.1622;0.4194763;-0.08065438;0;
336.6602;0;0;342.1478;4.383231;-9.408071;320.2272;320.772;0.2891201;0.2442634;0;
203.2638;0;0;215.2426;7.259214;-8.326891;186.9098;191.7019;-0.03600712;-0.08081877;0;
169.4514;0;0;185.9785;3.433527;-7.514729;154.3632;159.6503;-0.1009383;0.04919713;0;
-378.6934;0;0;-327.5129;5.573531;-6.904332;-384.8334;-381.8005;-0.03586952;0.1790824;0;
-676.3506;0;0;-638.5898;-5.550504;-0.6011204;-681.1101;-676.9558;-0.2307355;0.1139351;0;
-347.8358;0;0;-355.9024;-8.893829;1.944713;-357.7754;-352.5633;-0.100569;0.178788;0;
-226.1722;0;0;-238.7285;-5.000127;0.938015;-233.7281;-230.8326;0.02946676;-0.1462284;0;
-166.6623;0;0;-187.4518;-7.272278;1.941817;-175.2725;-173.8167;-0.1004975;-0.08111414;0;
432.9539;0;0;376.828;-3.447554;1.604951;413.9825;416.1865;-0.2303312;0.3087714;0;
729.4321;0;0;689.2922;-3.041948;0.9335088;710.105;710.9324;-0.4899692;-0.08134289;0;
333.023;0;0;344.585;-5.450765;1.066537;321.1491;322.1007;-0.2945748;-0.6009999;0;
188.5109;0;0;206.6204;-5.043147;-0.2740717;177.0862;182.0348;0.03055788;0.1142448;0;
169.9557;0;0;190.7956;-8.588053;-0.7426769;159.4795;165.9224;0.09549452;0.2440647;0;
-372.4425;0;0;-318.4527;-10.05329;-0.8758965;-374.6624;-369.8501;0.3552679;-0.2759193;0;
-688.9715;0;0;-645.9055;-7.229175;-8.309999;-688.9402;-682.3837;0.2899436;0.114162;0;
-344.7644;0;0;-347.1563;-7.490331;-10.04321;-350.7926;-343.1807;0.09475026;0.1790146;0;
-203.6137;0;0;-211.5005;-6.277356;-10.36803;-210.7603;-208.0286;-0.03527963;-0.08103464;0;
-162.5547;0;0;-175.2436;-4.395038;-12.50094;-171.0684;-170.7757;0.02972316;-0.08095322;0;
426.8125;0;0;379.9036;-12.96444;-2.307221;409.3119;412.103;0.2245953;-0.1458392;0;
726.6077;0;0;689.491;-15.49701;0.30731;706.5634;708.5397;0.09443496;0.04920936;0;
338.6972;0;0;347.6572;-3.558717;-0.09489635;323.7955;325.395;0.02937273;0.1790946;0;
203.4872;0;0;219.6845;-1.210616;3.723226;189.1002;194.3212;-0.03562412;0.1789147;0;
166.3013;0;0;185.9181;-2.281127;-6.52866;153.9903;160.3929;-0.2304904;0.2437022;0;
-386.0882;0;0;-334.9445;1.070068;-9.2684;-389.9536;-384.307;-0.2302588;-0.3412488;0;
-680.9893;0;0;-641.8909;-5.897233;3.668375;-683.7889;-677.5233;0.02984197;-0.4708405;0;
-345.9731;0;0;-355.2023;-6.828336;5.138192;-355.2666;-349.4446;0.1597467;0.374208;0;
-225.4984;0;0;-242.7142;3.225233;3.860475;-234.7201;-232.0898;-0.03531587;0.568734;0;
-162.7407;0;0;-187.6229;5.633866;5.932945;-173.4524;-171.5744;-0.3601171;0.4382279;0;
436.8715;0;0;375.845;7.168447;-2.981503;416.6754;420.8628;-0.2947879;0.3728202;0;
722.976;0;0;675.4415;10.2427;-5.724685;701.8631;704.1099;0.1602797;0.1775436;0;
327.8853;0;0;329.1866;6.146574;1.247048;313.2903;314.5353;-0.03478338;0.1123978;0;
193.1859;0;0;201.17;5.001322;1.111829;177.4187;183.5974;-0.3595851;0.1122849;0;
173.8139;0;0;187.5996;16.24943;0.7757974;158.8746;166.0467;-0.09935446;-0.08272997;0;
-377.7711;0;0;-328.4546;19.24721;1.712779;-383.3875;-378.1592;-0.03428729;-0.2775489;0;
-693.8574;0;0;-655.3351;10.98885;-3.513489;-697.7816;-690.4346;0.1606492;-0.1473353;0;
-349.1457;0;0;-357.3261;10.50929;-5.184532;-359.2502;-351.7232;0.2254551;0.04771478;0;
-215.6743;0;0;-227.2198;8.28793;0.04522444;-224.8941;-222.5596;-0.03464079;-0.3421372;0;
-171.0424;0;0;-187.8237;5.801356;0.7819912;-179.5033;-179.9197;-0.1645407;-0.4067608;0;
423.893;0;0;372.7709;10.08243;-2.232904;408.6315;410.152;-0.29431;-0.1464827;0;
719.5683;0;0;684.6769;9.53644;-2.632558;703.7598;704.8416;-0.229047;0.04856652;0;
327.7918;0;0;342.0358;10.93338;-2.495947;317.6215;318.2023;-0.1638495;0.1134851;0;
193.0925;0;0;214.4436;13.06585;-3.096286;182.62;187.1358;0.0312172;-0.2114657;0;
162.1014;0;0;189.6779;2.470146;-1.887482;151.8894;158.6495;0.03118583;-0.01635118;0;
-380.976;0;0;-320.2564;-0.4127245;-1.416705;-383.1819;-377.7404;-0.3586496;0.1785673;0;
-674.9453;0;0;-628.0298;6.553915;-2.955889;-674.6501;-669.2766;-0.4232565;0.1134205;0;
-343.246;0;0;-343.7288;4.738668;-1.680243;-348.0736;-343.58;-0.2279292;0.3082086;0;
-220.0878;0;0;-226.8795;12.63716;-5.027701;-224.5358;-223.9822;-0.09776551;-0.08190517;0;
-156.8358;0;0;-171.3668;15.4375;-4.955667;-162.4662;-163.5374;0.03226741;-0.6665289;0;
438.3351;0;0;388.9613;2.160102;1.41257;423.4026;423.6444;0.09720234;-0.3410225;0;
722.5641;0;0;686.858;0.6840631;3.085724;705.5226;704.8896;0.2270394;0.1140916;0;
331.2844;0;0;342.2782;-5.813359;8.374153;319.6948;318.5627;0.2268112;-0.08092512;0;
193.2707;0;0;209.7507;-10.96508;10.57605;180.4434;183.8102;0.2265833;-0.08084381;0;
167.9642;0;0;189.4251;-0.3714921;12.84285;154.7124;161.0743;0.1613883;0.1141395;0;
-381.8034;0;0;-327.1307;0.09837179;14.10262;-386.2961;-381.4399;-0.03367588;0.1140248;0;
-695.0121;0;0;-654.075;-3.116908;9.734678;-697.8137;-692.7125;-0.1635767;0.3088122;0;
-338.0553;0;0;-345.3226;-1.975676;8.117307;-347.8506;-342.5046;-0.09844503;0.2435346;0;
-198.8479;0;0;-211.2928;-5.92483;3.085552;-208.446;-206.916;-0.2932481;0.1133552;0;
-163.4158;0;0;-180.6583;-6.321018;0.001236774;-173.6914;-173.4748;-0.4878555;0.1132413;0;
430.0126;0;0;379.1169;-3.367906;-6.026984;411.0018;413.2797;-0.1625286;0.04816017;0;
725.3694;0;0;689.2674;-3.229824;-10.57565;705.9404;706.5293;0.2274388;-0.08182292;0;
326.7155;0;0;341.4993;-1.686337;-6.144268;313.8028;313.579;0.03230821;-0.01677336;0;
187.5196;0;0;210.5343;-1.684643;-6.673957;174.3699;178.3318;-0.2275936;0.04821085;0;
161.4067;0;0;185.4603;1.33116;-9.14562;149.1448;154.477;0.09747177;-0.1467396;0;
-383.1693;0;0;-328.2805;2.937413;-9.136431;-387.9227;-383.8452;0.4222105;-0.2115595;0;
-684.0704;0;0;-640.2936;-3.696971;-8.323455;-687.8819;-683.6212;0.2268843;0.3083918;0;
-342.8667;0;0;-346.9224;-4.496563;-8.181126;-353.1086;-348.9771;0.09672162;0.4380166;0;
-213.3371;0;0;-224.8849;-3.152875;-5.292761;-224.1935;-222.4399;0.2265591;-0.01719492;0;
-155.5267;0;0;-174.9964;-2.546494;-3.746835;-167.0593;-166.5569;-0.1634726;-0.08214498;0;
437.7689;0;0;382.7116;-5.290602;-6.2883;417.1275;419.0038;-0.488145;0.1778069;0;
718.7501;0;0;677.4288;-6.691805;-5.746118;695.2559;695.8184;-0.09785049;0.2425956;0;
330.7226;0;0;335.6695;4.769122;-7.682849;313.0615;312.7489;0.4219866;0.1773845;0;
200.0183;0;0;209.1457;7.308949;-8.746857;182.4999;185.9982;0.3565952;0.04727159;0;
166.0218;0;0;179.7002;8.03854;-3.178606;148.4586;154.0773;0.03140019;-0.0827106;0;
-384.2435;0;0;-333.9723;11.37936;-1.500839;-393.5432;-388.9297;-0.0335987;0.0473072;0;
-688.8291;0;0;-648.4784;0.7853599;-6.32198;-695.7457;-690.1373;-0.03356494;0.1771944;0;
-342.4358;0;0;-355.2864;-2.095817;-7.454338;-356.2169;-350.3018;0.09640347;0.04708162;0;
-207.5968;0;0;-232.4909;4.939862;-1.351523;-221.1142;-219.4529;0.2912086;-0.01793304;0;
-161.9735;0;0;-192.0275;4.666479;-0.4124036;-175.2275;-174.3175;0.3558834;0.2419544;0;
431.7034;0;0;371.07;1.781402;-3.62717;409.8421;413.6248;0.2905584;0.3716459;0;
724.6222;0;0;681.1661;1.64589;-3.690508;701.4709;703.2509;0.1603318;0.3063051;0;
328.2804;0;0;333.1562;-1.637317;-5.361251;311.5243;311.9281;-0.2296334;0.1110954;0;
188.5206;0;0;200.7628;-3.37796;-5.690779;172.0312;176.3076;-0.6192067;-0.08391832;0;
159.908;0;0;178.7596;2.252488;-8.096446;144.3722;150.0186;-0.1638131;-0.01886665;0;
-383.0423;0;0;-331.9135;2.852461;-9.494952;-390.5666;-386.7999;0.6809269;-0.2137497;0;
-678.0715;0;0;-639.3003;0.5724194;-4.394831;-684.901;-679.9512;0.6152754;-0.3434696;0;
-334.2501;0;0;-339.6832;-0.09774105;-3.58662;-346.8824;-340.2509;0.02995109;-0.2131898;0;
-206.6657;0;0;-216.4037;-0.03126995;-1.104648;-217.4737;-215.0342;-0.1000137;-0.277943;0;
-150.4237;0;0;-166.6486;-0.567102;1.910572;-160.846;-161.47;-0.2948152;-0.08276165;0;
441.8048;0;0;392.6128;-2.910081;-5.124434;423.2721;423.3984;-0.489421;-0.01771115;0;
718.9089;0;0;684.0092;-2.438642;-5.989941;698.7706;696.7103;0.09577683;0.1122413;0;
326.196;0;0;336.1214;-10.13935;1.45094;310.5757;309.2047;0.2905826;0.3719979;0;
199.3069;0;0;214.8444;-12.07155;2.722157;182.8277;187.0178;-0.0995134;0.1117548;0;
164.2492;0;0;186.2678;-5.629055;4.327013;149.4732;154.721;-0.1643808;-0.1482269;0;
-388.2632;0;0;-333.9705;-5.55605;6.198065;-393.2793;-390.9103;-0.09924824;-0.2780126;0;
-677.7274;0;0;-636.67;3.826655;2.909795;-681.3641;-678.2479;-0.1641159;-0.2777333;0;
-334.9684;0;0;-339.9916;7.573854;2.237042;-345.8478;-342.4223;0.2258531;-0.01758485;0;
-210.819;0;0;-222.7088;4.819578;4.579197;-221.75;-222.7007;0.5504628;-0.2124692;0;
-152.5739;0;0;-171.8855;6.221255;3.636835;-164.8681;-167.0673;0.1601057;-0.3421904;0;
442.5928;0;0;391.0669;4.07155;4.704907;421.0656;421.9296;0.09497749;0.1129248;0;
726.2553;0;0;690.2109;3.397873;5.034973;704.3124;703.8636;0.09488206;0.04784403;0;
329.1623;0;0;340.3803;0.7824909;-1.266238;312.5513;311.9156;-0.1001153;-0.1471061;0;
191.8379;0;0;208.5419;-0.6248149;-1.934795;174.1192;179.0438;0.02991997;-0.01702359;0;
160.5358;0;0;180.7213;-4.307882;-5.348859;145.0837;151.6901;0.02988991;0.04796087;0;
-387.7875;0;0;-334.5764;-6.849149;-7.219006;-394.2285;-389.7528;0.09482722;0.04791268;0;
-683.6864;0;0;-642.3354;-1.349911;-0.781513;-689.5588;-683.7132;0.289634;0.1128319;0;
-338.6725;0;0;-341.7782;-0.678969;-0.8477107;-350.536;-344.0091;0.1594083;0.04775116;0;
-207.5854;0;0;-212.1248;-0.6109378;7.525764;-217.1256;-215.8527;0.09428073;-0.2121662;0;
-148.9062;0;0;-160.3126;1.130988;11.60404;-157.6872;-158.2272;0.02921866;-0.4718224;0;
439.4477;0;0;391.6961;-0.8125312;2.348978;422.5546;423.8893;-0.2306801;-0.08154424;0;
714.8675;0;0;681.2818;-0.5442711;1.743772;696.6171;696.2013;-0.2954156;0.2433744;0;
331.0293;0;0;339.831;5.217052;1.541071;314.8586;314.8806;0.1596526;-0.08170684;0;
201.8864;0;0;211.1791;8.22592;-0.6038098;181.5466;185.8789;0.1594922;0.1132773;0;
160.4543;0;0;173.4857;3.193813;2.343924;139.6976;145.4623;-0.1005374;0.1131635;0;
-383.1213;0;0;-338.6188;3.190603;2.274586;-395.7986;-391.8513;0.02949827;-0.2767543;0;
-673.9025;0;0;-641.6885;7.541654;-2.081468;-684.1932;-679.8751;-0.03549871;0.0483605;0;
-337.2067;0;0;-350.2524;6.998213;-2.481274;-352.2348;-348.1084;-0.4902344;0.04831191;0;
-208.9322;0;0;-232.8343;14.96178;-4.823184;-223.0081;-224.0708;-0.4897418;-0.2765734;0;
-141.8809;0;0;-179.3771;17.55872;-6.29184;-159.191;-162.3766;0.09545632;0.04854127;0;
454.2746;0;0;380.8966;9.369402;1.953139;424.8629;423.7421;0.3552298;-0.2763442;0;
725.2442;0;0;666.5576;9.226265;5.032269;694.3004;691.9937;0.2249382;-0.5359359;0;
327.2152;0;0;315.8138;3.256124;-0.6660926;302.6118;299.8077;0.2247121;-0.2105607;0;
197.5139;0;0;191.8711;0.2387421;-0.5314574;171.6859;172.3829;0.09455166;-0.01544711;0;
169.3295;0;0;169.0022;5.328717;6.368074;144.3395;146.7849;0.02948931;0.04953577;0;
-378.253;0;0;-342.7855;4.51908;8.50513;-393.098;-391.3422;0.4192637;-0.4052854;0;
-675.2859;0;0;-650.5362;8.667725;7.156925;-686.7427;-684.1765;0.8086464;-0.5997802;0;
-324.3459;0;0;-345.6604;10.53503;8.42241;-339.9766;-338.7249;0.6778993;-0.01447146;0;
-192.7735;0;0;-218.252;6.438603;6.471442;-208.3884;-212.3853;0.2224467;0.05051043;0;
-142.6674;0;0;-175.679;5.962643;5.661144;-161.3901;-166.8822;-0.2325482;-0.274377;0;
449.1786;0;0;381.2802;11.38264;10.4781;422.2913;418.4288;-0.1673472;-0.07919932;0;
726.2128;0;0;676.561;13.91582;11.60629;699.6649;694.8693;0.222625;-0.1440871;0;
327.683;0;0;330.6797;5.194297;6.43706;308.7205;304.5544;0.2873687;-0.2089096;0;
198.2311;0;0;210.5951;4.586842;4.555192;181.2242;181.4976;-0.1027241;-0.2736671;0;
165.3609;0;0;185.0212;5.855031;8.167571;150.8073;152.5172;0.02731379;-0.4033268;0;
-383.5294;0;0;-328.5316;3.638345;7.221603;-388.6357;-388.989;0.2221884;-0.0780848;0;
-673.2483;0;0;-632.1113;14.35196;6.544518;-678.4742;-677.8902;0.1569978;-0.3378757;0;
-334.3668;0;0;-342.7462;15.27457;6.805874;-348.0833;-346.6877;0.09187268;-0.3375362;0;
-209.0936;0;0;-224.5861;15.1255;-1.841519;-223.4835;-225.8374;-0.03815432;0.3124764;0;
-133.4214;0;0;-157.0193;16.45045;-4.050106;-149.421;-153.1469;-0.03811598;0.2471951;0;
462.6006;0;0;409.4164;4.109056;-2.907326;439.5581;438.3347;0.091857;0.05204465;0;
721.3805;0;0;688.552;1.090817;-4.311047;703.2337;700.5123;-0.1031373;-0.07794234;0;
325.4168;0;0;338.9105;-5.608085;1.051798;317.0334;312.628;-0.168001;-0.2077987;0;
201.6519;0;0;216.7562;-10.96108;2.725314;189.4663;189.1258;0.0270698;0.05227947;0;
168.9031;0;0;184.617;-5.993577;3.25844;152.9192;154.4531;-0.03792474;0.1821616;0;
-381.2402;0;0;-334.87;-8.131009;5.532463;-389.7118;-390.1784;0.09204805;-0.1428581;0;
-675.584;0;0;-643.066;-5.577243;5.593887;-682.1105;-682.4517;-0.1679138;-0.07774725;0;
-328.7666;0;0;-340.9463;-5.170474;7.262839;-340.0343;-340.1877;-0.2976798;0.1822003;0;
-200.5006;0;0;-214.6046;-5.968585;7.657439;-210.57;-213.5968;0.02745605;0.3119518;0;
-146.2013;0;0;-165.5385;-4.75714;8.45354;-157.1976;-160.8461;0.2223305;0.5065404;0;
445.8356;0;0;393.7218;-10.24472;9.583756;427.5415;425.5208;0.3520418;0.4410641;0;
724.9346;0;0;684.4299;-10.36814;9.105246;703.9727;701.2045;0.02685133;0.05081689;0;
331.7784;0;0;333.8555;-12.70225;16.19604;312.3369;309.0717;-0.03814299;-0.3390383;0;
204.0716;0;0;209.1451;-13.56014;18.92607;181.8385;181.3876;0.1567974;-0.4036649;0;
173.5068;0;0;181.5112;-7.719369;9.194772;151.7957;152.4698;-0.2331642;-0.2733246;0;
-379.2023;0;0;-337.0981;-6.171371;7.31001;-392.0835;-393.2216;0.02693941;-0.2080826;0;
-678.2958;0;0;-648.8525;-1.878262;9.111205;-690.4768;-690.9267;0.2218144;-0.2078736;0;
-337.2853;0;0;-354.5981;0.5354985;6.757647;-355.6385;-355.3383;-0.4280819;-0.07773001;0;
-207.3865;0;0;-227.4305;2.343622;12.64523;-223.7847;-226.6083;-0.2977171;-0.4024886;0;
-137.1508;0;0;-166.1077;3.546715;14.90995;-154.657;-158.3523;0.2223208;-0.7918882;0;
459.6246;0;0;392.9657;5.820327;3.910008;431.8911;429.8862;-0.1027393;-0.3363211;0;
722.6553;0;0;669.0569;8.025282;2.968318;692.0137;687.5745;-0.2325708;0.2487229;0;
332.0002;0;0;319.8723;-4.843505;4.773753;303.076;298.329;-0.1673697;0.3784076;0;
217.5989;0;0;205.2958;-8.723404;3.630368;183.3315;184.149;-0.2971362;0.118158;0;
175.6513;0;0;166.9837;-2.485348;12.60219;140.981;143.1719;-0.03696832;0.05307198;0;
-384.2439;0;0;-357.608;-4.024068;13.8622;-408.1347;-408.1324;0.2879055;0.1829533;0;
-673.0874;0;0;-655.6611;-1.6755;16.25954;-693.9557;-692.5791;0.4175509;-0.5318713;0;
-322.6494;0;0;-351.1551;-0.6020899;17.64984;-350.1184;-348.1185;0.352164;-0.7262388;0;
-192.7653;0;0;-227.6141;-4.619973;13.34532;-220.8939;-222.5192;-0.03799388;-0.2707377;0;
-136.4124;0;0;-177.4106;-5.218543;13.59984;-167.0114;-169.3847;0.2219137;-0.3354331;0;
459.9875;0;0;385.9846;-2.332911;2.266306;420.4237;419.677;0.5465274;-0.0102593;0;
732.2632;0;0;673.7644;-1.660982;-1.218961;694.2384;691.8058;0.4160435;0.184653;0;
325.544;0;0;315.8295;-2.328898;-0.4140632;294.6164;291.9363;0.4156255;0.1195002;0;
203.4656;0;0;199.2581;-0.9873875;-2.958877;170.0703;171.266;0.02540384;-0.01055461;0;
183.0213;0;0;181.3168;-5.138605;4.077182;149.847;152.4783;-0.6242951;-0.400348;0;
-373.9452;0;0;-346.2878;-6.205169;4.67581;-397.6535;-396.649;-0.1039291;-0.07510907;0;
-676.2299;0;0;-663.2803;0.2978006;10.43152;-697.9777;-695.9123;0.5458488;-0.1400009;0;
-331.6607;0;0;-363.0769;0.7669919;13.50226;-358.2593;-356.196;0.1554963;-0.3997296;0;
-201.5802;0;0;-236.6505;2.573906;8.264141;-227.2775;-229.1517;0.09037267;0.1204108;0;
-132.8496;0;0;-175.3809;2.57132;8.255837;-161.2697;-163.8292;0.3501512;0.1852571;0;
463.5467;0;0;387.6999;5.650195;4.228688;424.0357;424.04;0.2198647;-0.07479841;0;
730.7589;0;0;672.8543;8.927048;1.478139;689.9133;688.3558;0.2196438;0.2501135;0;
335.5354;0;0;330.6624;-8.430624;0.4719095;301.5399;299.6093;-0.3003156;0.05496012;0;
206.263;0;0;216.0751;-11.70371;-2.006811;174.3008;178.1191;-0.2350466;-0.2049645;0;
166.9505;0;0;187.1224;-5.328934;-5.420924;139.6429;145.394;0.219961;-0.009856506;0;
-379.88;0;0;-331.3676;-6.194235;-8.161655;-398.2896;-395.6052;0.02483798;-0.1397813;0;
-662.2312;0;0;-637.0058;0.9783084;-5.139345;-683.0585;-679.6898;0.219715;-0.2046082;0;
-315.3648;0;0;-343.9503;2.049052;-4.19642;-346.3535;-342.301;0.349429;0.0554668;0;
-189.5485;0;0;-224.9143;12.42947;-10.89025;-221.1933;-220.3932;-0.1056935;0.2503131;0;
-135.3227;0;0;-176.3376;17.90934;-11.75009;-165.374;-165.8241;0.02434734;0.05515955;0;
453.205;0;0;379.4353;7.709936;-7.250547;417.4368;418.7363;-0.04064446;-0.2697326;0;
728.2361;0;0;672.2817;8.908614;-7.042313;693.3785;693.5522;-0.2355057;0.2502772;0;
322.3955;0;0;316.3472;-0.4784361;-2.413536;293.2575;292.619;-0.1703017;-0.009843683;0;
200.3203;0;0;197.5889;-6.104033;-1.339384;166.8388;170.2614;-0.04019586;-0.5945398;0;
191.4984;0;0;191.5808;7.699852;0.6713277;155.9265;160.5326;0.4146159;-0.07420374;0;
-369.4747;0;0;-338.5329;7.625742;2.747124;-397.2646;-394.7247;0.2192973;-0.2040639;0;
-676.449;0;0;-662.6546;3.933408;-5.963173;-703.4614;-698.9874;-0.04079244;-0.5936629;0;
-325.1955;0;0;-355.8926;4.66639;-6.82796;-356.8659;-351.7718;0.2840853;-0.2682296;0;
-198.932;0;0;-229.4109;-3.844765;-9.634382;-227.3847;-227.4181;-0.0410369;0.1868113;0;
-135.8262;0;0;-171.0846;-6.185426;-11.43312;-164.2504;-164.5336;-0.1709303;0.3165582;0;
458.5115;0;0;388.9933;-2.293469;-5.326428;420.3084;423.7736;-0.1057913;-0.008596546;0;
715.1716;0;0;659.2164;-1.755301;-4.182366;675.3827;677.7199;-0.300587;-0.3334246;0;
318.4021;0;0;308.8549;-4.768623;1.113366;285.7745;287.8596;0.08951911;-0.2681223;0;
210.5112;0;0;207.5328;-5.299695;4.394411;178.3537;184.9969;0.08942915;0.1219512;0;
176.9415;0;0;181.5872;1.940275;5.126686;147.6899;154.4512;-0.04059539;0.381698;0;
-385.8286;0;0;-349.5784;3.545915;7.198006;-405.9928;-401.2372;0.7390535;-0.2683589;0;
-673.3586;0;0;-654.9484;6.622835;9.40121;-693.5651;-687.0027;0.6733435;-0.3330566;0;
-335.539;0;0;-364.3736;9.362846;11.06621;-361.4723;-355.9785;-0.04197378;0.6417882;0;
-221.5715;0;0;-255.3121;3.392568;6.567361;-247.0414;-246.3007;0.08800308;0.576176;0;
-149.2601;0;0;-190.3381;2.785947;5.422052;-176.0163;-176.5257;0.152882;-0.1390437;0;
460.8333;0;0;386.2509;4.52446;6.01945;425.4209;426.2238;-0.2370757;-0.00896934;0;
729.6724;0;0;674.1555;4.587263;4.606883;695.1701;694.9103;0.08799925;0.3158764;0;
323.6429;0;0;321.2801;1.433845;7.214466;297.9209;298.1611;0.6076496;0.05568964;0;
205.2521;0;0;210.0755;0.2269558;8.278943;179.9932;185.1057;0.3471696;-0.3991377;0;
175.7481;0;0;185.3142;2.772323;3.648924;151.8264;158.3081;0.02198408;-0.463704;0;
-391.2686;0;0;-349.3533;1.429391;3.645258;-406.1707;-402.819;0.3467987;-0.2033687;0;
-683.3535;0;0;-654.0364;10.33656;6.253808;-695.4295;-692.5184;0.4114176;0.05670501;0;
-331.4683;0;0;-345.2217;14.14457;6.984336;-348.967;-344.9345;-0.04376721;-0.07328666;0;
-209.6339;0;0;-226.9965;1.805497;14.74722;-226.9276;-226.0225;0.02124411;-0.2031477;0;
-144.7682;0;0;-169.0475;1.468891;19.62203;-161.6697;-162.6396;0.2161248;0.3817625;0;
462.5096;0;0;404.834;0.7304804;13.57397;437.8164;439.0964;0.1509403;0.4463463;0;
728.3485;0;0;687.5349;-1.078915;14.16318;703.8676;704.0219;0.2807233;-0.07384099;0;
319.1969;0;0;328.3368;8.300268;23.05743;302.0494;300.8292;0.0855392;-0.3336362;0;
195.6881;0;0;213.2521;10.16696;24.37392;177.371;179.9626;-0.4342855;-0.2033662;0;
159.5096;0;0;184.677;10.82633;30.10972;141.2733;146.1736;-0.2389471;0.1216748;0;
-389.3124;0;0;-332.9984;12.28932;33.56258;-399.2845;-395.8259;-0.04380496;-0.07334947;0;
-663.2833;0;0;-622.5806;13.95191;24.15149;-671.059;-666.9792;-0.238663;-0.2681778;0;
-322.8501;0;0;-327.2906;15.34441;23.45739;-336.5525;-331.7896;-0.3033905;-0.00803896;0;
-205.3971;0;0;-213.6437;9.970361;20.62054;-219.9603;-218.7629;-0.2381183;0.1219038;0;
-133.1644;0;0;-149.3363;9.022337;17.71968;-148.65;-149.3903;0.08695766;-0.1380881;0;
460.9208;0;0;406.9717;5.664369;23.99814;437.3299;437.5898;0.216805;-0.5927207;0;
712.581;0;0;672.8665;2.778289;23.97403;688.389;687.4618;0.2815545;-0.2672884;0;
312.3158;0;0;322.2412;9.072137;24.21787;293.2081;293.0314;0.3462389;0.1227842;0;
198.559;0;0;212.9098;10.33582;24.52845;177.4716;181.6054;0.150989;-0.2671432;0;
157.3176;0;0;177.4011;4.096143;24.10191;137.3133;142.5674;0.02090257;0.05796193;0;
-400.5601;0;0;-349.5749;2.75188;24.34562;-412.4859;-407.9242;-0.1740205;0.2528057;0;
-675.7691;0;0;-643.7631;10.51865;20.50313;-686.8708;-680.627;-0.1088783;0.05764967;0;
-328.1395;0;0;-343.3294;12.45144;19.20998;-344.6023;-339.1145;0.02116582;0.05759174;0;
-204.1219;0;0;-226.6679;7.616155;16.84627;-220.3808;-218.9589;0.0861119;-0.07240082;0;
-135.5137;0;0;-166.9076;7.072639;14.28412;-153.8802;-153.022;0.2809274;-0.007360734;0;
460.2606;0;0;395.7899;9.944944;16.61404;432.2299;434.7739;0.1507104;0.1225814;0;
720.542;0;0;671.3785;10.67189;15.32468;690.603;692.3948;-0.2392451;0.2523929;0;
314.7716;0;0;314.9452;7.178538;16.24704;290.3599;293.087;0.08583205;-0.07269745;0;
200.5751;0;0;205.1213;7.171325;17.50339;174.7511;181.1611;0.6704519;-0.3974611;0;
168.9518;0;0;179.6778;6.293463;8.845247;143.841;151.1191;0.3449415;0.4475137;0;
-390.4993;0;0;-345.1765;5.884998;7.563684;-406.402;-400.4431;-0.1101765;0.3820967;0;
-670.4036;0;0;-642.4925;8.625751;9.833382;-685.0409;-678.2759;-0.04509844;-0.2679607;0;
-331.0876;0;0;-351.3055;8.28229;9.019828;-351.4574;-344.5118;-0.1749878;0.05714531;0;
-215.8127;0;0;-241.57;15.23922;16.78054;-235.4124;-232.5342;0.1500247;0.1220552;0;
-132.3252;0;0;-166.24;17.56843;19.37589;-153.1546;-152.2783;0.4747107;0.05696525;0;
471.6917;0;0;405.952;11.72363;19.49039;443.0122;445.5118;0.149397;0.3167774;0;
719.343;0;0;671.5355;11.57813;21.94917;691.0047;691.9401;-0.04565515;0.1865244;0;
317.1345;0;0;316.5388;6.140509;20.85539;294.1345;295.1314;-0.1105766;-0.1384998;0;
201.7487;0;0;206.4009;2.651715;22.37504;177.2101;183.0161;-0.1754328;-0.07339324;0;
161.3787;0;0;173.5849;9.079412;21.54877;138.5514;145.5384;-0.1752566;0.1865499;0;
-393.6921;0;0;-348.0774;10.00732;21.92901;-407.1261;-402.7698;0.2147236;0.1213951;0;
-674.7175;0;0;-644.3286;-2.461319;23.24664;-686.1391;-681.0375;0.6043119;0.2512078;0;
-330.5872;0;0;-346.0807;-7.214268;22.62043;-346.2452;-340.7739;0.3438353;0.1210207;0;
-208.1914;0;0;-225.9182;6.055845;28.42509;-223.3339;-221.6787;0.2135551;-0.07400294;0;
-139.0793;0;0;-162.2856;7.321582;29.20033;-155.3935;-154.9893;0.01843851;-0.008961237;0;
466.8184;0;0;409.7775;0.01320754;29.03702;442.3997;444.6776;-0.1115147;-0.1388869;0;
732.2782;0;0;692.411;-0.3215984;30.07945;707.4468;708.0356;0.2134341;-0.008812678;0;
317.0632;0;0;327.0236;-3.937622;21.00677;298.691;298.7171;0.473089;-0.07377116;0;
193.4316;0;0;207.6923;-5.273812;18.10552;173.7036;177.3528;0.1477769;-0.1386644;0;
163.6272;0;0;183.0584;-7.545688;18.35526;144.4811;148.8763;-0.1772083;-0.1385251;0;
-395.7562;0;0;-341.6119;-9.815282;15.72448;-405.825;-402.6836;-0.1120629;-0.2683205;0;
-671.7196;0;0;-630.5607;-3.576129;17.78515;-680.1541;-675.5791;-0.04698296;-0.1381163;0;
-322.4074;0;0;-326.4547;-2.166016;17.43237;-335.2687;-330.9482;0.0180316;-0.07301013;0;
-212.8883;0;0;-224.8651;-2.699703;15.80726;-224.2375;-224.6689;0.2778828;0.2519;0;
-138.7116;0;0;-160.9836;0.5845634;16.32724;-151.736;-153.1665;0.01773426;0.3815815;0;
469.6846;0;0;414.2016;-5.376895;13.36371;447.3029;448.9973;-0.437055;-0.008605951;0;
720.0865;0;0;678.5273;-5.572563;12.34554;696.7903;697.1087;-0.2417138;0.2512721;0;
321.6254;0;0;326.6471;2.87313;18.09354;303.4126;302.9185;-0.1115362;0.3159869;0;
213.2315;0;0;224.9948;3.137686;19.013;193.7877;197.7294;-0.3063262;0.05580007;0;
161.1684;0;0;179.479;15.66046;19.32881;142.3062;148.243;-0.1760837;-0.009223357;0;
-401.3984;0;0;-351.7469;20.86867;20.91698;-412.8703;-408.4387;0.08396261;-0.07418143;0;
-671.0468;0;0;-637.6246;7.853251;13.99684;-682.1324;-676.6433;-0.04605644;0.1857625;0;
-325.7333;0;0;-336.6974;7.109402;11.30358;-343.3044;-337.8833;-0.1109775;0.1855758;0;
-209.4643;0;0;-223.1659;2.078417;19.73183;-225.456;-224.2258;0.1490034;0.120422;0;
-141.2255;0;0;-163.4091;-2.880165;21.25261;-158.2007;-158.0961;0.213821;0.4451377;0;
460.3641;0;0;402.5332;6.432503;13.72929;433.0362;434.8898;0.08367147;0.5096578;0;
719.6459;0;0;678.115;7.296696;13.31372;691.4084;692.0108;-0.1113146;0.4441783;0;
311.1278;0;0;318.1767;-0.7476121;12.42957;288.291;289.0802;-0.1761701;0.1838627;0;
198.2468;0;0;207.4125;-0.07727554;11.07742;174.0586;179.0324;0.08387626;0.3136126;0;
167.1256;0;0;179.593;-4.698898;18.09937;144.8358;150.6791;0.1487593;0.5081995;0;
-398.3206;0;0;-352.8824;-6.837631;20.22452;-412.2173;-407.7542;0.2785445;-0.1419846;0;
-673.4069;0;0;-644.4436;8.23979;16.7212;-687.3521;-680.707;0.01839528;-0.5966133;0;
-320.22;0;0;-338.0123;11.1119;16.43647;-340.8353;-333.6346;-0.1115579;-0.2711771;0;
-213.3893;0;0;-235.5365;12.30618;21.57752;-233.1093;-230.1638;0.5382276;-0.1409699;0;
-138.3375;0;0;-170.7073;14.43727;22.62757;-159.1621;-157.5314;0.6026542;0.1840084;0;
473.6815;0;0;405.2998;12.7488;18.18408;443.2576;446.4484;0.1472772;0.4436929;0;
719.3318;0;0;668.7599;13.74037;16.89313;688.064;689.4399;-0.0477728;0.2483451;0;
315.8739;0;0;316.4522;3.143015;15.33555;290.8844;291.9466;-0.2426268;-0.01177386;0;
211.2964;0;0;213.9356;-0.007975254;13.17681;184.2705;191.2038;-0.1774157;-0.01176203;0;
160.3596;0;0;166.4319;-0.4101089;11.15408;133.9856;143.598;-0.1122701;0.1181845;0;
-409.0154;0;0;-366.2177;-2.887943;9.066402;-425.4929;-418.139;0.1477121;0.3129677;0;
-676.5322;0;0;-648.0828;0.9333518;8.186636;-690.7443;-684.1475;0.1475637;0.1827186;0;
-326.9028;0;0;-344.209;0.8650649;7.575563;-346.0981;-340.7573;-0.04748662;-0.2072691;0;
-209.3208;0;0;-229.733;6.423901;4.017856;-226.9351;-225.9099;0.2773978;-0.2720281;0;
-135.5849;0;0;-163.6603;8.627273;3.34399;-152.4319;-154.3438;0.1471844;-0.1418201;0;
466.6861;0;0;407.0298;8.418509;6.421844;442.5472;442.7612;-0.2427676;-0.07671027;0;
723.9002;0;0;680.5457;10.08401;7.554101;698.2238;698.5626;-0.1775563;0.1832362;0;
313.8785;0;0;316.2321;5.385808;10.69459;293.7252;292.7517;-0.1124105;0.1180847;0;
196.0597;0;0;204.5329;4.107599;12.89428;175.6768;178.8272;0.01763711;-0.01196862;0;
162.2546;0;0;179.5898;6.045855;15.89543;143.3914;149.7246;-0.24225;0.05301077;0;
-399.3138;0;0;-347.4508;6.776714;18.62564;-408.6003;-403.5229;-0.5668433;-0.2718792;0;
-675.5234;0;0;-638.0179;-0.6658109;17.26739;-682.6768;-678.9788;0.2133344;-0.3365734;0;
-319.7107;0;0;-329.4691;-2.673898;17.85288;-333.1037;-331.1585;0.21312;0.1185362;0;
-207.6956;0;0;-223.3788;3.28966;21.4519;-220.7628;-221.1309;-0.1768982;-0.1414523;0;
-138.3966;0;0;-161.3729;2.415698;22.83699;-151.888;-153.0053;-0.1117531;-0.4011795;0;
472.0606;0;0;415.4994;10.25015;19.79981;450.0872;450.2203;-0.3065428;-0.07593969;0;
715.9635;0;0;675.2012;11.78009;19.71293;692.5753;692.9581;-0.1763001;0.05407131;0;
310.0727;0;0;317.0149;9.960572;20.5639;292.1428;293.0251;0.2136811;0.05401698;0;
202.0028;0;0;217.1839;11.89295;20.6772;183.2788;187.7209;0.4733357;-0.01100465;0;
147.0149;0;0;169.9893;-2.453595;22.26402;129.4342;134.9337;0.4728601;-0.2058956;0;
-411.3522;0;0;-358.2286;-6.067476;22.97846;-420.1697;-415.9875;0.08258095;-0.5305254;0;
-671.4954;0;0;-636.0413;-5.12435;22.8214;-679.9917;-673.9396;-0.0474367;-0.7248944;0;
-329.8671;0;0;-343.2991;-7.864891;22.46356;-346.1009;-339.8676;0.0175783;-0.334362;0;
-219.0287;0;0;-239.0064;-3.503708;25.12018;-235.2462;-234.2665;-0.112374;-0.009189288;0;
-139.2236;0;0;-166.6774;-4.303494;24.22416;-155.9246;-156.8199;-0.04729379;0.0557873;0;
466.7368;0;0;406.7019;4.341018;24.06586;441.9316;443.0987;-0.1122136;-0.00923611;0;
718.8908;0;0;679.281;7.685558;22.83611;694.9852;694.4644;0.01783383;-0.07419417;0;
309.9362;0;0;322.4025;2.587621;15.37817;292.6762;292.031;0.1477506;-0.009152279;0;
192.5586;0;0;208.1358;4.661126;12.0137;173.0671;177.67;-0.1772346;-0.07411043;0;
158.5071;0;0;176.505;-3.246811;3.829831;140.8468;147.444;-0.1770565;0.3157681;0;
-401.4958;0;0;-350.8448;-4.984861;-1.934427;-409.5806;-404.8016;-0.1768786;0.2504835;0;
-675.7043;0;0;-640.1592;-0.8940156;-0.5258418;-683.2813;-677.3826;-0.2416682;-0.1395723;0;
-318.0797;0;0;-329.5468;-1.49633;-3.405457;-331.0839;-326.0658;0.08341134;-0.4642687;0;
-207.8154;0;0;-226.2674;6.676847;-4.339797;-220.4941;-219.604;-0.1115745;-0.3338675;0;
-137.0795;0;0;-165.7579;10.48853;-4.402419;-151.0574;-150.6679;-0.2413971;0.05627198;0;
478.6238;0;0;416.5536;6.191085;-10.35935;456.4766;457.7403;-0.04625249;-0.07371926;0;
720.7709;0;0;675.0674;7.055521;-12.42542;696.5845;695.1608;-0.1111734;-0.1386125;0;
306.3796;0;0;307.7608;12.80823;-5.580794;286.7152;284.2935;0.2137751;0.3162982;0;
201.7492;0;0;207.5643;13.86709;-4.97234;181.6673;183.8082;0.01865823;0.251013;0;
151.3842;0;0;162.8781;17.06833;-4.297514;133.1341;137.6466;0.01863948;0.1857934;0;
-412.3596;0;0;-365.7074;19.46306;-2.618623;-421.7833;-418.6497;0.6682942;0.5104434;0;
-666.5048;0;0;-632.4557;10.26647;-8.912266;-673.3578;-670.7896;0.2778186;0.2500612;0;
-321.1334;0;0;-332.2833;8.849639;-9.707106;-331.7276;-331.4108;-0.3721339;-0.3348961;0;
-218.2373;0;0;-236.4974;8.840747;-9.295454;-227.634;-231.9401;0.01804402;-0.204625;0;
-135.9343;0;0;-163.4214;6.554688;-9.955943;-146.2585;-151.1226;-0.04694145;-0.07448468;0;
467.9613;0;0;412.2661;13.7154;-6.195017;450.2137;447.9782;-0.371731;-0.3342792;0;
706.5585;0;0;672.096;14.83972;-4.179305;689.0785;686.0956;0.2133486;-0.463878;0;
302.0515;0;0;315.9119;14.22257;-7.25632;290.0863;286.4193;0.4080363;-0.5933465;0;
192.8652;0;0;209.023;16.01694;-7.382995;179.8501;179.8724;0.08278954;-0.3978483;0;
152.0668;0;0;172.1439;12.65097;1.600015;140.6265;142.0231;-0.04722833;0.05732282;0;
-409.5537;0;0;-353.6399;13.0404;4.277602;-411.4873;-412.7783;-0.4369849;0.1871999;0;
-680.4434;0;0;-640.1403;12.55878;4.340287;-681.3755;-682.2278;-0.1766765;-0.007890239;0;
-321.7521;0;0;-330.0901;11.27336;6.94826;-329.4299;-329.2819;0.2782724;0.05708504;0;
-208.2357;0;0;-219.2515;17.08918;1.984663;-214.0317;-217.5071;-0.04684387;0.1869624;0;
-139.5609;0;0;-157.687;17.07201;1.647755;-145.8508;-151.1343;-0.3066662;0.1867745;0;
467.7741;0;0;416.1206;18.19393;3.253567;452.3701;448.1539;-0.306358;0.1216195;0;
707.8082;0;0;674.3849;18.84524;2.312659;693.0443;687.7704;0.2136885;0.05652995;0;
295.4914;0;0;309.3279;13.13287;8.20459;286.7393;282.4078;0.2134738;0.05647315;0;
190.3722;0;0;206.6936;13.18703;9.870918;179.7549;179.6131;-0.4364141;0.1213837;0;
145.8907;0;0;167.5055;2.121716;6.578959;136.1586;136.3292;-0.1761062;-0.1386076;0;
-413.1;0;0;-360.3976;-2.435744;6.974246;-415.2636;-416.2176;0.2138748;-0.3333704;0;
-670.8052;0;0;-633.4605;8.485044;5.895511;-671.0926;-671.0461;0.1486925;0.121736;0;
-320.307;0;0;-325.541;9.012382;4.951826;-324.2798;-324.5456;0.2784778;0.5114177;0;
-218.5986;0;0;-228.8873;10.1424;7.291253;-221.8177;-224.9569;0.278198;-0.00883487;0;
-145.603;0;0;-165.5015;11.33766;7.283927;-151.2552;-154.8285;0.1479838;-0.008825992;0;
470.1713;0;0;417.3719;11.39264;6.137898;453.9676;452.272;0.4077044;0.2510523;0;
713.9511;0;0;676.8219;10.77896;6.533628;696.7017;693.5085;0.6021968;-0.1390041;0;
302.0654;0;0;312.5121;11.23664;2.976968;292.7669;289.3895;0.01688565;-0.2038317;0;
197.4393;0;0;214.3098;10.55576;2.036338;187.7753;189.149;0.01686868;-0.2685943;0;
149.9522;0;0;174.3644;3.646281;2.904948;141.3599;143.6692;0.2767211;-0.593161;0;
-414.9771;0;0;-357.1687;2.503542;0.8926626;-414.253;-413.4453;0.1465084;-0.202761;0;
-671.8058;0;0;-631.984;-8.952201;10.26913;-671.0824;-668.7138;0.3412632;-0.07262261;0;
-314.9973;0;0;-323.6911;-13.43118;12.80416;-321.6459;-319.7794;0.01608357;-0.2024843;0;
-211.4827;0;0;-223.3537;-3.504703;2.944931;-216.313;-218.0716;-0.3737366;0.1225559;0;
-138.7441;0;0;-156.975;-2.162011;2.071315;-143.5696;-146.2634;-0.3083938;-0.07246932;0;
474.2747;0;0;424.3906;2.060697;-1.68181;459.3966;458.3297;-0.3730512;-0.1373639;0;
716.7386;0;0;686.2073;5.608599;-4.895179;700.1263;696.874;-0.04783968;0.5124476;0;
309.2229;0;0;325.6987;11.29639;0.8031669;298.4369;294.1884;0.1471104;0.5769001;0;
203.84;0;0;221.6736;15.43725;1.003309;192.7525;194.5052;0.01702791;0.1865163;0;
151.1615;0;0;171.9757;19.64227;-2.48069;142.7713;146.0216;0.3418475;-0.07354048;0;
-414.6435;0;0;-365.1147;25.11489;-2.54518;-414.9044;-414.9058;0.4714387;-0.1384339;0;
-671.7225;0;0;-639.2349;14.30504;-1.471018;-671.5458;-670.2354;0.2110956;0.1865419;0;
-324.3468;0;0;-333.9957;13.35364;-0.4647959;-327.8559;-327.2964;0.08094884;0.1863545;0;
-222.5094;0;0;-233.273;21.84669;1.076279;-224.4533;-227.8299;-0.3089365;0.2511345;0;
-138.2655;0;0;-155.64;22.56167;3.754392;-141.0821;-144.018;-0.6984302;0.1859149;0;
476.1896;0;0;428.5977;26.02162;3.549671;465.8797;464.7583;-0.3079243;-0.009173982;0;
714.7159;0;0;687.2244;26.59869;6.158439;703.6668;700.6725;0.08218911;0.05580259;0;
305.7655;0;0;324.4034;28.78179;10.1711;299.0378;295.6092;0.2120412;-0.1391555;0;
202.0728;0;0;220.3171;28.08328;12.10339;192.7281;193.2385;-0.1779759;-0.07404836;0;
149.7709;0;0;174.5561;27.18441;23.34399;141.5601;143.4443;-0.3077317;0.3158301;0;
-420.468;0;0;-359.351;25.95164;27.8084;-418.863;-418.4175;-0.1774879;0.2505454;0;
-676.1668;0;0;-631.353;15.07458;25.43605;-673.1266;-671.3073;-0.4371789;-0.1395104;0;
-326.9126;0;0;-327.9333;11.24104;26.28127;-328.5606;-327.9925;-0.04693555;-0.5291743;0;
-226.7593;0;0;-232.0269;-0.6256266;25.98693;-226.844;-232.1484;0.407883;-0.008903805;0;
-147.1963;0;0;-162.5161;-8.66295;25.29099;-149.6547;-155.5785;0.01766911;0.9006479;0;
466.5182;0;0;417.3558;1.459811;18.70137;454.4421;451.2729;-0.1122833;0.4449716;0;
717.1732;0;0;683.6149;0.119174;15.66847;704.7969;699.1321;0.3426009;-0.3350837;0;
308.4701;0;0;321.7346;-2.0244;10.22723;301.8534;295.3197;0.4721913;-0.2048123;0;
190.9691;0;0;211.2792;-0.9506385;5.461289;182.4849;181.0803;0.1468801;-0.0746718;0;
142.8638;0;0;171.1494;-6.576737;12.22096;135.6375;135.3587;0.01679788;-0.2045314;0;
-422.0584;0;0;-362.7543;-7.306087;12.27566;-420.032;-422.372;0.1467157;0.1205108;0;
-681.4412;0;0;-642.1241;-2.208531;6.837829;-678.4799;-678.3187;0.2115356;0.2503244;0;
-321.3746;0;0;-327.949;0.07086334;5.759231;-323.3513;-322.1909;0.1463557;-0.3346332;0;
-218.5407;0;0;-225.9831;-6.09115;8.23169;-219.1411;-221.7924;0.08124131;-0.07442763;0;
-140.2979;0;0;-155.0416;-7.96104;8.424369;-143.3964;-147.0445;0.01619234;0.2504839;0;
479.9689;0;0;430.3825;4.304471;7.545125;466.8161;464.296;-0.3086606;0.05533017;0;
714.8058;0;0;683.5101;6.779368;8.274356;702.166;697.2122;0.01648621;0.2501766;0;
304.2311;0;0;321.1301;3.691097;5.452881;298.7878;293.1519;0.08143699;0.3798599;0;
205.9122;0;0;223.7312;5.964564;5.849299;198.288;196.8431;-0.5033509;0.3794782;0;
146.2977;0;0;170.5955;-3.954415;7.651839;139.0559;139.3616;-0.04807375;0.2491622;0;
-428.6229;0;0;-369.1172;-6.763481;9.385707;-426.4247;-426.9938;0.601648;-0.1408922;0;
-679.2535;0;0;-636.4867;1.146569;9.175327;-675.1834;-675.0024;0.2762067;0.1840861;0;
-326.9978;0;0;-329.5636;1.48021;8.764211;-329.1161;-328.6854;0.2109618;0.3138358;0;
-222.2842;0;0;-227.2212;2.014586;23.0224;-224.213;-227.0311;-0.04911949;-0.2711856;0;
-131.0441;0;0;-144.0971;2.950567;27.48713;-134.0329;-138.2225;-0.5038415;-0.07601111;0;
477.5942;0;0;429.447;4.756263;20.69435;464.9883;462.6769;-0.63327;0.1189673;0;
708.8729;0;0;677.8904;6.425447;21.27641;694.8428;691.8466;-0.502699;0.1838151;0;
304.2386;0;0;323.2621;3.940744;16.49936;297.6564;294.1635;0.1474796;0.5084671;0;
200.1726;0;0;224.0495;3.400921;13.06665;193.3471;193.6683;0.4721681;0.3780215;0;
153.4323;0;0;182.5951;6.947477;16.46965;148.3003;149.3084;-0.04804508;0.3126743;0;
-411.8128;0;0;-353.0067;7.611058;15.38138;-407.5693;-408.5613;-0.0479968;0.3773275;0;
-672.7051;0;0;-634.198;4.521951;6.591401;-668.2786;-667.5204;0.01701877;0.117079;0;
-315.9582;0;0;-322.717;4.048893;3.034683;-317.5331;-315.7762;-0.04796567;0.05199403;0;
-214.3167;0;0;-223.5049;3.977476;6.514746;-214.8904;-217.0083;0.2769192;0.2468438;0;
-140.5758;0;0;-159.0626;3.90613;5.972337;-142.5857;-145.8884;0.01677161;-0.2081756;0;
474.3814;0;0;422.9922;4.772861;3.621933;463.503;461.9527;-0.1131799;-0.7277052;0;
712.0351;0;0;680.3126;6.175561;3.484328;700.3555;696.9327;0.1468032;-0.2072352;0;
299.9639;0;0;317.1862;4.360695;5.1554;294.0431;290.4364;0.08168832;-0.012125;0;
195.0901;0;0;219.2915;4.490035;6.288929;188.4256;188.1958;0.08160624;-0.3369495;0;
139.0471;0;0;172.4072;9.643087;8.425942;134.3883;134.0963;-0.04841044;-0.07674158;0;
-430.8687;0;0;-366.8701;9.566049;10.96283;-426.9021;-428.1934;0.08157288;-0.4015012;0;
-677.9363;0;0;-632.0555;19.3357;9.411204;-672.7869;-672.2028;0.1464583;-0.2711631;0;
-322.3711;0;0;-320.5766;23.53681;10.07158;-321.787;-321.8281;-0.1785256;0.5736849;0;
-227.782;0;0;-228.8005;9.112193;16.42471;-226.6987;-230.3006;0.2114578;0.118337;0;
-139.6598;0;0;-151.0471;6.824885;18.01568;-141.2013;-145.6116;0.2762127;-0.2066186;0;
479.6068;0;0;431.3121;7.353891;20.40896;468.5716;465.665;-0.3087709;0.05345838;0;
711.0708;0;0;681.7526;4.734533;22.4648;699.7968;695.3939;-0.1135586;-0.1414974;0;
302.4988;0;0;323.6847;5.399362;18.55734;297.9828;293.3344;0.4712615;0.2484489;0;
196.3106;0;0;220.4112;4.255836;18.87361;191.0495;190.7161;0.4058207;0.5080686;0;
150.7611;0;0;179.5851;3.849418;16.64433;146.13;146.9214;0.01560885;0.312656;0;
-415.5433;0;0;-353.5149;3.242338;16.15873;-411.8614;-412.1328;0.01559316;0.3123419;0;
-678.8057;0;0;-634.1435;5.248812;17.68298;-674.6278;-672.775;0.5353162;0.2470607;0;
-309.9337;0;0;-314.1043;6.247916;17.59822;-311.8195;-310.7181;0.3398763;0.2468125;0;
-208.9229;0;0;-216.4002;2.625292;21.86745;-209.8697;-213.2673;-0.1152366;0.1166298;0;
-148.5557;0;0;-163.0844;1.684649;22.31424;-150.3137;-154.3325;-0.05015345;0.05154525;0;
471.9692;0;0;424.4092;4.697066;26.91364;461.5299;459.8889;0.144799;-0.2083759;0;
712.6863;0;0;686.101;5.027139;28.15915;702.2574;699.7435;0.07968613;-0.2731339;0;
295.3671;0;0;316.2847;1.204671;23.77708;291.1955;288.3094;-0.1802633;-0.01299007;0;
191.8721;0;0;214.8927;-0.2030593;22.88242;185.7058;186.883;-0.2450495;-0.07794436;0;
136.3322;0;0;168.8248;0.8015226;17.29996;131.3589;134.6589;0.08003341;-0.1428334;0;
-430.3326;0;0;-363.0151;-0.2710097;15.40718;-425.1808;-423.321;0.274855;-0.01275518;0;
-673.0904;0;0;-625.4557;0.5325698;7.889731;-667.2567;-665.836;-0.1801925;-0.0777097;0;
-320.3411;0;0;-319.9805;1.336318;4.130881;-320.5102;-320.2779;-0.6347829;0.05230308;0;
-220.5692;0;0;-223.7072;-5.898694;8.346533;-219.1765;-222.4426;-0.439243;0.2471526;0;
-123.2713;0;0;-136.4012;-7.701427;6.395763;-124.5662;-127.3292;-0.308867;0.1819369;0;
487.8579;0;0;441.9452;-4.412136;17.10624;476.7568;476.6202;-0.2435893;-0.3379847;0;
706.1328;0;0;680.381;-5.479429;21.17501;695.5425;693.5945;-0.1783772;-0.3376451;0;
305.6866;0;0;328.3115;-0.1152888;12.17814;302.166;299.8451;-0.3731;0.05249825;0;
206.4917;0;0;233.2168;1.492417;12.36685;202.1001;203.7795;-0.3727251;-0.1424565;0;
144.7527;0;0;177.5103;-2.260126;13.15822;141.6773;143.9172;0.2123555;0.4423927;0;
-421.2958;0;0;-357.5867;-1.989436;12.87707;-415.3727;-415.134;0.2771095;0.5718828;0;
-673.3082;0;0;-627.6539;-4.39931;13.06508;-666.7662;-665.5283;-0.2429077;-0.2732672;0;
-311.813;0;0;-309.3704;-5.064475;13.52083;-310.7749;-309.1633;-0.1776963;-0.07809063;0;
-208.1766;0;0;-207.6106;-5.662599;13.77518;-205.8902;-208.7155;-0.04758305;0.3117919;0;
-140.8137;0;0;-150.0558;-5.991702;15.50289;-139.5915;-144.2256;-0.3723719;0.3764459;0;
471.4576;0;0;429.054;-5.650888;13.67878;464.2453;462.2395;-0.5019324;0.5060024;0;
715.1736;0;0;690.054;-6.113725;13.06219;706.9691;703.6535;-0.3714935;0.3105919;0;
303.5991;0;0;324.1067;-0.3468056;25.70859;300.8375;296.0885;-0.04628346;0.5051818;0;
197.6596;0;0;222.2695;1.729648;28.69687;194.2761;193.4049;0.2785998;0.4397069;0;
147.1113;0;0;179.8799;-0.415544;28.19915;145.2305;146.1093;0.08341779;0.04946104;0;
-423.3123;0;0;-357.6557;0.1880859;30.18031;-416.5081;-416.6922;-0.111568;-0.01555601;0;
-666.3271;0;0;-621.6635;0.7901333;20.77262;-659.3423;-658.6517;-0.2413906;-0.08050773;0;
-307.0254;0;0;-307.5714;0.9904101;16.73277;-306.4194;-306.1667;-0.5010175;0.1144752;0;
-217.8865;0;0;-217.4325;-1.154039;20.53398;-215.9069;-219.59;-0.4355467;-0.01557451;0;
-125.4639;0;0;-133.8184;-2.626748;18.63783;-124.3608;-129.1647;-0.1102723;-0.2104609;0;
488.4786;0;0;450.1476;-0.7480983;9.509665;480.6476;477.2229;0.2146752;0.04961997;0;
703.2546;0;0;686.2639;-1.350559;6.017119;694.6818;689.5739;0.1494921;0.04957011;0;
307.6214;0;0;336.4373;-4.094892;5.676158;304.3671;299.889;-0.3054295;-0.1453817;0;
215.3586;0;0;249.5802;-5.096132;4.397779;210.046;210.6949;-0.04525321;-0.210203;0;
143.0534;0;0;180.5515;-4.688869;5.599053;139.0581;139.8937;0.3445963;-0.1450244;0;
-428.1158;0;0;-366.8549;-3.545082;7.133913;-422.5494;-424.2759;-0.04555399;-0.07991138;0;
-668.9394;0;0;-628.1047;-10.50774;9.203215;-662.6915;-662.6671;-0.4353123;-0.2097658;0;
-308.8229;0;0;-313.8188;-12.2385;11.87316;-309.078;-308.5538;-0.3049402;0.05031438;0;
-207.5009;0;0;-214.1784;-0.974045;16.34909;-207.131;-210.7928;-0.1746991;0.1152312;0;
-132.2676;0;0;-144.0608;1.907322;18.40901;-132.8351;-137.4303;0.02037847;-0.4695907;0;
479.2455;0;0;435.4802;1.168471;27.63391;470.0579;467.5913;-0.2395114;-0.3391842;0;
717.3315;0;0;690.7891;2.573817;31.49116;706.7164;702.6906;-0.3692054;0.115928;0;
304.6928;0;0;322.2174;6.188553;25.76609;299.8979;295.6262;0.1509043;0.5056156;0;
197.0031;0;0;217.1338;7.187688;25.80718;191.5883;191.9436;0.21572;0.5700749;0;
145.8308;0;0;174.8742;6.912046;21.62831;141.0461;143.0253;0.02060125;-0.015204;0;
-420.8434;0;0;-357.6589;8.044177;19.53023;-416.8777;-416.7746;0.2804499;-0.2100907;0;
-667.3589;0;0;-620.8546;-2.547453;15.55873;-661.9604;-660.9828;0.2152008;-0.2098797;0;
-306.7443;0;0;-306.7008;-5.826447;12.32792;-306.661;-305.8719;-0.4346889;-0.07973407;0;
-209.9846;0;0;-213.6892;-3.811837;15.79864;-207.7775;-211.7992;-0.5641868;0.2451828;0;
-122.505;0;0;-134.7016;-6.888489;15.11294;-121.7368;-126.5666;-0.3687178;-0.07990032;0;
489.9978;0;0;446.5167;2.227135;15.7006;480.4579;478.3191;-0.1734453;-0.2097547;0;
705.8967;0;0;684.3857;5.038912;16.01974;696.1165;692.9178;0.02163096;0.05032543;0;
301.7652;0;0;328.5641;-5.147556;16.74033;297.6169;295.3586;0.1515439;0.1152422;0;
210.2578;0;0;239.4036;-6.28146;17.52731;204.6145;206.2315;0.3462937;0.3100284;0;
147.0157;0;0;180.6299;-2.456755;16.23702;143.7519;145.1174;0.021109;0.3097169;0;
-424.1574;0;0;-360.2798;-2.99015;16.89053;-418.7974;-418.6201;-0.3037489;0.179471;0;
-665.7346;0;0;-620.6617;0.09333716;14.0604;-660.0676;-658.8286;-0.173509;-0.01561135;0;
-306.371;0;0;-306.2583;1.700834;13.64437;-306.1444;-305.8437;-0.238302;-0.275465;0;
-209.6116;0;0;-209.5615;-3.994303;14.70239;-208.1359;-211.8959;-0.04316056;-0.08028621;0;
-128.5042;0;0;-137.3871;-4.458804;14.21874;-127.842;-133.2849;-0.1080845;-0.0152382;0;
488.9397;0;0;446.3951;-2.310869;18.49124;480.918;477.4796;-0.3678453;-0.08019023;0;
713.4603;0;0;691.3232;-1.772684;19.34344;704.6346;701.1371;0.08729571;-0.01514232;0;
291.4551;0;0;314.755;-3.0437;20.46271;288.6353;284.5792;0.1521753;0.1148076;0;
195.3354;0;0;220.5484;-4.648232;21.98263;191.2691;191.0901;-0.2377816;0.3745616;0;
146.9759;0;0;179.7847;5.738914;17.87471;144.1005;145.8582;-0.107608;0.4391526;0;
-427.6955;0;0;-361.8738;8.345117;17.58882;-421.8224;-421.3159;0.0224348;0.178842;0;
-672.0177;0;0;-623.6284;-0.3034571;14.691;-666.088;-663.9578;-0.2374571;-0.2761092;0;
-307.4004;0;0;-304.4744;-1.643299;11.86295;-307.0989;-305.0957;-0.3671532;-0.3407991;0;
-210.3277;0;0;-210.1532;-1.641648;18.88412;-209.4642;-211.4611;0.4128238;-0.2754893;0;
-122.6603;0;0;-132.6059;-1.974791;18.99911;-124.0466;-127.978;0.2824743;-0.3401798;0;
488.4683;0;0;445.2994;-10.2782;16.7026;478.8376;474.5353;-0.2375482;0.1799008;0;
703.5566;0;0;680.2336;-13.81785;17.48961;694.2479;688.3258;0.3473965;0.2446873;0;
302.3635;0;0;325.728;-4.627912;10.37209;299.0612;294.1445;0.1521454;0.2444415;0;
211.043;0;0;239.194;-3.484186;9.356926;206.9318;205.8307;-0.3027788;0.2441958;0;
143.4897;0;0;180.3581;-4.552412;10.41925;140.4447;139.9693;-0.04260523;0.04904846;0;
-426.6804;0;0;-359.3644;-3.476111;11.01151;-420.9143;-422.6385;0.1523396;0.2439012;0;
-665.1941;0;0;-616.8737;-0.9943714;13.74674;-657.5598;-657.658;0.2171539;0.2436561;0;
-308.7045;0;0;-304.4731;0.4131473;15.20655;-306.4502;-306.9232;0.3468704;-0.08142542;0;
-213.3171;0;0;-210.5267;-0.8600656;24.23373;-210.3779;-215.0358;0.2815545;-0.4061803;0;
-124.085;0;0;-128.3564;-0.3233379;28.16125;-122.523;-128.3632;-0.3034345;-0.01596813;0;
495.7906;0;0;457.1034;-0.9925984;30.87925;486.9188;482.8961;-0.04326024;0.568754;0;
716.6812;0;0;693.2127;-0.5894594;33.9963;707.1311;702.3004;0.3465873;0.2433458;0;
302.5439;0;0;326.2628;-1.795292;32.68946;300.7495;296.3608;-0.04356503;-0.01676809;0;
207.475;0;0;236.9172;-1.726139;33.59438;205.1202;204.9838;0.02144609;0.1781508;0;
148.2337;0;0;185.9546;0.7538419;28.40306;146.6309;148.3687;0.08639188;0.3728738;0;
-424.0652;0;0;-355.0229;1.557368;26.03012;-417.9202;-417.5585;0.02133773;0.2425645;0;
-664.3931;0;0;-614.7855;6.110154;26.33887;-656.6301;-656.5811;0.2162183;0.1123861;0;
-306.3426;0;0;-302.3244;8.44854;24.03511;-302.7104;-303.5984;0.02109904;0.5670445;0;
-211.6447;0;0;-208.8175;9.84657;22.47035;-207.5164;-212.0892;-0.1088568;0.3066054;0;
-120.2904;0;0;-125.5869;12.58237;19.56763;-118.7274;-124.0452;-0.2386822;-0.2784088;0;
497.7699;0;0;459.2454;8.015372;23.49984;490.3358;487.1472;-0.563279;0.111675;0;
711.2871;0;0;693.7283;6.935591;23.61019;703.7355;698.9885;-0.04297431;0.4363995;0;
296.593;0;0;326.1532;14.43071;17.08925;294.4838;288.6171;0.2169382;0.04615698;0;
205.4657;0;0;237.12;15.75538;16.80415;202.6089;200.8711;-0.1730838;0.1760453;0;
143.8526;0;0;180.1603;12.1232;9.352399;142.3106;142.1362;-0.1079425;0.3058031;0;
-431.4404;0;0;-365.0593;11.64153;6.328769;-425.6095;-427.1581;0.08706795;0.1105938;0;
-665.7639;0;0;-615.6913;9.352658;14.22627;-659.5641;-659.9241;0.02201312;0.1104827;0;
-306.4627;0;0;-299.6687;6.731293;14.74784;-305.6414;-306.3135;-0.3028457;0.175339;0;
-218.1989;0;0;-215.9095;9.202776;18.283;-216.5664;-220.736;-0.3025414;0.3700648;0;
-120.2163;0;0;-130.0481;7.652311;21.07779;-120.7718;-124.6874;0.0225993;0.564595;0;
501.1547;0;0;458.9116;3.425063;18.57836;491.7917;489.5667;0.02257659;0.4990604;0;
709.4836;0;0;684.7742;1.88138;19.83237;700.9421;696.3456;-0.04241344;0.1737222;0;
302.5374;0;0;321.331;-4.216079;18.47278;300.7511;295.6594;-0.1073382;-0.02135441;0;
210.5296;0;0;236.9878;-6.355297;17.11456;208.745;207.3441;0.02270438;0.1735691;0;
139.1038;0;0;177.0297;-7.822779;20.91527;139.6324;139.1699;0.3475183;0.433264;0;
-434.6227;0;0;-365.688;-8.88567;19.88964;-425.9112;-426.748;0.5420711;0.107992;0;
-669.8175;0;0;-618.8806;-7.001707;19.06586;-660.3652;-659.2646;0.2166897;-0.1519859;0;
-308.2634;0;0;-301.7928;-7.798955;18.77876;-304.3178;-303.4682;-0.1083647;-0.02189849;0;
-210.5026;0;0;-208.4738;5.270675;9.784428;-206.6234;-209.2105;0.1516135;-0.08684383;0;
-116.5882;0;0;-125.6808;11.02616;7.095279;-113.9623;-117.9211;0.2813959;-0.08675657;0;
501.2809;0;0;459.214;-2.38151;3.739125;496.1581;493.3277;-0.04372358;-0.1516367;0;
712.3584;0;0;688.5121;-4.187778;0.252255;706.4911;702.1643;-0.108647;-0.5412884;0;
292.5408;0;0;313.1336;6.065184;6.749224;291.7393;287.4793;-0.1735052;-0.5407445;0;
196.1077;0;0;220.2405;7.599331;7.211323;193.6203;194.2372;0.08653855;-0.3452992;0;
138.5644;0;0;171.2937;1.295056;7.605974;136.8917;138.9447;-0.04348309;-0.2150175;0;
-429.6018;0;0;-365.4837;1.227381;9.875751;-422.7146;-423.0999;-0.3682761;-0.08486679;0;
-665.5513;0;0;-618.5515;-3.128108;5.310989;-658.1713;-657.2444;-0.3679061;0.1101205;0;
-308.9989;0;0;-304.4626;-5.46949;4.970738;-307.1861;-306.0102;-0.2376017;0.1749772;0;
-218.4213;0;0;-216.4507;1.971721;10.99409;-214.7987;-218.9963;0.1524411;0.04486671;0;
-120.501;0;0;-128.5898;2.773047;12.72459;-119.0059;-124.2613;0.02235323;0.1747563;0;
500.8704;0;0;461.118;5.047437;9.228818;491.7442;490.3047;-0.04263657;0.3045154;0;
705.0142;0;0;686.2288;7.454238;8.080835;695.335;692.5227;0.477145;0.1742747;0;
291.6382;0;0;318.2864;3.226214;13.36425;288.5905;284.0943;0.2817636;-0.1507371;0;
207.2625;0;0;233.2592;3.156599;13.28383;203.718;202.3498;0.02161106;0.04431641;0;
135.7775;0;0;170.0564;5.229532;10.52419;133.9858;133.5559;-0.3682147;0.4340759;0;
-440.8816;0;0;-372.2169;4.889485;9.575973;-435.2378;-436.8541;-0.6277141;-0.02113164;0;
-662.9518;0;0;-613.7838;6.625884;3.738957;-657.0638;-657.6165;0.02259006;-0.08607775;0;
-302.7164;0;0;-297.7631;7.42351;1.45778;-301.6444;-303.0086;0.152502;0.3038128;0;
-217.8922;0;0;-213.8185;1.18676;-1.490811;-215.322;-220.6829;0.2173162;-0.1512639;0;
-122.596;0;0;-127.5219;-1.360028;-2.828972;-121.5902;-127.5703;0.1521304;-0.2160792;0;
501.8383;0;0;464.3713;5.0717;-2.357249;492.8482;487.6237;-0.2378265;0.173942;0;
713.0402;0;0;694.4138;5.66884;-1.484102;703.7468;696.2161;0.08724921;-0.02113486;0;
295.0959;0;0;320.5911;1.845727;1.129601;292.3086;286.2848;0.0221942;-0.2160157;0;
206.2814;0;0;231.5011;2.915599;2.535108;201.9352;201.2897;-0.5625342;-0.2807659;0;
146.3542;0;0;179.482;-1.642658;13.9864;143.449;143.6163;-0.1071975;0.0443529;0;
-430.3156;0;0;-363.1757;-1.70738;18.66103;-423.9724;-426.1791;0.6075509;-0.02065902;0;
-662.8911;0;0;-615.1214;1.241097;18.44133;-655.6173;-657.447;0.2821037;-0.2805076;0;
-306.154;0;0;-302.2228;0.7039861;21.16898;-304.1973;-306.0252;-0.2379185;-0.02035641;0;
-221.3888;0;0;-217.3366;12.96079;17.79868;-218.9344;-223.8838;-0.3026467;0.3694681;0;
