Fp1;Fp2;O1;O2;POLY3;POLY4;A1;A2;Video;Audio;event;
152.595;0;188.0222;0;11.96954;-8.267078;176.6583;175.922;0.1016089;0.1123935;0;12:46:43 Рука;
165.7475;0;192.8933;0;13.83255;-8.124805;186.3509;189.7381;0.2964089;0.1772479;0;
-131.0824;0;-81.47523;0;15.29252;-6.174259;-103.8156;-101.5562;0.6859151;-0.01783222;0;
-648.5031;0;-565.2751;0;16.95209;-6.034089;-614.1423;-610.6357;0.8151605;-0.08278164;0;
-538.0941;0;-482.2486;0;9.299246;-3.951555;-505.8293;-501.1393;0.2946027;-0.08269846;0;
-214.091;0;-184.1636;0;7.614963;-3.210772;-182.6082;-181.7961;0.164372;-0.4724194;0;
-212.0643;0;-171.9846;0;4.057338;-10.3746;-178.6766;-180.8013;0.09923953;-0.2120754;0;
125.4792;0;138.4073;0;1.240222;-13.04337;152.4615;150.1516;-0.3556316;0.3728438;0;
663.1453;0;640.3908;0;2.109632;-12.22647;683.6038;680.2342;-0.03043753;-0.2122369;0;
513.6163;0;517.996;0;-0.1696635;-13.08496;537.9273;533.4991;0.2944297;-0.08208896;0;
167.8363;0;199.5728;0;3.916344;-20.1049;193.0598;191.0724;-0.1606375;0.4377323;0;
169.7916;0;193.063;0;2.840682;-22.22803;191.679;193.0668;-0.03054139;0.2423904;0;
-137.4747;0;-88.98933;0;8.196462;-16.98115;-108.8002;-106.914;0.6841301;0.3720815;0;
-652.4526;0;-574.0311;0;11.93927;-15.28963;-615.4987;-612.24;0.4885406;0.04687094;0;
-546.7873;0;-497.6798;0;-5.75622;-15.81013;-512.4941;-507.9894;-0.09665634;-0.3429802;0;
-229.2722;0;-200.8288;0;-7.89389;-14.85649;-197.8871;-196.9476;-0.09655923;-0.08276621;0;
-217.7975;0;-178.5131;0;-8.689265;-3.789619;-184.8822;-188.3164;-0.1614295;0.1771863;0;
129.1846;0;139.6939;0;-12.76637;1.036838;155.5076;151.702;-0.4211367;0.3719103;0;
671.2197;0;645.0495;0;3.790874;-1.643399;690.0826;685.1563;-0.1608442;0.3065693;0;
523.5566;0;523.7745;0;6.801175;1.305379;546.1487;539.2284;-0.1606826;-0.01857548;0;
171.145;0;200.7228;0;3.913953;-1.442232;195.4634;192.6105;-0.4853578;-0.1484915;0;
183.3418;0;205.4561;0;5.450262;-1.775576;204.5748;206.0976;-0.2899681;-0.278277;0;
-121.002;0;-75.79654;0;2.564397;1.50825;-93.48103;-93.20914;-0.2247094;-0.2779974;0;
-661.1089;0;-587.838;0;1.624792;0.2340586;-625.9319;-625.0356;-0.1595163;-0.2127507;0;
-554.5604;0;-505.4134;0;-0.6549926;4.654575;-522.8545;-520.0225;-0.0294213;-0.1475696;0;
-219.4213;0;-189.814;0;-0.9217782;4.515932;-189.9962;-189.9157;0.1005429;0.4372848;0;
-213.3913;0;-176.6298;0;-11.43705;0.9614211;-180.6848;-184.6649;0.1654093;0.6317474;0;
127.5894;0;137.8272;0;-14.64074;0.6255404;153.6413;149.9151;-0.09462631;0.2413086;0;
670.938;0;644.6839;0;-7.659803;-9.489266;688.8428;684.5581;-0.2244659;-0.1487379;0;
519.9019;0;519.9734;0;-7.518384;-12.56083;541.5368;535.6323;0.2954984;-0.3434905;0;
167.7438;0;200.174;0;1.331405;-13.352;191.1685;189.0805;0.4901035;-0.1482433;0;
167.0755;0;192.9764;0;5.214833;-15.81695;188.1029;189.8275;-0.03012772;0.04680764;0;
-140.0006;0;-90.20029;0;7.888911;-9.102887;-112.1853;-111.5868;-0.09506479;0.501532;0;
-647.9171;0;-576.0529;0;11.76575;-7.687099;-613.508;-611.8481;0.03496542;0.6959301;0;
-539.945;0;-501.5737;0;6.931157;-5.603026;-508.3191;-504.7244;-0.1599717;0.1105248;0;
-226.7471;0;-203.4069;0;5.919814;-3.386959;-195.9651;-195.3725;-0.02987632;-0.214423;0;
-215.3374;0;-176.7158;0;10.80301;-2.11088;-181.9626;-184.5565;0.1000884;-0.3441423;0;
130.2054;0;142.4265;0;11.86388;-0.5012909;156.7375;154.3961;-0.09491421;-0.2138618;0;
665.243;0;641.9072;0;3.881358;-3.916795;684.1274;680.7264;-0.1597862;0.5009939;0;
517.3986;0;518.6364;0;3.542665;-5.386484;539.6373;534.6155;0.1652111;0.2406211;0;
171.6772;0;201.6493;0;-2.891256;-4.108396;195.5177;194.3116;0.1650451;-0.6041961;0;
171.5047;0;195.5746;0;-7.107909;-5.042028;192.6976;194.9284;-0.03002279;-0.3437197;0;
-133.5768;0;-91.35277;0;8.438297;-10.66341;-105.7836;-104.1172;0.03497472;-0.1484722;0;
-649.6207;0;-585.3876;0;8.497167;-12.79602;-614.4841;-611.0078;0.4247436;-0.2782578;0;
-542.2715;0;-498.9675;0;17.19617;-13.85489;-511.4806;-505.8214;0.4243169;0.04685855;0;
-215.3907;0;-185.9982;0;22.53752;-14.97968;-186.6921;-184.9117;-0.2257829;0.1767462;0;
-214.862;0;-175.8164;0;1.549828;-14.76368;-182.7564;-185.2256;-0.4204581;0.1116012;0;
118.8738;0;131.2685;0;-1.064673;-14.68186;144.9501;143.233;-0.2251336;-0.01844561;0;
671.7264;0;646.3776;0;-5.283162;-12.79159;690.4052;688.1276;-0.2898747;-0.1483618;0;
523.6255;0;524.2892;0;-9.229969;-12.57779;545.4714;540.8848;0.03525327;-0.21318;0;
159.0949;0;192.9911;0;-5.067509;-6.60379;182.4805;181.4592;0.1651525;-0.1479985;0;
164.3698;0;191.9227;0;-6.402563;-4.520805;185.608;188.4608;-0.09488278;-0.08288243;0;
-130.1474;0;-79.13403;0;6.665664;-7.195458;-102.4338;-100.1461;0.2300493;0.2420376;0;
-647.444;0;-563.1237;0;13.2904;-6.451416;-611.6998;-608.7273;0.3597528;-0.01807501;0;
-544.0951;0;-484.8469;0;2.760846;-10.19598;-510.6357;-506.979;0.1644893;-0.3428935;0;
-223.3968;0;-190.6949;0;2.088486;-10.7216;-193.2194;-192.6273;0.09935667;-0.147647;0;
-214.3018;0;-176.8226;0;20.63956;-12.38527;-183.7799;-186.3118;0.2291915;-0.1474986;0;
132.2394;0;141.9449;0;25.64267;-12.84171;156.0466;153.9544;-0.09587549;-0.5371544;0;
671.0231;0;644.9869;0;14.69856;-9.546765;688.0598;684.7203;-0.3556485;-0.7315167;0;
514.4273;0;513.6545;0;14.41635;-7.996565;535.6321;529.7349;-0.09542179;-0.08110832;0;
163.1492;0;191.8623;0;8.708434;-4.237608;186.3942;184.1886;0.1645434;0.3737446;0;
164.7344;0;188.3587;0;4.279054;-2.223862;185.0825;187.1269;-0.1604586;-0.01643502;0;
-138.7162;0;-92.93926;0;10.50404;5.280217;-112.5165;-111.4736;-0.4201667;-0.0164185;0;
-650.0697;0;-578.5392;0;10.62721;8.825006;-617.1497;-615.5457;-0.2248425;-0.211304;0;
-543.5947;0;-496.4364;0;4.186172;7.141566;-513.7062;-509.73;-0.09468191;-0.3410264;0;
-218.8365;0;-191.4032;0;4.383037;8.541032;-190.6647;-189.3162;-0.3544561;0.179055;0;
-210.8705;0;-175.4687;0;2.235179;3.843644;-180.2283;-183.6912;-0.4840347;0.1788751;0;
120.9872;0;130.179;0;0.6253428;1.69645;145.2268;141.8923;-0.2886463;0.2436627;0;
664.2175;0;635.8564;0;12.81585;2.900439;680.7491;677.2306;-0.02848688;0.1784505;0;
520.5595;0;518.3388;0;14.81173;1.557866;540.6352;535.9333;-0.02845825;-0.01663081;0;
161.1543;0;192.4815;0;16.20337;-3.467298;182.5217;181.885;0.03653768;0.1782879;0;
163.3662;0;186.6659;0;17.39351;-6.344079;181.5262;184.201;0.3613377;-0.08176059;0;
-133.7737;0;-89.00816;0;14.22723;-3.25649;-109.385;-107.775;0.4909093;-0.2116131;0;
-653.8153;0;-572.1758;0;14.94986;-4.057014;-621.2053;-618.0976;0.03564463;0.1784036;0;
-547.274;0;-488.6426;0;-0.1357067;-6.598166;-517.5704;-512.6542;-0.3541952;-0.1466124;0;
-222.6371;0;-192.5502;0;-4.422478;-7.864212;-194.9622;-193.7366;0.2958341;-0.2114324;0;
-217.5408;0;-179.5506;0;-5.288691;-7.923293;-186.2706;-188.7319;0.4254715;0.2435514;0;
121.2576;0;132.473;0;-10.10615;-8.451195;146.0621;143.7282;-0.4844988;0.04840466;0;
657.3038;0;628.8403;0;3.970179;-11.38995;673.9624;671.0062;-0.3540773;-0.2764807;0;
511.7161;0;509.3932;0;6.243365;-11.64632;532.1062;527.7786;-0.0288848;-0.08130085;0;
167.2498;0;196.7258;0;2.017533;-14.71583;189.431;187.5441;-0.3536925;0.2436176;0;
164.5831;0;188.9069;0;1.613365;-15.6388;184.4306;186.1062;-0.02850038;0.2433728;0;
-139.6795;0;-93.57848;0;3.956268;-11.80506;-113.9174;-111.2439;0.296365;0.1131935;0;
-652.7187;0;-585.1748;0;3.884944;-11.25746;-621.048;-617.5651;0.1011651;0.1780472;0;
-548.0526;0;-510.4991;0;-4.558077;-5.954619;-519.9119;-515.6204;0.3609329;0.04793356;0;
-223.4148;0;-201.8285;0;-5.692573;-3.06837;-197.4888;-195.9503;0.7503742;0.04788539;0;
-215.6941;0;-180.5738;0;-22.16392;-6.146502;-187.5453;-189.3816;0.2298815;0.177772;0;
119.1045;0;126.3909;0;-29.77746;-5.805411;141.7902;139.8308;-0.4200229;-0.2122107;0;
663.4611;0;633.1342;0;-14.27485;-3.12026;679.2525;676.0457;-0.5495355;-0.1470301;0;
518.1796;0;514.3699;0;-13.72464;-2.983159;537.9532;532.1884;-0.6139507;0.04801962;0;
157.8398;0;187.3297;0;-13.57713;-3.047144;179.7799;177.0194;-0.3534644;-0.2768653;0;
166.177;0;189.1404;0;-10.88417;-2.039339;184.5967;186.3368;-0.1582072;-0.2116198;0;
-125.9058;0;-79.22733;0;-13.28511;-8.467529;-101.1952;-99.4569;-0.2879829;0.0484622;0;
-653.389;0;-573.2119;0;-13.27176;-9.597731;-620.1451;-617.2841;0.03714314;-0.01655384;0;
-548.9097;0;-497.7985;0;-6.693365;-6.774804;-519.0724;-514.5902;0.1670405;0.1783648;0;
-216.1501;0;-190.64;0;-4.208393;-6.901962;-189.5912;-188.8616;0.23184;0.3081203;0;
-212.1224;0;-176.0182;0;-12.44319;-3.278071;-183.3413;-187.1726;0.2965744;-0.1469607;0;
121.6731;0;131.0669;0;-12.8992;-3.475726;144.928;140.4134;-0.2234623;-0.4066824;0;
661.5919;0;633.9324;0;-15.76663;4.900389;678.3892;672.9421;-0.5480745;-0.08143707;0;
519.3732;0;517.2288;0;-18.22903;7.97668;539.3396;533.2108;-0.4175891;-0.01638789;0;
173.8998;0;201.3051;0;-10.77597;-1.274735;193.846;191.9713;-0.09233283;-0.1463061;0;
171.5387;0;191.3577;0;-10.363;-1.407421;187.9666;190.2792;0.03769464;-0.2760938;0;
-133.9802;0;-91.31758;0;-8.477557;-8.907972;-110.8846;-109.5114;0.1675914;-0.3407837;0;
-652.2725;0;-581.4169;0;-7.26359;-12.18106;-621.0167;-619.0827;0.1024557;0.04936276;0;
-550.9177;0;-508.619;0;-9.063976;-6.877295;-521.6923;-517.5739;0.03738542;0.2442152;0;
-222.4665;0;-199.2007;0;-8.251562;-6.669435;-195.1445;-193.7788;-0.2225215;0.04906777;0;
-207.3754;0;-173.0136;0;-14.00405;-4.653368;-178.7691;-181.0904;-0.4171999;-0.2758182;0;
127.5397;0;131.3823;0;-15.32915;-2.639204;149.1208;146.1772;-0.09194404;-0.3405084;0;
661.3307;0;628.5003;0;-16.65389;1.918165;675.3939;670.704;-0.2867537;-0.2751989;0;
514.6771;0;509.3659;0;-19.3155;5.265263;532.9115;526.3524;-0.4813676;0.1148816;0;
163.0239;0;189.4521;0;-11.39283;6.666614;184.0511;180.9343;-0.0261125;0.2447009;0;
165.2964;0;187.3252;0;-10.30966;8.200522;184.0536;185.875;-0.09105361;-0.1453491;0;
-128.0349;0;-85.16363;0;-11.43838;12.47907;-103.362;-100.9802;0.03897257;-0.01526832;0;
-645.0213;0;-578.6425;0;-9.417152;14.1411;-613.4391;-610.8099;0.2988028;0.04971436;0;
-547.4844;0;-507.6589;0;-16.30657;9.304122;-519.3073;-515.3064;0.03863318;-0.08027028;0;
-219.5363;0;-194.8683;0;-17.16084;8.290152;-193.5115;-192.4506;0.1035617;-0.08018962;0;
-210.2578;0;-173.4956;0;-14.33055;4.59776;-182.0102;-184.3237;0.4282943;-0.08010904;0;
115.0401;0;121.7179;0;-14.85202;1.779979;136.6376;134.7012;0.5577987;0.3097755;0;
655.2779;0;622.7187;0;-10.14805;3.58673;669.5449;666.361;0.1674341;0.4393989;0;
522.3734;0;514.2722;0;-9.133471;3.047262;539.8745;535.0696;-0.2225381;0.1141207;0;
170.3377;0;194.1661;0;-7.717774;-1.242585;189.1955;187.394;0.3623915;-0.01592865;0;
168.2301;0;186.912;0;-6.102429;-3.049876;184.1328;185.644;0.4269947;0.04905469;0;
-129.1021;0;-86.76331;0;-9.578921;0.9720425;-107.4682;-105.8961;0.03676165;-0.01596194;0;
-647.6492;0;-569.246;0;-9.368226;0.3012365;-618.4783;-616.0957;0.3615614;-0.08091325;0;
-546.6738;0;-492.275;0;-12.44027;4.587719;-521.093;-517.4009;-0.1585406;-0.08083194;0;
-222.5372;0;-196.5537;0;-13.90164;6.726563;-199.6682;-199.2282;-0.67812;-0.01578338;0;
-212.8184;0;-179.6147;0;-10.40407;-2.858511;-187.4111;-190.3449;0.1671368;-0.1457022;0;
124.6634;0;129.6604;0;-10.52831;-4.128314;144.423;141.8045;0.2969035;0.04934622;0;
661.6432;0;627.5923;0;-8.775448;-4.258132;674.6987;670.7086;-0.09319886;0.6340027;0;
514.1147;0;507.5218;0;-8.431837;-5.057649;530.468;525.5448;-0.02813787;0.4384637;0;
163.3367;0;186.4229;0;-8.22327;-4.650669;180.7979;179.6278;0.03685775;0.1781537;0;
168.4199;0;183.8618;0;-8.281381;-5.047894;182.6777;184.5698;0.1667554;0.2429421;0;
-128.9124;0;-89.99788;0;-7.737196;0.9855205;-109.0468;-106.9068;0.2965225;-0.08213878;0;
-651.3952;0;-586.8452;0;-6.18918;2.726087;-623.741;-620.4162;-0.02861213;-0.2769583;0;
-550.4161;0;-513.1047;0;-16.76553;6.809184;-525.1635;-519.968;-0.09355073;-0.2117126;0;
-218.0923;0;-198.4346;0;-19.56173;10.55326;-194.7391;-192.6098;0.3613147;-0.3414346;0;
-212.251;0;-181.5561;0;-14.38451;2.504953;-185.9227;-188.3558;0.4908863;-0.1461895;0;
115.2353;0;119.0378;0;-16.11234;1.22976;135.4776;133.1095;0.3604584;0.04885942;0;
664.2809;0;630.9109;0;-5.847396;6.386088;676.507;673.5165;0.2301615;-0.3409937;0;
526.9322;0;518.1458;0;-1.956755;6.11174;542.2068;537.158;-0.09490648;-0.2756838;0;
165.5841;0;187.7285;0;-9.992741;6.306547;182.78;180.2973;-0.1597785;-0.08050472;0;
166.2923;0;181.8552;0;-8.642553;6.903057;179.9726;181.6779;-0.2245853;-0.2103585;0;
-127.1024;0;-87.50473;0;-11.84905;0.7338128;-108.2509;-105.7977;-0.02945756;-0.1451798;0;
-651.8359;0;-581.1686;0;-12.8425;-1.678188;-626.0068;-622.4941;0.1005067;0.1148355;0;
-554.2297;0;-512.369;0;-7.136166;1.806489;-531.4875;-526.4167;0.03543839;0.3745894;0;
-219.0285;0;-201.0728;0;-6.927925;-0.003865681;-197.8085;-196.1784;0.1003701;0.04937633;0;
-203.6285;0;-175.6335;0;-0.4232532;3.881148;-180.056;-182.9879;0.03530193;-0.27551;0;
127.6596;0;128.7026;0;3.059797;5.5517;144.8367;141.533;-0.1596356;-0.2102658;0;
664.0117;0;627.6974;0;-4.913881;-6.175648;674.5498;670.2499;-0.2894098;0.04981483;0;
522.0405;0;512.4993;0;-6.24909;-8.178808;536.7535;530.8962;-0.09421702;-0.01520257;0;
174.378;0;196.5179;0;0.9244848;-9.108352;190.8252;188.8469;0.03581233;-0.340024;0;
173.1408;0;191.7602;0;1.995283;-12.11331;187.6975;190.0939;-0.029191;0.05012171;0;
-126.6326;0;-86.4802;0;-2.427352;-1.986959;-105.7812;-103.0748;0.1657404;0.3749081;0;
-645.3696;0;-583.1436;0;-2.291191;0.2923353;-618.1673;-615.0888;0.1655738;0.1796293;0;
-551.0182;0;-513.0301;0;-5.70514;-5.334403;-527.9037;-524.2037;-0.09446191;0.04951414;0;
-220.2555;0;-199.0472;0;-7.105927;-5.396026;-200.3502;-199.2775;-0.02939966;-0.3403397;0;
-208.2901;0;-180.2315;0;-2.879228;-1.907491;-186.4058;-188.4576;-0.09433746;-0.08012832;0;
116.3187;0;116.8003;0;-3.07643;-0.7000037;133.121;130.8214;-0.15921;0.3097562;0;
662.3647;0;627.3013;0;2.887532;-4.785137;672.4036;669.8564;-0.2240174;-0.2102937;0;
527.4542;0;518.288;0;6.167161;-4.780329;540.8563;536.6249;-0.6135963;-0.08014774;0;
171.5403;0;193.3678;0;1.740334;-4.172679;185.9284;184.3251;-0.5480124;0.1798022;0;
179.4264;0;193.7357;0;4.283205;-3.364691;190.1769;192.8855;-0.2875924;-0.3401172;0;
-114.2938;0;-76.69814;0;-1.146106;-4.03114;-96.87002;-94.35156;-0.02743409;-0.2748081;0;
-649.4724;0;-580.2429;0;-2.887243;-4.562953;-623.9452;-621.1169;0.4923322;-0.2095647;0;
-556.4288;0;-515.0674;0;12.45463;2.675667;-534.8627;-530.0383;0.4918375;-0.3392888;0;
-221.975;0;-204.893;0;16.05943;2.806944;-202.5546;-200.2962;0.2314739;-0.2739805;0;
-209.0708;0;-182.3233;0;16.0433;8.631516;-185.9218;-188.4758;-0.2884974;-0.4686072;0;
125.9085;0;126.6422;0;19.37608;11.23506;144.2867;140.5483;-0.2232402;-0.5980711;0;
665.8855;0;631.8234;0;14.86863;-1.167709;677.3737;673.2642;0.3616902;-0.2076661;0;
526.9734;0;517.6831;0;14.25146;-3.109041;540.449;534.7195;0.0364901;0.05241194;0;
180.9925;0;200.1348;0;18.4567;-12.8182;194.642;191.8543;-0.3533506;-0.07757541;0;
176.3754;0;191.5004;0;18.57187;-19.57047;187.9497;189.6001;-0.0931262;-0.2074321;0;
-123.6511;0;-86.61479;0;17.88363;-10.24043;-104.9046;-102.9435;0.03690206;-0.272191;0;
-638.0182;0;-575.8443;0;19.00473;-12.10554;-611.9817;-608.4609;-0.2230044;-0.1419829;0;
-546.9227;0;-508.1119;0;10.34447;-9.816073;-524.2231;-519.0816;-0.157813;-0.01190553;0;
-222.8482;0;-202.2549;0;7.052524;-6.724996;-202.0455;-200.7823;0.2321496;-0.2067956;0;
-206.1326;0;-176.0647;0;18.43229;-18.30604;-182.3523;-184.4636;0.03701436;-0.07665312;0;
119.9108;0;122.3373;0;19.68559;-17.95273;137.1079;135.3111;-0.2878595;-0.2065108;0;
665.3286;0;628.335;0;19.06358;-17.06392;674.2001;671.1557;-0.02770093;-0.2712706;0;
531.5394;0;519.8828;0;21.12053;-17.91755;544.525;540.5466;0.03729424;0.313708;0;
161.4411;0;182.5922;0;14.26778;-2.560819;176.2252;176.0614;-0.02771057;0.5082949;0;
168.088;0;182.0339;0;12.44478;1.393625;178.4844;181.819;-0.09265007;0.2479147;0;
-109.379;0;-72.9584;0;17.991;6.147891;-94.058;-90.78921;0.2322797;-0.2720731;0;
-643.6255;0;-571.1346;0;18.57614;11.63419;-620.5113;-616.3088;0.1021117;-0.4017344;0;
-551.025;0;-501.3456;0;15.07485;3.651777;-529.7456;-524.6103;-0.5476643;-0.07649403;0;
-208.0185;0;-185.6253;0;15.12607;4.65273;-188.2597;-185.9406;-0.09234267;-0.07641717;0;
-202.8745;0;-173.4448;0;13.03477;1.232047;-181.0741;-181.8807;0.4274888;-0.01137304;0;
119.6674;0;122.3309;0;11.21301;-1.180454;135.5113;133.8934;-0.02771209;-0.07632896;0;
665.8975;0;631.2021;0;19.57449;4.045279;675.1663;671.4261;-0.4174883;-0.3361216;0;
524.1743;0;515.1884;0;21.36348;2.500606;537.2444;531.8213;-0.02726475;-0.2708165;0;
168.5136;0;190.4587;0;16.1171;8.86135;183.5696;182.1499;0.3625667;-0.1406097;0;
169.5312;0;184.1454;0;15.76612;10.72785;181.8234;184.653;0.297235;-0.2704031;0;
-125.2411;0;-88.77751;0;14.61217;2.076513;-107.5889;-104.7622;0.4918384;-0.2051641;0;
-633.1099;0;-562.3877;0;13.45842;0.6677846;-607.9167;-604.2808;0.4263768;0.1198788;0;
-536.522;0;-490.9207;0;13.77969;0.265216;-514.0403;-508.8462;0.03614439;0.249693;0;
-217.5179;0;-200.0109;0;14.10063;-0.6728115;-196.9329;-195.3048;0.1660427;0.3144094;0;
-204.1185;0;-177.2588;0;10.47012;-2.346587;-180.3058;-182.8647;0.4907126;0.05422414;0;
119.1117;0;121.2069;0;10.4596;-1.808365;136.8411;134.5971;-0.09448653;-0.07576502;0;
659.7202;0;622.7704;0;11.31974;-5.155695;668.936;666.1945;-0.6790977;-0.07568889;0;
529.9348;0;518.4468;0;10.70516;-6.423068;542.8269;537.9643;-0.5484806;-0.0106455;0;
167.1469;0;190.2155;0;21.94753;8.252282;182.7122;181.3527;-0.02819077;0.1842672;0;
173.4756;0;191.0864;0;25.94397;12.99966;186.6516;189.4163;0.1017722;0.2490494;0;
-104.9338;0;-65.53922;0;17.74623;10.84314;-86.14894;-83.94918;0.03670264;0.6386032;0;
-636.811;0;-562.8484;0;15.51857;14.11441;-611.5482;-608.7885;-0.1582363;0.3780922;0;
-548.0904;0;-498.5024;0;25.88448;12.6266;-526.0389;-521.9077;-0.3529793;-0.4668632;0;
-210.0843;0;-189.6565;0;27.59978;12.74788;-190.1165;-189.0503;0.03717943;-0.3364594;0;
-202.8142;0;-176.9722;0;13.57322;18.29453;-181.1173;-183.9877;0.4269461;-0.2061866;0;
116.5416;0;115.871;0;11.34976;20.41948;131.595;128.9774;-0.158189;-0.1410121;0;
661.9628;0;623.7493;0;4.30478;11.35651;670.0046;666.8898;-0.2229973;0.4438357;0;
530.9882;0;519.8619;0;-0.4549672;8.397975;543.1448;538.7214;0.3619328;0.508357;0;
177.0073;0;196.3144;0;8.58782;15.69043;190.0263;189.6677;0.1666671;-0.0118925;0;
177.0793;0;188.3711;0;9.449847;14.33501;185.8998;189.5396;0.1664996;0.1830215;0;
-118.5751;0;-84.61858;0;9.440351;15.1244;-102.4546;-99.38071;0.296267;0.5076743;0;
-641.3806;0;-582.5332;0;10.70366;14.84127;-616.5932;-612.2105;-0.09383472;0.1173601;0;
-550.2191;0;-518.105;0;17.18964;5.582957;-529.2047;-522.7026;-0.1587078;0.1822096;0;
-221.7686;0;-206.3034;0;20.78969;1.826425;-203.1491;-200.1517;0.03635372;0.1820265;0;
-203.6797;0;-177.1731;0;16.01338;1.422692;-182.0805;-183.1465;-0.3534869;-0.07802582;0;
119.0503;0;118.8562;0;16.73422;0.1485866;134.8807;134.1906;-0.5480337;-0.01298007;0;
655.9733;0;616.9863;0;15.31089;-9.027981;663.6669;661.603;-0.0277443;0.05200031;0;
530.9391;0;514.2302;0;13.48685;-11.83207;540.9363;536.9381;0.2971203;0.3118174;0;
177.5205;0;192.6249;0;16.68847;-7.131498;189.8815;188.7608;0.1668871;0.1815694;0;
178.3416;0;189.4953;0;15.39891;-7.794161;188.0041;190.2578;0.2316867;-0.1434497;0;
-107.6939;0;-71.56394;0;14.78022;1.858968;-92.54393;-89.91763;0.2314539;0.1165638;0;
-641.005;0;-570.7411;0;13.96206;5.340091;-617.9993;-614.0013;-0.09361537;0.181414;0;
-557.3401;0;-512.8839;0;9.794849;3.459325;-537.2311;-531.7379;-0.418358;0.1162644;0;
-219.6996;0;-205.0855;0;9.316493;5.465215;-202.3593;-199.9951;-0.09310093;-0.01378713;0;
-204.9861;0;-185.0144;0;-0.8069249;3.115443;-185.7268;-187.2379;-0.1579747;0.05119406;0;
120.244;0;115.7079;0;-5.963678;3.246278;133.8618;132.2272;-0.4826527;0.1810773;0;
665.9113;0;625.6478;0;9.045515;-2.249462;672.6439;670.4487;-0.02739634;0.1808954;0;
530.1226;0;515.2618;0;11.91681;-5.529366;540.0344;536.717;0.2974679;0.05077891;0;
175.9552;0;190.657;0;3.264652;-0.8351262;187.7935;187.4155;-0.0276677;-0.1441741;0;
180.4011;0;188.4039;0;3.662537;-2.240807;189.229;193.0992;0.03732744;0.1158401;0;
-110.5715;0;-77.77669;0;5.937009;-2.037606;-96.38017;-91.20201;0.3621266;0.1157237;0;
-631.386;0;-562.9546;0;6.265836;-1.83461;-609.8377;-603.8527;0.4267301;-0.2741966;0;
-548.9803;0;-504.0433;0;10.41175;-7.124296;-530.452;-523.5984;0.03649728;0.05091559;0;
-227.465;0;-211.746;0;12.47837;-7.987916;-210.8294;-206.9812;-0.2883761;0.05086443;0;
-207.2465;0;-186.6707;0;12.06369;-8.850668;-188.4412;-188.8447;-0.2880863;-0.4039581;0;
123.4831;0;117.5515;0;14.86461;-9.109706;135.273;134.62;-0.2228295;-0.1436828;0;
669.522;0;625.3031;0;8.151865;-6.488218;673.3041;672.2769;0.2971331;-0.1435384;0;
536.3534;0;518.4157;0;6.066593;-4.807248;544.1296;540.5423;0.4267692;-0.1433942;0;
174.8084;0;189.6848;0;17.64842;-2.926895;184.6383;183.9281;-0.09339832;0.2465539;0;
178.8806;0;185.996;0;17.2959;-0.8476053;184.7651;188.3035;-0.2232392;-0.07853051;0;
-105.1564;0;-77.18374;0;24.44581;4.109861;-94.5927;-91.68252;0.1018219;-0.143419;0;
-631.2238;0;-566.9225;0;27.43536;6.182202;-613.2994;-609.2052;0.4265563;0.3764639;0;
-545.7571;0;-503.0721;0;11.86775;12.60623;-531.349;-525.0101;-0.2235458;0.05124891;0;
-211.3141;0;-201.7179;0;9.311209;16.6794;-200.856;-198.3965;-0.6131252;-0.2086719;0;
-197.9834;0;-186.2104;0;2.067208;8.156053;-186.5987;-188.1397;-0.3526398;-0.07852759;0;
119.1188;0;106.2673;0;-2.556569;7.411045;124.1202;122.6432;-0.3522854;-0.338318;0;
669.0351;0;618.8403;0;0.7285292;9.278998;667.4099;664.7474;0.03787261;-0.07810874;0;
542.5511;0;517.1443;0;-0.3439298;8.19807;544.2383;539.5172;0.2977039;0.3117738;0;
173.3787;0;179.4817;0;2.670526;9.730318;175.5015;174.0335;-0.1573666;0.05159115;0;
175.266;0;174.3038;0;3.47115;9.25166;173.1388;176.045;-0.3521105;-0.07839537;0;
-101.646;0;-80.86814;0;12.1752;11.38582;-99.5857;-96.55746;-0.221822;0.05161808;0;
-630.653;0;-580.0359;0;16.3835;12.71404;-622.7851;-618.573;-0.09166445;-0.01340112;0;
-551.1839;0;-531.1024;0;13.75409;8.883356;-547.4469;-541.3025;-0.09157234;-0.1433223;0;
-220.7334;0;-225.2222;0;15.95108;8.941291;-220.186;-217.671;-0.02651299;-0.01324365;0;
-202.1458;0;-193.9491;0;11.64814;8.396564;-199.725;-201.7102;-0.09145369;0.1167044;0;
123.8311;0;102.8467;0;10.22992;7.182435;118.8782;116.895;-0.1563291;-0.07831495;0;
668.6827;0;606.6151;0;9.884845;11.66295;654.427;651.821;-0.09120472;0.1166658;0;
545.0726;0;507.3052;0;6.793454;11.11537;532.8926;528.1654;-0.1560804;0.3764179;0;
189.7657;0;182.8333;0;11.00619;12.17593;177.8479;175.7491;-0.02598891;-0.01376437;0;
190.8244;0;176.5901;0;10.0581;12.16369;174.7957;177.2592;0.2339066;-0.1436852;0;
-92.84983;0;-85.20579;0;4.019772;6.59201;-103.6151;-100.6543;-0.09116516;0.1163285;0;
-622.6152;0;-585.7435;0;2.139723;5.781591;-626.8729;-623.5403;-0.02610622;0.181179;0;
-544.4036;0;-541.6768;0;-2.685198;-4.740294;-553.2797;-548.7011;0.168822;-0.07887243;0;
-211.4612;0;-235.2238;0;-4.691256;-9.625163;-224.5138;-223.5629;0.1036851;-0.3386626;0;
-192.4456;0;-201.192;0;-8.572285;-1.711628;-205.2353;-207.4713;0.2984829;-0.3383223;0;
132.1472;0;96.48568;0;-10.84085;-2.379737;111.7492;110.9523;-0.09162106;-0.273015;0;
681.1134;0;606.1325;0;-6.208253;-0.8368605;653.4271;651.0068;-0.2214637;-0.01287128;0;
549.12;0;500.7011;0;-6.068293;0.9725195;525.2097;519.4809;0.3634649;0.1820437;0;
184.6887;0;165.3663;0;-0.3014197;-2.042568;161.4895;158.8899;-0.02670434;0.1168934;0;
193.8109;0;165.6375;0;2.981413;-1.437669;165.1378;167.5383;-0.3515142;0.2467107;0;
-83.80689;0;-90.58776;0;-1.375839;-1.235397;-108.2658;-105.7427;0.4284471;-0.1433413;0;
-616.9547;0;-597.4919;0;-0.7048717;-2.104812;-633.6428;-630.5601;0.2331146;-0.01326259;0;
-537.2495;0;-543.7932;0;1.70771;3.791557;-557.7315;-552.9027;-0.3518257;0.3115875;0;
-197.9424;0;-224.657;0;2.643023;5.596286;-223.1515;-221.5759;-0.1565702;-0.3383991;0;
-179.5027;0;-199.2564;0;0.8326824;-1.844199;-203.8119;-206.3608;-0.09144555;-0.2730917;0;
141.8287;0;94.98354;0;0.7644967;-3.182004;109.7354;108.0636;0.1035484;0.1169868;0;
689.7857;0;605.0692;0;1.768107;-3.513721;648.5417;645.6223;-0.02649037;-0.3379022;0;
562.4063;0;497.2651;0;1.565259;-5.921576;524.1398;518.2247;-0.2863331;-0.3375627;0;
202.3344;0;165.3695;0;3.70714;-3.236309;163.9814;161.633;-0.3510127;-0.0773541;0;
201.8812;0;159.0189;0;4.105557;-4.505733;158.257;161.1582;-0.4156274;0.05265831;0;
-78.30591;0;-97.07471;0;3.431846;-4.568189;-116.4516;-113.1784;-0.09037306;0.2475074;0;
-597.5287;0;-583.1703;0;2.758813;-4.027735;-629.0768;-625.2447;0.1046198;0.1173241;0;
-521.4662;0;-537.0447;0;5.903872;-15.27658;-558.1051;-552.7776;-0.1553547;0.1821735;0;
-197.7297;0;-241.4659;0;7.371809;-19.07913;-237.83;-235.6937;-0.1551986;-0.01291157;0;
-176.3542;0;-210.1139;0;-0.6735505;-13.5005;-214.79;-217.341;0.2997287;-0.2078006;0;
148.16;0;88.07246;0;-1.477157;-14.15676;103.8908;100.7801;0.1694929;0.05227754;0;
695.6108;0;596.9156;0;-3.015914;-13.33874;644.4521;640.1577;0.03938787;-0.07770967;0;
568.0382;0;494.1797;0;-5.357409;-11.31597;520.3041;513.8276;0.2992177;0.05230309;0;
198.7153;0;157.2273;0;4.561937;-15.79234;153.1531;149.744;-0.09088704;0.2471526;0;
202.3262;0;155.1328;0;5.896523;-15.17362;154.1237;154.5286;-0.1557631;0.1169696;0;
-68.42862;0;-94.58517;0;7.765633;-9.330984;-112.9595;-111.9928;-0.0906392;-0.1430174;0;
-595.2825;0;-594.114;0;10.63822;-7.111172;-635.146;-632.8684;-0.4153848;-0.2728083;0;
-515.9114;0;-547.1653;0;2.523204;-2.884224;-560.42;-556.9578;-0.1550981;0.2472045;0;
-179.4369;0;-237.0211;0;1.716385;-0.5370452;-226.1497;-225.502;0.2348618;0.5068255;0;
-180.1937;0;-221.1658;0;1.78201;4.487092;-222.4242;-224.8382;0.2995932;0.1165122;0;
125.0216;0;64.41296;0;0.4410485;7.898713;78.52315;76.42395;0.03942275;0.1813625;0;
695.9839;0;595.3313;0;1.176564;3.068127;642.4108;638.8769;-0.09055154;0.1162129;0;
578.2184;0;499.531;0;-0.8333746;3.466942;526.1984;519.9819;0.2343761;-0.01383858;0;
202.9507;0;152.7656;0;7.472858;0.7171584;147.8595;145.0226;0.2341406;-0.1437594;0;
211.4924;0;150.5506;0;10.07732;-2.02974;149.1478;150.749;-0.220866;-0.6633536;0;
-65.20611;0;-109.5325;0;1.493377;5.742075;-122.6781;-121.2034;-0.2206441;-0.3378504;0;
-594.4995;0;-616.2926;0;2.095089;6.540101;-644.1676;-642.2571;-0.09048769;0.1822278;0;
-514.7545;0;-557.6401;0;-2.729788;3.452436;-565.9343;-564.0258;-0.4152335;-0.01285731;0;
-189.1506;0;-244.6118;0;-4.602079;5.190402;-241.0912;-242.9327;-0.2199142;0.1170903;0;
-170.1575;0;-217.1297;0;1.430765;-4.928993;-220.859;-224.5727;0.1701108;0.05200529;0;
157.0366;0;80.37654;0;0.6923934;-8.40703;98.14021;95.55468;-0.0899295;-0.0130143;0;
697.2322;0;581.9186;0;6.251403;3.792067;629.0872;625.6921;-0.2847412;0.1169335;0;
566.8468;0;475.8245;0;6.110424;4.457964;500.7692;496.0033;0.04038166;-0.01311872;0;
207.4576;0;147.3862;0;10.72696;9.008202;143.1955;141.5578;0.4301451;0.1817965;0;
208.0612;0;142.8028;0;14.26616;13.42002;141.8023;143.3521;0.2348109;0.3765159;0;
-68.25905;0;-114.2115;0;-9.39352;1.081924;-128.9542;-127.7182;-0.1552291;0.3111702;0;
-595.8002;0;-618.8431;0;-15.67975;0.07609264;-650.9996;-648.3281;-0.1550731;0.1159555;0;
-519.4896;0;-563.124;0;-11.71187;2.353436;-579.3187;-574.2136;-0.2198846;-0.2739651;0;
-177.3894;0;-238.8458;0;-16.92502;0.006668506;-239.7195;-237.2432;0.04020566;-0.4685918;0;
-165.592;0;-223.0511;0;-10.47765;9.919891;-226.2978;-227.6346;0.365002;-0.07831693;0;
141.9199;0;57.40711;0;-10.46712;11.5845;73.52903;71.94369;-0.02516883;0.2465985;0;
701.6834;0;579.462;0;-14.07393;7.48702;625.6776;623.2192;-0.4149476;-0.01351868;0;
579.8517;0;483.2403;0;-13.05443;8.015361;508.1077;504.2151;-0.284596;-0.01350509;0;
205.9567;0;145.5492;0;-19.94117;0.3043919;136.1588;135.8308;0.0405267;0.1164432;0;
211.4344;0;144.7158;0;-21.79617;-3.31287;138.4583;141.8163;0.235388;-0.01360853;0;
-61.14111;0;-108.24;0;-16.6167;1.178193;-129.9835;-127.441;0.3001188;0.05137249;0;
-587.5651;0;-604.1319;0;-16.6;0.1722651;-650.5286;-647.5514;0.2998173;-0.01364647;0;
-513.5116;0;-557.548;0;-12.49749;-5.119438;-579.0981;-575.1868;0.104614;0.1163019;0;
-190.0954;0;-262.136;0;-9.002306;-6.721762;-258.0523;-257.8306;0.03954153;0.05121772;0;
-170.5391;0;-234.199;0;-18.77252;-8.255615;-236.9285;-240.3926;0.3643385;-0.07876842;0;
156.2805;0;68.32189;0;-20.49497;-9.787928;84.46068;80.50023;0.1690704;0.0512454;0;
702.4114;0;574.9985;0;-7.94845;-5.692255;622.5428;618.4614;-0.4158056;-0.1437081;0;
580.0168;0;476.2826;0;-4.926353;-4.011963;501.4153;497.1506;-0.2854531;-0.4684004;0;
223.3005;0;152.5915;0;-8.873518;-6.084403;147.1518;145.3277;-0.02529689;-0.4679298;0;
221.0771;0;143.6301;0;-7.926597;-3.934835;142.881;144.4945;0.1696306;-0.2725576;0;
-61.87789;0;-115.8839;0;-6.512113;-5.203557;-135.3103;-133.0737;0.1044928;-0.07738168;0;
-592.0492;0;-615.7036;0;-6.840362;-4.729448;-658.7236;-655.5523;-0.02554691;0.1825655;0;
-517.8038;0;-572.5438;0;-4.488964;3.514083;-588.1594;-583.8044;0.1044134;-0.01252002;0;
-178.7662;0;-258.751;0;-4.619152;4.984055;-252.6118;-252.0092;0.1043085;-0.4023115;0;
-162.782;0;-231.1922;0;-7.3602;13.21782;-234.7418;-238.0754;0.1691711;-0.1420379;0;
148.2253;0;56.33318;0;-8.223461;17.89323;69.96603;67.32294;-0.2857703;0.2479089;0;
705.4837;0;576.0153;0;-12.50211;5.885547;619.0572;616.4167;-0.5453525;0.2476598;0;
587.2714;0;481.2339;0;-13.96341;4.539975;504.305;500.2305;-0.1550005;-0.01245843;0;
217.5543;0;143.9196;0;-16.42763;4.93731;134.9212;133.7243;-0.02491009;-0.1423806;0;
219.8345;0;136.7786;0;-17.81764;2.722035;131.7247;135.3391;-0.02488506;-0.01230285;0;
-56.18528;0;-115.2323;0;-14.58456;6.068324;-136.398;-132.5998;0.1050746;-0.1422252;0;
-590.1104;0;-613.491;0;-14.16874;6.263175;-659.7478;-656.0159;0.3648384;-0.2070496;0;
-518.7405;0;-573.9566;0;-10.93932;4.984206;-590.9316;-586.3914;0.1695698;-0.2068416;0;
-184.9493;0;-265.9094;0;-9.789251;6.050925;-260.2538;-259.2164;-0.285372;-0.2066337;0;
-161.6501;0;-229.2855;0;-5.291437;6.714674;-235.9418;-238.9035;0.2346535;-0.07649141;0;
157.9143;0;64.35988;0;-2.27201;8.516467;77.70019;74.49165;0.7541564;0.3133895;0;
702.8566;0;571.1654;0;-11.31206;11.1871;616.6012;612.1465;0.428562;0.3130746;0;
583.0852;0;477.076;0;-13.51149;13.58725;501.4142;495.7771;0.2332293;-0.1420114;0;
221.8056;0;148.8864;0;-9.746873;17.05659;142.2157;140.5822;0.3629296;-0.07690133;0;
219.7087;0;140.7408;0;-11.41202;19.1158;136.7005;139.4415;0.1026956;-0.2067587;0;
-54.81169;0;-112.2735;0;-11.40055;24.18717;-131.0523;-127.5645;-0.02734226;-0.07661631;0;
-580.4924;0;-607.6616;0;-11.79026;26.30632;-647.5984;-643.1146;0.1026199;0.5081668;0;
-511.8808;0;-562.7608;0;-18.07505;26.68179;-581.1058;-576.0643;-0.2223199;0.5076562;0;
-185.4053;0;-257.0987;0;-19.86555;28.06162;-256.6847;-255.4588;-0.2870639;0.3772114;0;
-174.7867;0;-237.2877;0;-19.77824;20.7324;-243.4333;-246.394;-0.2867754;0.311865;0;
138.3566;0;49.99394;0;-20.56265;17.49651;64.28172;61.57386;-0.611324;0.3115517;0;
701.1221;0;573.7429;0;-18.46491;21.56477;619.9378;617.4825;-0.285873;0.2462713;0;
586.4124;0;483.6489;0;-17.50933;20.67232;510.557;507.0423;0.1042183;0.1160891;0;
209.7622;0;142.4592;0;-16.68745;14.28829;138.3559;137.9056;-0.09078847;0.1809398;0;
210.8633;0;139.5674;0;-16.26854;12.06362;138.0919;140.9529;-0.1556646;0.3106927;0;
-59.52526;0;-105.3872;0;-10.4924;14.66371;-124.29;-121.182;0.03939385;0.2454132;0;
-594.7589;0;-611.3395;0;-8.53947;15.05088;-649.7759;-645.734;0.364191;0.05026453;0;
-521.6977;0;-570.9327;0;-11.00914;11.75371;-578.8459;-574.1208;0.4287924;0.2451161;0;
-189.2153;0;-257.4538;0;-10.39486;11.07207;-248.6799;-247.5828;0.1684922;0.1149351;0;
-174.7824;0;-226.0233;0;-15.47463;15.41472;-230.2517;-233.0912;0.1033555;-0.1450498;0;
145.9196;0;69.86771;0;-17.20137;15.19828;86.8829;84.79583;0.03828432;-0.144904;0;
698.3702;0;583.8516;0;-17.31781;22.41704;631.2719;629.3743;-0.09168883;-0.07979109;0;
585.1626;0;492.6855;0;-18.84065;26.27941;519.5684;516.2985;0.1033053;-0.2096456;0;
222.5066;0;163.5431;0;-16.54454;13.79442;160.2892;159.7711;0.2981035;-0.1444676;0;
209.2896;0;148.074;0;-16.12578;12.97688;147.3221;150.6776;0.102902;0.1155469;0;
-70.40527;0;-107.1341;0;-18.52145;10.95436;-124.0646;-120.2752;-0.2870055;-0.2094059;0;
-596.2577;0;-599.0291;0;-20.11043;7.661308;-638.8062;-633.8336;-0.2217497;-0.5340322;0;
-527.6302;0;-553.1375;0;-10.98054;18.43762;-569.6987;-563.3569;0.4281465;-0.1436915;0;
-197.8905;0;-244.9863;0;-8.357539;19.02182;-241.5409;-239.141;0.2977816;0.2462569;0;
-180.4504;0;-215.3174;0;-17.32412;18.86874;-221.7455;-222.7838;-0.2872237;0.1810421;0;
132.2614;0;74.31594;0;-17.44044;19.85452;86.38499;85.91001;-0.2219677;0.05092552;0;
685.8501;0;589.1699;0;-22.11196;14.00718;634.4601;633.361;-0.09181001;-0.01409299;0;
573.2172;0;502.3713;0;-24.83641;13.05547;528.3757;525.8408;-0.02675042;0.05088851;0;
198.6418;0;164.7234;0;-16.63978;6.21021;158.7803;159.3089;-0.1566582;-0.01412997;0;
195.9434;0;157.1242;0;-15.61771;2.453048;154.0605;158.3992;-0.2214682;-0.1440504;0;
-69.86995;0;-90.90911;0;-14.93243;3.723137;-105.7763;-102.1916;0.3634605;0.1159637;0;
-605.343;0;-598.0003;0;-12.64025;0.3703711;-632.78;-628.4493;0.4280626;0.0508798;0;
-533.1458;0;-547.1747;0;-15.03845;7.06817;-562.7416;-556.4787;0.2327304;-0.07910601;0;
-193.7804;0;-227.5353;0;-14.82226;8.869485;-224.9082;-221.6501;0.2974639;-0.01405919;0;
-184.2779;0;-207.5041;0;-8.310637;-0.3828275;-211.3764;-211.6198;-0.09263901;0.180857;0;
125.1269;0;77.49873;0;-5.288176;-0.5833917;93.37044;92.87742;-0.48235;0.2456426;0;
677.0362;0;592.7868;0;-11.98067;-1.788498;639.3146;637.4478;0.1028408;-0.1444083;0;
561.6635;0;503.923;0;-12.43812;-2.25546;529.6646;526.8001;0.2326721;0.05063884;0;
197.282;0;173.7074;0;-7.870295;2.167558;169.3757;170.1998;-0.6771045;0.24549;0;
190.7745;0;164.4125;0;-8.465599;3.303968;161.3969;166.0932;-0.4815221;-0.1445607;0;
-84.71633;0;-89.81252;0;-0.6202114;7.788505;-108.1299;-103.001;0.3635372;-0.3393175;0;
-608.0556;0;-584.2237;0;2.729314;9.589096;-623.1373;-617.3264;0.1682699;-0.2090419;0;
-533.5443;0;-529.1016;0;-8.124419;13.46435;-549.6728;-543.0557;0.2330682;0.05103754;0;
-206.6722;0;-223.161;0;-9.656497;15.79522;-223.4092;-220.297;0.3627687;0.1809209;0;
-196.9693;0;-207.8193;0;-4.556579;9.617043;-210.5036;-211.7048;-0.1573346;-0.1440976;0;
119.757;0;83.43069;0;-3.680369;7.798963;100.5517;99.35167;-0.2221438;-0.3388548;0;
671.984;0;599.4;0;-5.552681;8.326868;646.4262;644.6027;-0.0270186;0.05128973;0;
555.6169;0;506.4066;0;-4.475375;6.711033;534.4576;530.3871;-0.1569261;0.2461402;0;
190.4919;0;174.3145;0;-5.341534;1.010862;172.04;170.5348;-0.02683378;0.1159582;0;
188.8638;0;166.768;0;-6.541615;-1.133607;167.307;170.5508;-0.1567415;-0.07906032;0;
-82.06493;0;-82.89915;0;6.12461;-4.950373;-97.54061;-93.42544;-0.02664932;-0.01401354;0;
-618.4003;0;-581.0029;0;8.462005;-8.42839;-624.865;-620.0043;0.6230508;0.1159352;0;
-549.6257;0;-532.6307;0;8.052337;1.225378;-557.2083;-551.0407;0.2975881;0.1807861;0;
-207.8075;0;-219.0029;0;10.78994;3.501444;-215.8197;-212.4069;-0.1574823;0.4404738;0;
-196.5417;0;-200.6044;0;-3.018658;-4.137885;-201.2976;-201.6363;0.03757798;0.3100965;0;
106.1912;0;77.51994;0;-6.298155;-5.272437;96.00534;94.66744;-0.09239446;0.1798503;0;
662.8046;0;597.0558;0;-6.425549;0.4262883;645.2578;642.6718;-0.09230163;0.4395389;0;
555.7546;0;515.6216;0;-10.10279;0.9617234;541.6611;537.3287;0.1026931;0.1142605;0;
186.3191;0;178.3977;0;-2.189382;-3.526977;175.863;174.4709;-0.1572794;0.1141457;0;
184.4452;0;168.8482;0;-0.5795916;-5.131024;171.6883;174.7329;-0.02718669;0.1789984;0;
-83.91779;0;-76.51075;0;-1.91818;-6.465527;-91.85187;-88.31057;0.5575467;-0.08105085;0;
-617.1279;0;-571.9348;0;1.566372;-8.267447;-616.8706;-612.6458;0.8168558;0.1789;0;
-550.9783;0;-528.3193;0;-1.784104;-10.67053;-552.0955;-546.5006;0.3612637;-0.01618183;0;
-219.5285;0;-224.8157;0;-0.2420704;-11.66455;-222.0814;-219.678;-0.02890338;-0.1461003;0;
-204.3779;0;-201.0391;0;5.250529;-15.80565;-203.5549;-205.4643;0.3609297;0.308818;0;
108.9201;0;89.01718;0;5.045159;-16.92848;104.8072;102.4625;0.2955997;0.373475;0;
664.8437;0;606.5425;0;20.04329;-14.16516;653.4261;650.3966;-0.2894034;0.4380671;0;
557.6042;0;522.7874;0;23.70685;-13.54809;549.7588;544.9832;-0.2241452;0.1127902;0;
190.7905;0;187.9926;0;17.85588;-6.903406;186.1389;184.4291;-0.09398535;-0.01725784;0;
181.6033;0;173.6858;0;19.91502;-3.01146;174.5201;177.4347;-0.2887929;0.4375309;0;
-90.94224;0;-76.80038;0;0.4028493;-3.879212;-92.45866;-88.98477;-0.09360073;0.2421892;0;
-621.2717;0;-579.5955;0;-6.630153;-1.263102;-614.4783;-609.6336;0.23133;0.04704385;0;
-553.5562;0;-537.9088;0;-1.064762;2.020331;-548.7686;-542.2421;0.1661302;-0.01797076;0;
-215.2323;0;-219.2157;0;-5.550694;4.027667;-212.8233;-209.8641;-0.02893871;-0.08292004;0;
-200.3359;0;-192.1964;0;1.085339;6.167074;-194.6185;-196.2849;-0.09387697;0.3069673;0;
106.5238;0;90.29237;0;3.16133;7.433553;108.05;105.7606;0.03615204;0.4365936;0;
662.8245;0;608.4412;0;-6.085248;7.56005;657.6027;654.9407;0.1660504;-0.01861652;0;
553.0884;0;523.1848;0;-6.749695;7.552453;551.3075;547.4613;0.4257529;-0.1485325;0;
183.9054;0;188.5771;0;-1.183207;9.219316;185.3747;184.1561;0.03552107;0.1764535;0;
179.8476;0;178.7674;0;-0.445084;10.48273;179.129;182.5967;-0.224384;0.2412435;0;
-91.3844;0;-71.53649;0;3.90962;2.568453;-87.0423;-83.32817;0.1006782;-0.2137703;0;
-624.2747;0;-567.3403;0;6.585009;0.02052055;-611.6286;-608.2305;-0.02935767;-0.5383922;0;
-553.8075;0;-517.6075;0;-0.5889037;7.656432;-543.2981;-537.2798;0.03563917;-0.1480472;0;
-220.106;0;-211.7409;0;-2.530695;8.519395;-211.4187;-207.7803;0.2305054;-0.2128658;0;
-214.0128;0;-195.6611;0;2.428341;7.238281;-200.2118;-201.0747;-0.02959559;-0.4075539;0;
92.92309;0;90.26687;0;1.756316;7.900837;104.149;103.3494;-0.02956585;0.1125944;0;
647.5509;0;606.729;0;0.9502676;8.361657;653.5806;651.0327;-0.02953614;0.5022853;0;
543.7646;0;525.5349;0;1.953691;8.554204;552.9741;547.9925;-0.02950647;0.4368132;0;
190.2706;0;200.4824;0;-7.023253;7.139089;198.8462;196.7431;0.1004579;0.3064396;0;
182.3333;0;182.415;0;-8.221645;5.122428;184.7159;185.8633;0.1653243;-0.08367233;0;
-98.27145;0;-79.1994;0;-9.888323;10.54278;-92.45546;-90.93439;0.4899949;-0.01862092;0;
-623.0964;0;-575.3704;0;-13.36101;11.87184;-609.1653;-606.1465;0.2946005;0.04636513;0;
-555.254;0;-525.3171;0;5.474007;1.075904;-540.3375;-536.8845;-0.03053224;-0.1485835;0;
-222.4256;0;-207.1989;0;10.22393;-0.1978523;-205.8374;-206.1984;-0.1604362;-0.0184995;0;
-204.0238;0;-181.3786;0;4.319158;-4.28349;-184.0789;-188.3126;-0.5500791;0.04648643;0;
98.0295;0;93.60303;0;7.463626;-7.15933;110.7704;107.0407;-0.4195917;0.1114071;0;
659.6486;0;616.6835;0;-3.864355;1.220486;663.8186;660.0302;-0.2892354;0.5010992;0;
562.222;0;542.3509;0;-8.615894;1.353225;571.0104;565.0394;-0.4188794;0.3056937;0;
180.0988;0;196.8543;0;4.52093;9.121642;193.626;190.9094;-0.1585892;0.1104845;0;
172.7964;0;185.2873;0;4.918529;13.19843;184.4985;185.9075;0.03647218;0.1753408;0;
-87.12161;0;-53.2791;0;-2.655851;5.951138;-69.18449;-68.02678;-0.02853181;0.04522991;0;
-627.3875;0;-557.8469;0;-3.255419;6.949903;-601.5974;-599.0665;0.2313662;-0.2796522;0;
-562.8517;0;-514.7452;0;-9.548787;4.397568;-540.3983;-536.3707;0.3610684;-0.3443386;0;
-218.6464;0;-197.0125;0;-11.34785;3.924269;-198.4644;-197.1895;0.03586892;0.2407135;0;
-207.3697;0;-180.8851;0;-8.924578;3.116531;-183.5224;-185.8095;0.1657676;-0.0843651;0;
93.56248;0;92.8467;0;-8.848261;1.438948;112.7632;109.9162;-0.09426837;-0.6689864;0;
646.5654;0;606.9324;0;-5.959959;9.542192;659.3126;655.5939;-0.548945;-0.08360813;0;
544.5292;0;528.7991;0;-6.155041;10.60433;561.0117;555.7975;-0.02865472;0.4362146;0;
185.1;0;202.6189;0;6.444423;12.13428;203.315;200.8546;0.2962108;0.370809;0;
176.5432;0;189.8591;0;11.05965;14.06447;191.4915;192.5319;0.1659785;-0.08433502;0;
-101.1822;0;-64.70377;0;1.805135;9.361659;-80.68916;-79.3375;0.230779;-0.1492176;0;
-633.6253;0;-566.449;0;2.405557;9.821133;-605.1569;-602.9321;0.4904165;-0.019133;0;
-568.7709;0;-525.5251;0;-3.290287;3.849905;-542.3926;-538.8582;0.1001197;-0.3439505;0;
-234.8045;0;-214.778;0;-5.765227;1.032876;-210.764;-210.4815;-0.5496543;-0.2136702;0;
-218.0144;0;-189.7622;0;-1.004012;6.926214;-191.3119;-195.2775;-0.4841347;0.3062832;0;
88.36328;0;92.03696;0;0.3371431;6.182443;109.6666;106.3922;-0.2887462;0.1760408;0;
647.4934;0;611.6207;0;-6.629421;9.324306;661.2167;657.883;-0.4183908;-0.01903812;0;
545.7686;0;531.2963;0;-9.234728;10.38666;562.6639;557.4596;-0.158101;-0.01901899;0;
173.9069;0;193.1196;0;9.261353;6.759271;193.5963;191.2708;0.3617966;-0.1489346;0;
167.985;0;180.9316;0;13.40426;6.55153;184.0315;186.0186;0.1015637;-0.2787196;0;
-96.86325;0;-63.93969;0;11.24831;3.195801;-77.45956;-74.84978;-0.2883424;-0.2784395;0;
-631.6846;0;-569.3713;0;14.9207;1.518138;-604.5543;-600.8226;-0.09315065;0.04667695;0;
-569.7681;0;-534.504;0;3.184064;1.248681;-543.6646;-538.3126;0.03687763;0.1765647;0;
-230.1785;0;-213.6904;0;-0.4364581;0.1756997;-205.7254;-203.4397;-0.02812676;-0.1484494;0;
-218.453;0;-186.8016;0;7.066069;-1.833965;-190.6512;-192.7406;0.03686884;-0.2782349;0;
84.30191;0;88.9351;0;6.724176;-3.43959;106.5786;103.5543;0.1017991;-0.08305331;0;
642.749;0;605.0862;0;0.488129;-0.823922;656.57;652.6741;-0.1581725;-0.01800252;0;
541.0289;0;525.8928;0;-1.187301;-1.626889;558.0844;552.0685;-0.4828503;0.1119503;0;
183.6647;0;202.0893;0;1.158417;-1.75922;202.3897;199.5033;-0.4173978;0.1768051;0;
177.4207;0;190.392;0;1.559394;-2.628109;192.3788;193.993;0.03779301;-0.01827457;0;
-98.11921;0;-63.10943;0;1.088337;-6.108581;-77.49149;-76.12875;0.2976244;-0.2131582;0;
-627.5045;0;-559.1716;0;1.288314;-7.776894;-598.1519;-596.1658;0.1673907;0.2418274;0;
-567.154;0;-524.5644;0;3.364101;-11.72107;-538.7054;-535.8468;-0.02767955;0.4364864;0;
-234.0013;0;-217.5664;0;2.824857;-13.04883;-207.0806;-207.848;-0.09261908;0.1761784;0;
-213.7762;0;-187.1129;0;6.773158;-21.6764;-186.008;-189.7731;-0.1574934;0.2409687;0;
89.59873;0;92.87193;0;7.101144;-26.47726;111.3421;108.018;-0.02740043;0.2407266;0;
643.7301;0;608.6443;0;3.075521;-14.19303;659.3297;654.8845;0.2324965;0.0455827;0;
542.134;0;531.009;0;3.13978;-12.63816;561.0912;554.8389;0.5570996;-0.1493651;0;
170.9631;0;195.019;0;-10.9969;-15.70668;191.6504;189.4023;0.4266051;-0.2141824;0;
168.48;0;187.7641;0;-17.01407;-13.61442;186.1479;188.6498;0.0363724;-0.2789345;0;
-90.12191;0;-49.55537;0;-8.490503;-18.28943;-67.09939;-64.84993;0.1013032;-0.4085889;0;
-629.3228;0;-558.7496;0;-10.02221;-18.472;-597.9526;-595.2681;0.03623407;-0.08334166;0;
-571.844;0;-532.9509;0;-10.8828;-13.22889;-542.7542;-538.011;-0.02876968;-0.2781599;0;
-227.8795;0;-212.0764;0;-11.07294;-11.3402;-201.4426;-199.3903;0.4260306;-0.2129131;0;
-214.0324;0;-180.5665;0;-11.59767;-12.46739;-184.1863;-187.3834;0.1007658;0.3070396;0;
84.40776;0;92.79012;0;-10.98281;-12.11995;109.4138;105.3453;0.03569724;-0.01810566;0;
642.7922;0;608.5626;0;-11.97713;-4.337994;659.2774;655.8377;-0.02930597;0.1118472;0;
540.385;0;527.4915;0;-9.955359;-1.252543;558.9775;553.9796;-0.7439173;0.5015389;0;
176.2748;0;195.8779;0;-14.56706;-6.00695;197.035;194.4784;-0.3533657;0.3061329;0;
172.8493;0;188.3098;0;-14.15028;-6.268846;191.7146;193.1585;0.166728;0.240858;0;
-99.68749;0;-60.19207;0;-8.912122;-2.44452;-74.34438;-72.46463;0.1015932;-0.1491881;0;
-628.6339;0;-558.631;0;-8.768469;-2.107149;-595.6326;-592.8177;0.2314258;-0.3439402;0;
-563.9095;0;-522.3376;0;3.832645;-5.320212;-534.6895;-530.3157;0.2961606;-0.2136599;0;
-231.6346;0;-213.9676;0;6.641833;-6.319611;-206.317;-204.2589;-0.1589084;-0.2784126;0;
-211.4119;0;-184.08;0;9.247128;-6.581192;-183.496;-185.2506;-0.2237161;-0.01826348;0;
95.02162;0;97.65097;0;13.18995;-6.641562;117.9119;116.409;-0.09355658;0.3715589;0;
645.5869;0;612.6689;0;-3.100277;-11.65849;660.7081;659.4565;-0.2883646;-0.1485532;0;
542.6146;0;532.3434;0;-5.575408;-14.192;561.1564;557.5947;-0.02820548;-0.6031753;0;
177.0029;0;198.8508;0;-11.53068;-6.608914;198.7744;197.5276;0.1017575;-0.3426999;0;
170.953;0;187.9689;0;-17.01145;-6.066411;189.954;192.644;0.03668795;0.1124159;0;
-90.71236;0;-54.84801;0;-7.416161;-7.466835;-66.73294;-64.42043;0.3614878;0.307205;0;
-625.8522;0;-557.0405;0;-9.083649;-7.258383;-594.1508;-590.4662;0.2961572;0.1769616;0;
-572.125;0;-525.4338;0;1.040511;-8.590748;-542.5169;-536.962;0.2308923;0.1767838;0;
-227.3481;0;-207.4404;0;5.995959;-8.113235;-199.2066;-198.5923;0.360595;0.1116388;0;
-211.5025;0;-180.308;0;-6.067482;-15.07119;-180.2658;-184.3998;0.1653306;-0.08337539;0;
80.50079;0;88.92538;0;-5.257102;-17.19938;105.5842;102.4539;-0.2246395;-0.148259;0;
642.5748;0;608.9496;0;-10.20831;-14.101;659.5121;656.1976;-0.5492505;-0.14811;0;
546.4147;0;535.1245;0;-13.74803;-15.09157;566.0836;560.8358;-0.418764;-0.1479612;0;
174.8022;0;195.9445;0;-3.285365;-10.85661;195.8256;193.3942;-0.09350647;-0.3427145;0;
171.0033;0;186.19;0;-3.080993;-10.0419;188.0077;190.014;0.2963915;-0.2124355;0;
-94.34769;0;-58.49922;0;-2.475661;-9.830865;-71.36346;-69.67152;0.5559631;0.2425494;0;
-629.7962;0;-565.1232;0;-0.6645121;-8.682278;-597.2149;-596.3367;0.03566572;0.112371;0;
-570.8802;0;-527.7614;0;-9.907245;-11.48684;-540.8928;-538.5163;-0.3541742;-0.472448;0;
-234.9751;0;-212.7642;0;-12.17447;-10.6715;-207.829;-207.7662;-0.1589163;-0.5369406;0;
-217.9349;0;-188.3126;0;-9.148123;-16.82308;-188.1924;-192.0027;-0.2237239;-0.01666238;0;
82.88294;0;87.86292;0;-9.808517;-19.08348;106.2238;102.3548;-0.09356444;0.2432237;0;
642.7057;0;608.0131;0;-12.34426;-11.76341;658.6519;653.7248;0.1014316;0.3079467;0;
546.483;0;534.3764;0;-13.60465;-11.61762;566.4111;559.6774;-0.1585397;0.1777026;0;
180.0553;0;203.2556;0;-10.04101;-8.323785;201.65;198.6712;-0.2883151;0.04758933;0;
175.8139;0;193.806;0;-9.360356;-7.042745;194.4509;196.0353;-0.3529927;-0.08239317;0;
-93.91477;0;-55.2636;0;-10.02151;-7.839464;-69.11213;-67.27946;-0.6774747;0.0476243;0;
-632.4871;0;-565.7639;0;-9.073438;-6.559032;-600.0258;-597.133;-0.3519573;0.1125438;0;
-578.1286;0;-538.2715;0;-11.0067;-14.92507;-548.6984;-544.1843;-0.02676694;-0.212406;0;
-237.9059;0;-218.7035;0;-11.06299;-17.72323;-211.4413;-210.3051;-0.2866094;-0.2771599;0;
-215.8654;0;-185.7502;0;-9.175866;-15.09321;-187.1784;-189.729;-0.3512888;-0.1469467;0;
78.64113;0;84.05093;0;-8.563435;-16.68563;101.7395;99.81622;-0.1560338;-0.08183175;0;
638.0934;0;605.5168;0;-5.876488;-16.86969;653.7972;651.1263;0.2339271;-0.1467169;0;
543.8742;0;532.5073;0;-2.922847;-17.99145;563.1855;558.893;0.623496;-0.3414715;0;
174.6381;0;195.7662;0;-7.876403;-16.49987;196.0539;194.8891;0.2980329;-0.276161;0;
180.0848;0;196.4441;0;-7.667418;-15.61252;198.9179;201.0651;-0.35194;0.04895318;0;
-82.40183;0;-44.75718;0;-0.6944644;-21.69215;-57.84055;-55.57052;-0.2216517;-0.08103069;0;
-632.0427;0;-557.8918;0;-0.357998;-23.21084;-600.1973;-597.055;0.2333424;-0.3408186;0;
-579.8086;0;-527.4088;0;10.35865;-20.03944;-550.8687;-546.4802;0.2980753;-0.1455742;0;
-239.2719;0;-215.5977;0;14.83622;-20.28724;-212.485;-211.0994;-0.09202827;0.1794088;0;
-220.4158;0;-189.5816;0;2.965948;-17.98944;-190.4075;-192.2092;-0.3518052;0.04929388;0;
84.83986;0;92.59217;0;1.221656;-16.16294;109.8205;108.1456;-0.1565496;-0.08069034;0;
646.7221;0;615.2364;0;2.76067;-21.77302;664.3064;660.8216;-0.2213597;-0.2105439;0;
547.2469;0;535.8453;0;1.417749;-23.02382;568.1869;561.957;-0.1561699;-0.2752997;0;
178.1324;0;197.9764;0;-2.602163;-15.49884;201.1752;197.7001;-0.02607832;-0.1450884;0;
173.0808;0;188.0324;0;-4.207139;-13.94266;193.2269;193.5035;-0.2209541;-0.0799753;0;
-90.89799;0;-52.973;0;-5.475709;-15.53624;-65.02502;-64.74876;-0.0258301;-0.07989494;0;
-624.2885;0;-549.4827;0;-7.345241;-14.04701;-589.9458;-589.4199;0.1690979;-0.2097493;0;
-571.4374;0;-519.5703;0;-1.042197;-16.51114;-540.0653;-538.1656;0.1039606;-0.4044406;0;
-235.0945;0;-214.2639;0;-0.7063573;-15.95881;-207.4396;-207.9156;-0.2209805;-0.2740995;0;
-214.2437;0;-187.6244;0;4.451916;-13.19647;-183.8054;-188.0916;-0.2207585;-0.1438894;0;
81.63547;0;85.42694;0;8.73435;-11.50864;106.7958;102.0142;0.1043;-0.07877752;0;
640.5225;0;604.705;0;-6.81349;-9.152794;657.9114;652.385;0.1041952;0.05123632;0;
547.9875;0;533.6953;0;-9.820754;-7.268075;569.3571;561.6498;0.1040905;-0.07874985;0;
174.8742;0;194.5793;0;0.5042418;-1.835277;198.0963;194.0199;0.2339206;-0.1436381;0;
170.1383;0;182.952;0;2.043977;0.5108479;189.0892;189.3897;0.2986529;0.05140829;0;
-85.71664;0;-52.23872;0;-2.312334;4.060308;-61.8498;-61.92439;0.2333855;0.2462587;0;
-627.2333;0;-560.4932;0;-2.443732;6.668562;-594.9572;-593.9697;0.03824896;0.05110919;0;
-578.877;0;-539.9401;0;4.323877;4.317459;-548.1326;-545.8343;-0.02675681;-0.3387462;0;
-234.4057;0;-219.8082;0;5.994472;5.719763;-205.5662;-206.5811;-0.09169727;-0.01356913;0;
-217.3661;0;-189.9772;0;7.52869;0.5564516;-185.2448;-190.3815;-0.1565725;0.7660526;0;
78.32875;0;80.1405;0;8.994994;-1.051698;104.9831;99.22679;-0.1564151;0.7652829;0;
642.0292;0;604.7338;0;7.177294;3.906096;660.3484;654.0356;-0.2212253;0.2447752;0;
547.5562;0;533.5991;0;6.83529;3.567256;569.9175;561.3622;-0.02610101;0.2445292;0;
180.7526;0;201.3546;0;3.344821;8.654253;206.902;201.3539;0.1038599;-0.08055318;0;
175.9483;0;193.781;0;0.9979119;10.65492;199.885;199.9646;-0.02617914;-0.2753743;0;
-89.72002;0;-50.7284;0;-0.6106812;8.232953;-60.74742;-59.41852;-0.09112018;0.2446412;0;
-622.7369;0;-550.8635;0;-3.624177;9.296286;-589.1083;-586.7812;0.1688408;-0.210376;0;
-567.9509;0;-521.6994;0;-1.142289;5.134125;-540.9777;-536.9664;0.2336384;-0.470034;0;
-233.1732;0;-218.8896;0;-0.6052782;3.1196;-210.5999;-208.9039;-0.09143303;-0.144725;0;
-211.5746;0;-190.0591;0;-10.98715;7.403251;-186.6503;-188.9539;-0.3512105;-0.07961226;0;
85.61367;0;86.55547;0;-13.5217;6.525034;106.515;104.0262;-0.415825;0.1803371;0;
640.3113;0;603.1463;0;-10.02452;5.111836;655.6319;653.0207;-0.0256031;0.1151886;0;
546.902;0;531.8258;0;-11.68938;4.168939;565.1433;560.7231;0.3642267;-0.2097639;0;
175.1641;0;191.7121;0;0.1113601;1.15064;194.6364;192.8443;0.03902399;-0.0146511;0;
174.9256;0;184.8353;0;6.072119;0.2117227;191.2549;193.3377;-0.4157866;0.05033096;0;
-75.62432;0;-49.1079;0;-6.458936;-4.678122;-53.7517;-51.8584;-0.02556478;-0.209589;0;
-618.1506;0;-564.2996;0;-4.510063;-6.615805;-587.6793;-585.1632;0.2343303;-0.3393131;0;
-572.4271;0;-531.8111;0;-4.438183;-5.872467;-543.6731;-539.5353;0.0391928;-0.1440701;0;
-225.5885;0;-202.1922;0;-5.974941;-7.005154;-199.3621;-197.29;0.1041208;0.1159441;0;
-206.0591;0;-180.4998;0;10.03962;-0.03213404;-177.7975;-179.7255;-0.02591855;0.05086019;0;
82.628;0;83.48647;0;10.83381;3.651959;105.4888;102.8756;0.03907483;0.05080909;0;
644.9498;0;607.889;0;24.95547;-2.313069;660.5413;657.2436;0.2989049;0.2456601;0;
550.2865;0;534.1274;0;34.1738;-0.9042252;569.2981;563.1301;0.1037026;0.1154785;0;
177.7955;0;196.76;0;-0.6906896;1.441086;199.5991;195.8112;0.1685657;-0.2094742;0;
177.8667;0;191.19;0;-5.713838;0.3679111;196.8373;197.9257;0.103429;-0.0143617;0;
-82.36877;0;-49.13139;0;-3.095152;14.70152;-58.54469;-56.95762;-0.02660961;0.2455221;0;
-612.457;0;-539.4605;0;-9.656125;18.70573;-579.9113;-577.1389;0.1033518;-0.2744633;0;
-557.5564;0;-504.6857;0;9.643686;7.501025;-526.7925;-522.7111;0.03828062;-0.5340569;0;
-232.9715;0;-212.2628;0;12.71546;6.15383;-205.9242;-204.7829;-0.09169253;-0.01378157;0;
-218.3697;0;-193.184;0;8.482143;4.004192;-190.0376;-191.9584;0.363171;0.1811343;0;
84.82246;0;86.30721;0;10.34963;2.124769;107.5663;105.585;0.2328714;0.5707564;0;
642.332;0;605.2096;0;9.200155;-4.843469;657.994;654.7653;-0.2871013;0.4402482;0;
544.4229;0;531.3883;0;9.995194;-8.924439;564.442;559.0927;-0.3517802;-0.469737;0;
179.8714;0;201.0826;0;4.626516;-1.480488;202.3691;200.1485;-0.221492;-0.4042976;0;
182.3768;0;196.008;0;3.550141;-0.6753275;201.4786;203.758;0.1035672;-0.07905469;0;
-73.30305;0;-40.25776;0;-1.409919;-3.621776;-49.09799;-46.4461;0.4282999;-0.403812;0;
-612.6458;0;-547.4623;0;-4.892103;-3.216239;-580.4691;-577.6949;0.1680001;-0.2734715;0;
-570.2386;0;-531.3575;0;1.877967;1.609642;-540.4056;-535.9476;-0.02707068;-0.2731968;0;
-229.0244;0;-213.9829;0;0.536909;4.019288;-202.2823;-199.6404;0.2328259;-0.2079549;0;
-209.3041;0;-180.0973;0;5.492863;2.675713;-180.0276;-181.6362;0.427494;0.1170908;0;
75.51316;0;81.38979;0;6.961212;4.079544;99.38789;97.21873;0.1671951;0.05200577;0;
640.2159;0;605.1072;0;0.8586482;2.33401;655.5709;652.0921;-0.1578097;-0.07798117;0;
553.6158;0;541.2185;0;1.393649;0.9250233;572.3287;566.667;0.03725094;-0.2078375;0;
176.0615;0;197.2848;0;-9.056601;6.885453;198.2539;195.8462;-0.02775383;-0.01272663;0;
177.8212;0;191.4019;0;-12.06161;6.54362;195.8683;198.0857;-0.222628;0.3121229;0;
-74.10598;0;-44.35949;0;-8.566867;6.135147;-52.01655;-49.55148;-0.09246959;0.2468419;0;
-612.6982;0;-552.5594;0;-9.562636;6.798812;-582.3852;-579.048;0.1025253;0.4414959;0;
-563.1697;0;-519.8954;0;-3.592157;-4.125994;-534.4488;-529.4283;0.2973244;0.376085;0;
-236.018;0;-212.7146;0;-2.04733;-6.466128;-208.9501;-207.2455;0.1021236;0.180805;0;
-219.4765;0;-190.0122;0;4.987325;-5.388026;-189.6872;-191.4202;-0.2877831;0.05068866;0;
82.27993;0;86.7897;0;9.269221;-4.6458;106.1048;104.686;0.03734279;-0.4041336;0;
634.9819;0;601.7561;0;2.762197;-6.985413;650.7244;648.5573;-0.09262942;-0.4037276;0;
543.5145;0;533.248;0;2.424629;-7.179343;562.6769;558.1383;-0.2874384;-0.07848521;0;
180.6505;0;203.5652;0;4.967788;8.70246;202.5423;199.7573;0.2325892;0.2464304;0;
178.47;0;194.4277;0;4.560655;12.91352;197.1539;198.5571;0.5571922;0.2461828;0;
-73.52025;0;-36.21437;0;-0.06562809;19.79954;-49.60778;-47.51882;0.2967629;-0.01393399;0;
-614.7993;0;-541.1741;0;-2.074318;24.13354;-582.1652;-580.0159;-0.1583066;0.05104735;0;
-575.2635;0;-525.388;0;-3.077588;19.55445;-544.4114;-540.89;-0.2880822;0.3108654;0;
-232.4826;0;-210.5806;0;-4.547388;19.60178;-204.9098;-203.6407;-0.1578581;0.1806184;0;
-215.8822;0;-184.3821;0;-5.414451;11.0755;-186.5255;-188.3187;-0.0277648;-0.07943247;0;
69.81624;0;79.60811;0;-6.480737;7.782328;93.9585;92.91676;-0.0277369;-0.14432;0;
637.3983;0;609.1369;0;-3.325418;-2.339671;655.3318;653.1042;-0.2226111;-0.339077;0;
552.8;0;545.6815;0;-2.45142;-8.298678;574.901;569.6771;0.03748199;-0.4037036;0;
180.9937;0;206.3034;0;-1.109786;-4.204503;204.4467;201.6644;0.6221504;-0.07846129;0;
178.8753;0;198.475;0;1.369575;-6.544559;198.3068;199.7751;0.03681919;0.05155223;0;
-76.3013;0;-37.35601;0;-5.79812;1.566708;-50.95478;-49.61285;-0.4179892;-0.07843425;0;
-610.8934;0;-535.0683;0;-8.003098;5.249073;-577.3889;-574.9864;0.2970715;0.05157924;0;
-566.1767;0;-509.6057;0;4.128733;1.827791;-535.642;-531.1804;0.296773;0.6362335;0;
-240.3338;0;-212.5552;0;6.535482;4.237218;-212.7658;-211.7444;-0.09332919;0.4406922;0;
-217.7286;0;-183.6685;0;3.783225;7.515124;-187.752;-190.7296;-0.02826807;-0.1444567;0;
86.52488;0;96.75018;0;6.927255;9.78487;110.9741;108.3743;0.03672767;-0.3392136;0;
638.1606;0;607.3962;0;-3.796974;10.57883;654.5894;651.5548;0.1016581;-0.208938;0;
546.5026;0;535.5093;0;-6.672571;11.70691;566.538;561.5075;-0.02837872;-0.07879343;0;
186.8215;0;209.8846;0;6.394951;12.49895;209.8353;206.9338;-0.4181542;-0.01374692;0;
178.6378;0;197.6797;0;7.392903;12.35242;198.6924;199.3546;-0.09289738;0.05123424;0;
-77.16319;0;-37.9006;0;9.864697;13.21079;-51.88137;-50.97004;0.03713065;0.1161501;0;
-606.6945;0;-535.4249;0;11.2613;12.4607;-573.8793;-572.4067;-0.027874;-0.07886863;0;
-570.3528;0;-523.3927;0;9.642399;10.43869;-540.1318;-537.2239;0.03712134;-0.2736914;0;
-239.5082;0;-217.8326;0;10.43602;8.686769;-211.8164;-211.9099;-0.35272;-0.2734164;0;
-219.0277;0;-188.0661;0;2.186509;4.32415;-189.1773;-194.0183;-0.4823003;-0.143207;0;
69.36001;0;74.80334;0;0.04183404;0.7698318;92.43379;87.84753;-0.6117504;-0.2729978;0;
635.7556;0;600.4014;0;-3.977672;-1.24043;650.8727;646.416;-0.3512663;0.1820479;0;
554.095;0;541.0777;0;-8.059512;-4.521225;573.3823;566.3688;0.03889072;0.5067017;0;
184.1614;0;205.8272;0;0.1876089;-7.195877;206.2404;202.0451;-0.1560504;0.05142118;0;
187.9743;0;203.0592;0;0.1200714;-9.53305;206.7203;207.2768;-0.0259589;0.2462716;0;
-60.08993;0;-24.90533;0;1.057956;-14.14517;-36.3653;-35.43454;0.2339365;0.3109914;0;
-602.6943;0;-538.1848;0;2.999276;-16.40838;-571.2474;-569.3805;0.1687341;-0.01415777;0;
-566.1068;0;-531.3347;0;-2.965585;-16.45887;-536.3781;-533.3262;-0.2862068;0.2457258;0;
-231.8307;0;-217.9581;0;-2.895256;-16.77713;-205.1929;-204.6428;-0.6107559;-0.01439045;0;
-215.6058;0;-185.8801;0;-4.030447;-17.22915;-187.2456;-189.9445;0.1694659;-0.3392127;0;
76.02688;0;80.73528;0;-4.763331;-16.87692;99.36107;96.66493;0.2992303;-0.4688065;0;
642.2908;0;605.0156;0;-0.4052644;-13.04206;657.9804;654.8497;-0.1558418;-0.3384008;0;
558.8745;0;543.5632;0;0.9352895;-11.28752;577.7343;572.5452;0.2341189;0.37658;0;
192.0596;0;210.6217;0;1.335515;-7.525136;213.2117;210.7765;0.1039489;0.5061363;0;
189.3678;0;201.7894;0;1.803664;-3.967601;207.1879;209.0654;-0.4158942;0.1158237;0;
-66.75628;0;-34.48224;0;7.629001;-9.657042;-43.01966;-40.95655;0.1042624;0.1806746;0;
-603.5444;0;-542.942;0;9.764789;-10.65208;-571.086;-568.3378;0.2990596;-0.01440894;0;
-561.7711;0;-526.4045;0;5.936584;-0.9960809;-531.7192;-526.6624;0.03888978;-0.4041985;0;
-236.0576;0;-220.529;0;6.33276;0.880442;-208.4096;-205.4819;0.103818;-0.338825;0;
-221.0778;0;-194.9452;0;1.905768;-3.67516;-190.6465;-192.0321;-0.02622096;-0.01364787;0;
78.68129;0;81.48683;0;-0.1722521;-3.939399;104.2094;101.7009;-0.286064;0.5061046;0;
643.2559;0;608.0153;0;3.444267;-6.547653;661.3871;658.1314;-0.4806786;0.5705634;0;
554.9036;0;541.2501;0;3.575504;-8.885476;576.14;571.2634;-0.4801956;-0.014716;0;
188.405;0;208.6856;0;2.030694;-6.13037;211.9314;209.4335;0.04002566;-0.1446359;0;
189.9648;0;204.7278;0;2.363446;-6.459003;209.9693;211.5344;0.4297895;0.05041146;0;
-56.97702;0;-23.80064;0;2.629491;-12.01197;-31.49537;-29.55704;0.494325;0.1153282;0;
-595.5865;0;-533.8328;0;2.358429;-13.74146;-561.5723;-559.0737;0.2989263;0.05024492;0;
-566.9396;0;-529.111;0;8.58535;-13.25877;-536.2704;-531.9628;-0.2211128;0.1151618;0;
-234.2869;0;-217.3608;0;10.92125;-14.38416;-207.0843;-205.4671;-0.48076;-0.07985596;0;
-214.9986;0;-185.2834;0;6.087503;-12.62815;-184.6374;-187.582;-0.2853749;-0.2746778;0;
71.51105;0;79.26985;0;5.947665;-12.14658;96.59438;93.4653;-0.2201208;0.1803697;0;
641.9025;0;608.6741;0;6.611274;-14.4118;658.4648;654.3394;-0.4148017;0.2451558;0;
564.671;0;552.2155;0;5.935046;-14.73223;584.1527;577.7826;-0.02458085;-0.404764;0;
198.4749;0;218.2657;0;6.733366;-12.90889;219.8736;216.5708;0.3002805;-0.534292;0;
196.6512;0;209.863;0;6.659251;-12.49402;215.2799;215.9784;0.1700442;-0.1439511;0;
-60.60464;0;-29.04035;0;5.24604;-13.75414;-35.68542;-35.61229;0.3647753;0.310965;0;
-599.9601;0;-541.2537;0;5.374491;-14.07524;-567.6321;-567.5591;0.5593108;0.5055546;0;
-562.8131;0;-525.2801;0;3.560429;-12.0516;-534.2033;-531.9439;0.2988794;0.1802099;0;
-238.223;0;-219.5307;0;3.15471;-10.90091;-211.8908;-211.6951;0.5584485;-0.1448079;0;
-221.367;0;-193.5106;0;5.362343;-15.24372;-191.6879;-195.8653;1.012659;-0.0796951;0;
78.7672;0;82.04543;0;5.089511;-16.0322;102.9817;98.30876;0.4919025;0.115287;0;
646.2778;0;608.7607;0;10.64313;-12.59996;662.0346;656.5543;0.1665715;0.3750405;0;
561.0459;0;543.9938;0;13.11068;-12.72127;579.6605;571.562;0.7511102;0.244729;0;
191.2927;0;207.7409;0;8.074639;-8.287733;212.5123;207.7953;0.4255188;0.3094504;0;
187.6023;0;200.7856;0;8.401319;-6.069091;205.9894;205.5875;-0.0946475;0.1792048;0;
-61.3362;0;-31.79939;0;6.651565;-11.7563;-37.72015;-38.80886;0.2302843;-0.4056813;0;
-598.9418;0;-545.8215;0;5.237385;-12.01242;-568.1656;-567.8789;0.1001182;-0.2103717;0;
-564.7319;0;-526.5325;0;8.380931;-13.40699;-534.9236;-532.7632;-0.1598517;0.1146764;0;
-232.3937;0;-207.2262;0;7.099711;-16.27366;-202.7403;-203.0183;0.425015;-0.01537349;0;
-219.6665;0;-187.4028;0;14.0588;-7.415806;-187.7316;-191.6949;0.4245879;0.2445113;0;
64.91132;0;69.53141;0;17.79572;-5.867869;90.25494;84.54645;-0.1605448;0.04936362;0;
638.6827;0;598.758;0;2.974733;-14.30158;654.693;647.0537;-0.2253508;-0.34049;0;
563.266;0;542.7467;0;1.296805;-14.62212;581.0093;571.8785;-0.160157;-0.2751806;0;
191.0743;0;207.7445;0;4.243239;-22.24324;212.3606;206.6122;-0.2249635;-0.4698061;0;
193.7559;0;204.7871;0;2.095521;-26.64164;212.8968;211.0273;-0.2897047;-0.2094647;0;
-50.87844;0;-20.49302;0;17.63248;-15.764;-27.00914;-29.0642;0.1003904;0.4404193;0;
-588.1198;0;-521.658;0;23.57661;-15.14532;-557.0281;-558.6438;0.4251262;0.2450747;0;
-553.9207;0;-509.6396;0;12.56821;-17.27343;-526.2336;-524.9116;0.03489501;-0.2749103;0;
-232.6503;0;-216.9619;0;13.55996;-15.98352;-208.1769;-208.1682;-0.1600421;-0.4045688;0;
-220.3601;0;-197.3161;0;18.90497;-21.9287;-194.412;-198.2764;-0.02994658;-0.2742276;0;
71.65214;0;72.55906;0;19.6229;-23.51425;91.88949;87.65426;0.1649855;-0.2089847;0;
633.0479;0;594.5987;0;24.42596;-19.00289;646.0811;640.4758;0.1648197;-0.1438074;0;
555.3256;0;538.0294;0;26.009;-18.38095;571.4691;563.6205;0.0996868;0.3111086;0;
199.5711;0;215.2757;0;24.37528;-19.23326;218.447;213.5424;0.03461929;0.5706653;0;
197.9963;0;207.938;0;24.68558;-17.33841;213.7298;212.6406;-0.09535018;0.2452552;0;
-55.01308;0;-26.903;0;22.71839;-22.27761;-34.73523;-35.63583;0.03468031;-0.01486062;0;
-591.0634;0;-535.9326;0;22.42715;-23.66186;-561.7479;-561.5231;0.09961281;-0.1447804;0;
-556.4865;0;-524.8994;0;16.9796;-12.92106;-528.3875;-526.1639;0.1644801;0.1802018;0;
-224.0941;0;-210.967;0;14.01481;-11.50144;-198.0223;-198.2373;-0.09555458;0.2449881;0;
-211.875;0;-186.0174;0;19.69415;-8.073874;-181.519;-185.9817;-0.4202953;-0.4049315;0;
64.19923;0;66.79251;0;19.00478;-5.051651;89.33981;84.63177;-0.03006891;-0.3395573;0;
633.5984;0;595.3347;0;22.13351;-13.62015;649.2186;644.3279;0.3597654;-0.07934672;0;
564.6837;0;547.3228;0;24.85794;-14.20931;583.349;576.0269;0.0995345;-0.4041037;0;
190.1792;0;207.8183;0;14.31676;-17.41009;212.1367;207.0708;-0.2903696;-0.5985997;0;
188.6763;0;199.426;0;12.69479;-19.60303;207.1759;206.8003;-0.1601431;-0.4030962;0;
-52.32975;0;-21.22602;0;18.30811;-16.03324;-29.85075;-29.47636;0.1648545;-0.07785443;0;
-596.8784;0;-535.0714;0;18.55813;-16.61997;-567.2381;-565.1774;0.2296562;-0.2077109;0;
-564.7321;0;-533.8466;0;19.34279;-11.98157;-537.7452;-533.3128;-0.1603786;-0.5323389;0;
-235.7047;0;-227.7138;0;18.65377;-10.09414;-211.6185;-209.8143;-0.2901521;-0.2719346;0;
-224.5359;0;-200.6235;0;25.53391;-10.7537;-197.288;-199.546;0.09994345;0.18311;0;
67.04331;0;68.9427;0;27.78543;-9.202409;89.45372;87.07304;0.4246797;0.1179587;0;
631.6296;0;594.2968;0;20.72491;-12.20727;645.6467;642.019;0.5541877;-0.2069966;0;
553.5964;0;536.3535;0;21.37367;-13.33372;570.2855;563.7255;0.2287941;0.0530808;0;
197.2814;0;213.6015;0;12.97945;-8.96655;217.6395;213.085;0.2285642;0.5727662;0;
197.5205;0;209.9511;0;9.885923;-8.622625;215.4843;214.745;0.3582693;-0.0125154;0;
-58.92419;0;-26.70349;0;15.90421;-14.6423;-36.16837;-36.78198;0.09803991;-0.4672742;0;
-597.4692;0;-538.1071;0;14.01222;-17.44075;-566.8028;-566.5412;0.03297406;-0.141968;0;
-559.0754;0;-525.6974;0;23.84475;-14.61007;-531.001;-528.8656;0.09790827;-0.01189065;0;
-229.0542;0;-215.3873;0;26.09797;-15.93492;-203.2569;-204.2471;0.2927119;0.05308864;0;
-221.4528;0;-195.7432;0;19.37394;-20.20582;-191.5584;-196.7955;0.4873198;0.18297;0;
58.87892;0;61.63671;0;18.55019;-21.65902;83.37094;78.07666;-0.1628433;-0.07708324;0;
634.4055;0;597.3055;0;13.17292;-25.99102;649.8149;644.5884;-0.4875163;-0.5967445;0;
565.4273;0;548.7294;0;10.54771;-27.30457;583.445;577.0369;0.03271225;-0.4012429;0;
191.297;0;209.7232;0;6.719696;-28.9517;212.1076;207.7049;0.1626141;0.1838664;0;
193.2287;0;204.8273;0;5.573868;-29.92736;210.6451;209.6826;0.1624507;0.1836816;0;
-47.09477;0;-17.07955;0;3.223743;-24.47179;-24.94823;-25.34756;0.09732009;-0.01140498;0;
-592.4608;0;-528.6802;0;5.297585;-22.90659;-561.7783;-560.8029;0.03225497;-0.07636086;0;
-560.0065;0;-520.4029;0;6.765154;-19.93645;-530.7916;-528.1306;0.2920919;-0.01131679;0;
-231.1713;0;-214.2211;0;9.505022;-17.83995;-204.2346;-204.2;0.2268311;0.1186293;0;
-223.5677;0;-192.7041;0;22.82471;-15.81253;-193.7846;-197.623;0.09666848;0.1834774;0;
64.57468;0;71.29443;0;23.93987;-13.92124;89.01807;84.80872;0.2914734;-0.2714784;0;
628.8511;0;594.4598;0;53.45468;-16.18456;644.5868;640.1318;0.4211152;-0.3361729;0;
556.8801;0;543.9501;0;63.18024;-15.49846;575.5985;569.9611;0.2907574;0.1839036;0;
204.5599;0;226.2504;0;41.68319;-20.50649;226.5078;223.5622;0.2904652;0.2486862;0;
199.1694;0;215.6533;0;43.38262;-22.62934;218.0968;218.7149;0.3551407;0.183469;0;
-54.65321;0;-18.69571;0;12.86216;-20.26232;-30.06019;-29.69263;-0.09998755;-0.07658476;0;
-590.0791;0;-519.3627;0;2.534107;-22.58624;-556.6403;-556.2731;0.09501494;-0.3363772;0;
-560.6882;0;-511.9069;0;7.823823;-15.79839;-529.3444;-527.6033;0.4197562;0.1836996;0;
-236.0377;0;-213.3548;0;2.323605;-14.376;-208.0363;-208.2334;-0.1004043;0.1185476;0;
-225.4308;0;-193.2754;0;19.73635;-23.13607;-196.0207;-199.4035;0.09459858;-0.1414409;0;
60.02739;0;67.97505;0;24.53928;-24.51947;83.34847;79.71916;0.2894056;0.37844;0;
632.3044;0;597.3281;0;28.66684;-26.03531;646.9189;642.7935;0.0292454;0.3130924;0;
562.204;0;547.7526;0;30.51404;-27.08088;580.4894;573.8694;0.1591507;-0.01205891;0;
197.1973;0;217.5554;0;46.55831;-30.33583;219.3999;214.9729;0.2239581;0.2478226;0;
195.5623;0;211.5897;0;48.45391;-32.11377;214.9315;215.5065;0.3536678;0.4424756;0;
-50.94787;0;-15.00915;0;41.2389;-26.85695;-26.0384;-25.83881;0.5482144;0.05222693;0;
-594.6859;0;-530.5474;0;42.53664;-26.56204;-561.9304;-561.9184;0.1578595;-0.1427276;0;
-563.6661;0;-525.0793;0;-4.794833;-22.65046;-534.2543;-532.1809;0.02776623;0.1172852;0;
-228.9552;0;-212.8959;0;-18.78884;-20.81916;-203.6334;-203.6236;0.2226404;-0.07773466;0;
-218.98;0;-191.8174;0;-24.73181;-23.07566;-191.3099;-194.7983;0.02751462;-0.2075912;0;
60.66206;0;65.87087;0;-38.43834;-22.71756;84.11896;80.69656;0.1574216;0.05248672;0;
621.6941;0;588.5419;0;-7.855494;-24.57026;637.9435;633.8998;0.4821002;-0.01253336;0;
551.4169;0;536.7888;0;-3.159528;-24.74652;570.8359;564.485;0.4816158;-0.1424555;0;
202.7253;0;218.9089;0;0.9294836;-30.68289;224.686;220.403;0.1562951;-0.1423123;0;
200.835;0;211.3801;0;9.234921;-33.26439;219.0255;218.9321;-0.1686986;-0.01223463;0;
-55.80042;0;-24.9011;0;11.2344;-27.40357;-33.06797;-32.6615;0.02637291;0.052745;0;
-596.1602;0;-530.9342;0;17.51975;-26.43828;-565.0173;-563.9241;0.2212484;-0.01227534;0;
-566.2009;0;-523.0294;0;10.80434;-26.94757;-537.963;-534.9968;0.0261241;0.05270434;0;
-242.7943;0;-225.6531;0;11.06093;-25.58084;-217.6456;-217.2436;0.09106519;-0.0772833;0;
-231.4309;0;-205.1241;0;8.236774;-22.47404;-203.7463;-206.6555;0.155941;0.1176964;0;
55.96977;0;58.88694;0;5.34811;-20.17404;78.12934;75.47289;-0.03911769;0.05261077;0;
626.3768;0;588.0618;0;8.826337;-20.35472;641.2053;636.9897;-0.1690131;-0.3372461;0;
563.0914;0;544.9297;0;8.146907;-19.53059;581.5906;574.6307;-0.03890856;0.05289678;0;
199.7704;0;215.4225;0;6.397408;-13.68358;220.0627;215.9833;0.2209999;0.4426477;0;
197.8206;0;206.4605;0;5.452975;-10.65559;214.4068;213.8922;0.02587582;0.05239885;0;
-40.6959;0;-14.07371;0;10.13655;-17.34306;-19.31628;-19.58042;-0.1040849;0.0523462;0;
-590.1288;0;-526.7394;0;11.39916;-18.19641;-560.8997;-559.6018;0.2208564;-0.1426084;0;
-566.9222;0;-524.0237;0;8.775735;-14.82898;-540.0962;-537.6752;0.09069983;-0.7271712;0;
-233.1451;0;-218.5879;0;9.10171;-16.35469;-209.2196;-209.6746;-0.1042933;-0.3366365;0;
-229.3501;0;-204.7501;0;6.278549;-10.17595;-202.0753;-205.5284;0.2206482;-0.1413962;0;
49.86514;0;52.01414;0;4.397207;-8.49127;71.80266;68.66541;0.3503611;-0.2062215;0;
625.6506;0;584.1943;0;9.148211;-17.65915;638.3832;634.4995;-0.03979495;0.1188225;0;
559.6173;0;537.5055;0;10.27809;-18.78012;574.7109;568.2699;-0.1696896;-0.1411663;0;
203.7336;0;215.0023;0;0.8906441;-22.71312;220.6236;216.5629;0.1553176;-0.07605713;0;
209.1511;0;214.9736;0;-2.057988;-25.50346;223.1506;223.4042;0.02522682;0.3138233;0;
-44.4942;0;-17.12581;0;5.713612;-19.71742;-24.38684;-23.88355;0.02520147;0.05363864;0;
-591.2371;0;-533.2242;0;6.645876;-19.29584;-562.6542;-562.2764;0.4799475;-0.01138259;0;
-557.0974;0;-527.441;0;3.022852;-18.27171;-530.3549;-528.728;0.4144979;0.3784329;0;
-236.636;0;-227.9988;0;3.823122;-16.17687;-211.9193;-212.4805;-0.1056573;0.3130853;0;
-242.3952;0;-216.9002;0;2.345412;-17.96916;-214.3925;-218.3264;-0.2354858;-0.07703334;0;
51.20094;0;52.61991;0;2.343055;-17.08033;73.86567;69.81075;0.08958753;-0.2068906;0;
633.0445;0;592.3582;0;6.828679;-14.65178;647.2532;642.2029;-0.1703719;-0.2716501;0;
559.2577;0;539.6642;0;8.36206;-14.43611;576.0133;568.5942;-0.43007;-0.0764751;0;
202.5623;0;217.0963;0;9.425384;-9.464986;221.2376;216.637;-0.2997032;0.2484385;0;
201.3592;0;211.256;0;9.951777;-7.781024;218.1417;216.9816;-0.2344347;-0.01168054;0;
-48.40517;0;-16.7168;0;14.76455;-12.05999;-25.45514;-27.73854;-0.1042645;0.1182659;0;
-584.9618;0;-524.3198;0;17.02689;-11.91391;-554.4761;-556.1326;0.02577497;0.2480817;0;
-559.1367;0;-531.8514;0;10.78049;-15.78682;-531.118;-529.8367;0.2206511;-0.2069389;0;
-232.6137;0;-225.4708;0;10.43486;-17.51252;-206.6221;-207.591;0.4153314;-0.3366657;0;
-226.508;0;-199.3822;0;7.61134;-14.74862;-198.1062;-203.9467;0.09007737;-0.2063927;0;
49.95579;0;51.56707;0;5.259167;-15.20268;71.51994;65.87275;-0.2348498;-0.2061853;0;
624.5543;0;583.248;0;10.4788;-13.51296;637.4761;631.3973;-0.1696465;-0.1410108;0;
559.8339;0;540.5581;0;10.53562;-12.96351;576.9282;567.8569;-0.2344434;-0.2708038;0;
196.5162;0;213.6165;0;10.12289;-13.01747;218.0285;211.5902;-0.4291099;-0.6603357;0;
200.5666;0;213.4643;0;10.38016;-12.73646;219.3087;217.6244;-0.03887464;-0.5947049;0;
-39.95161;0;-6.452226;0;10.43708;-11.65193;-15.91851;-18.16335;0.4809031;-0.139336;0;
-585.1999;0;-520.9371;0;11.56567;-10.70247;-552.8201;-554.9378;0.1555832;-0.07422861;0;
-564.1222;0;-527.785;0;5.592199;-14.37565;-534.6485;-534.3902;-0.03947512;-0.2040887;0;
-236.7196;0;-221.3459;0;3.845268;-14.62914;-209.8993;-211.2029;0.4803033;-0.07394896;0;
-224.3004;0;-193.7623;0;9.40111;-15.5522;-194.5085;-199.2466;0.4148533;0.05606003;0;
54.90976;0;59.74259;0;9.993899;-16.67528;79.29942;73.0668;-0.1702696;0.1209711;0;
618.8836;0;580.4208;0;8.778409;-10.36225;634.753;627.3397;-0.2350658;0.05588215;0;
553.4193;0;535.0476;0;8.635866;-8.476441;571.709;563.1788;0.1549744;0.1857607;0;
201.3524;0;216.9196;0;10.16743;-10.94617;222.5598;216.5993;-0.1050507;0.1206067;0;
203.0866;0;213.8906;0;9.755073;-10.33233;221.5866;219.4427;-0.2348798;-0.07441653;0;
-45.36765;0;-16.14631;0;9.545176;-10.38893;-21.82634;-23.84315;0.09019289;0.05559294;0;
-587.2996;0;-527.1232;0;8.999722;-11.78513;-556.1608;-557.4885;0.220037;0.05553707;0;
-562.3467;0;-521.9709;0;4.435351;-6.012877;-534.1128;-533.0652;0.08988117;-0.07445341;0;
-234.8211;0;-216.5372;0;2.622233;-4.667177;-209.3016;-209.6294;0.08979086;-0.2043133;0;
-225.9644;0;-198.0163;0;-1.197819;-14.44175;-197.9094;-201.2979;0.0247333;-0.07417331;0;
51.87307;0;56.55479;0;-3.742211;-16.1688;74.3402;70.51785;0.2196105;-0.07409877;0;
622.3467;0;583.9828;0;-2.934167;-17.55919;636.7952;631.8523;0.4142918;-0.4638284;0;
554.3177;0;535.3577;0;-3.936573;-18.88121;572.1251;564.8133;0.4138756;-0.2684603;0;
192.0675;0;207.9216;0;-3.396754;-17.18766;213.1678;208.7994;0.3484924;0.1216135;0;
200.1204;0;209.8366;0;-3.459714;-16.50056;218.5134;218.2098;0.1532401;0.3163933;0;
-39.02308;0;-9.139298;0;1.432907;-12.73306;-16.2758;-16.704;0.08811883;0.3160754;0;
-589.2698;0;-530.618;0;5.316233;-10.91173;-558.5494;-558.1025;0.412867;-0.009078879;0;
-567.1885;0;-537.1438;0;-3.597717;-5.07337;-538.5604;-535.9277;-0.04231925;0.1208649;0;
-233.7858;0;-224.7608;0;-4.129965;-2.389076;-208.0601;-208.366;-0.6269828;0.2506782;0;
-223.7434;0;-201.609;0;5.653449;-1.582881;-195.4823;-199.9108;-0.2365488;-0.2043451;0;
52.28032;0;52.09118;0;7.590151;-0.643529;74.70345;70.77911;-0.2363111;-0.0742051;0;
619.1303;0;580.2733;0;12.0705;-2.920302;632.5979;628.4901;-0.1061389;0.1857388;0;
559.6628;0;541.5219;0;15.40728;-3.721041;576.6151;569.7628;0.0239024;0.1205849;0;
210.0884;0;227.2605;0;10.97117;-9.611678;230.8967;225.8004;-0.430893;0.185431;0;
205.2546;0;217.2246;0;10.42428;-12.01341;223.2309;222.0753;-0.3654927;-0.07462466;0;
-46.63762;0;-15.81415;0;15.3703;-16.757;-23.8068;-25.1487;0.02467859;-0.2044844;0;
-583.2585;0;-513.7979;0;16.42658;-20.35712;-552.1423;-553.108;0.2845232;-0.1393116;0;
-561.6205;0;-509.8459;0;9.176406;-14.84419;-532.2847;-530.6882;0.2192699;-0.3990409;0;
-241.1545;0;-218.6048;0;7.292151;-14.89625;-214.0346;-214.6886;0.08911492;-0.3336726;0;
-227.419;0;-200.0193;0;8.825066;-15.75206;-197.9525;-202.8537;0.02405804;-0.008500649;0;
49.98272;0;54.36639;0;7.81182;-15.80322;73.48508;68.21396;-0.04093348;-0.07345945;0;
618.7715;0;581.7341;0;9.477934;-13.9788;633.8171;627.1769;0.2839444;-0.138353;0;
558.5547;0;540.1702;0;10.20535;-13.83079;576.2713;567.8262;0.4785611;-0.333116;0;
196.1754;0;211.7923;0;8.320057;-14.08482;217.3099;211.3096;0.3481455;-0.2678139;0;
203.412;0;212.7663;0;7.975928;-12.99907;221.9016;218.7185;0.02295901;-0.00767546;0;
-29.98762;0;-4.400897;0;13.0591;-22.16242;-6.956411;-9.948985;0.08790328;-0.2675371;0;
-583.929;0;-530.507;0;14.58622;-24.41745;-553.1124;-554.5402;0.6075536;-0.3322356;0;
-570.1614;0;-540.5312;0;11.69118;-23.18735;-541.4997;-540.7397;0.3470739;-0.07203244;0;
-233.8823;0;-222.6476;0;11.34464;-25.50833;-207.7481;-209.3627;0.2167904;0.05797463;0;
-223.9022;0;-198.4984;0;13.61042;-13.82791;-195.9826;-200.844;0.4114746;0.05791637;0;
45.31261;0;48.51454;0;14.66847;-8.991366;67.89426;63.03781;0.2161591;-0.007109162;0;
617.4794;0;581.9476;0;9.02765;-20.63712;632.8545;625.6916;0.02103991;0.1228327;0;
562.6987;0;544.5064;0;8.147923;-21.01828;580.8694;571.2775;-0.04394857;0.1876766;0;
211.1223;0;222.4334;0;10.61798;-13.83011;231.6485;225.6894;0.2809323;0.187488;0;
210.3479;0;216.9001;0;10.20517;-13.88319;228.0424;226.1497;0.3456174;-0.1375371;0;
-43.11115;0;-15.826;0;16.02207;-7.104213;-20.49937;-22.45265;-0.239436;-0.3972683;0;
-586.6071;0;-522.9302;0;18.41784;-4.752672;-557.084;-557.9109;-0.3041627;-0.2019671;0;
-564.9658;0;-522.2173;0;16.85909;-10.84322;-538.5958;-537.2979;-0.04398776;-0.2667315;0;
-246.183;0;-232.6504;0;18.51612;-10.63138;-222.4008;-223.2906;0.2808931;-0.4613655;0;
-231.1306;0;-209.9279;0;18.56486;-19.4622;-205.1234;-209.3856;0.6054475;0.05883684;0;
51.58463;0;49.9025;0;19.75166;-24.19831;71.8811;67.81055;0.2150352;0.3186471;0;
618.0605;0;576.4626;0;18.32529;-15.66741;630.7779;626.3991;-0.1749849;0.2533596;0;
561.9674;0;541.3383;0;17.36887;-16.25451;577.7954;570.8598;0.214995;0.1881377;0;
203.9574;0;215.5204;0;24.45136;-20.32401;222.768;217.4635;0.1498116;-0.1368881;0;
202.9404;0;208.3698;0;25.69959;-21.37532;218.921;217.8073;-0.5000123;0.05815147;0;
-36.26842;0;-10.16735;0;24.1999;-21.42082;-14.49427;-15.54442;-0.5644773;0.3179624;0;
-592.1401;0;-533.8939;0;25.18094;-21.33232;-560.6427;-561.7543;-0.04417136;-0.1371285;0;
-579.9884;0;-545.6013;0;19.59593;-24.99482;-550.7715;-549.5706;-0.1090943;-0.4618274;0;
-243.1996;0;-232.1478;0;17.96865;-25.7735;-218.135;-218.4971;-0.4338214;-0.396396;0;
-231.7733;0;-208.3014;0;17.9506;-24.34096;-204.5476;-208.6573;-0.3034508;-0.1361283;0;
42.50929;0;43.7188;0;15.45431;-24.51745;64.89764;60.60457;-0.04327654;-0.006056876;0;
617.1152;0;577.3441;0;20.73007;-20.27302;630.9229;626.0095;-0.1731677;-0.2009528;0;
557.3374;0;537.4713;0;21.37883;-18.10931;573.4425;566.3476;-0.3678958;-0.07081621;0;
204.0172;0;217.7167;0;14.2574;-18.49289;222.8547;218.2657;-0.1076567;0.05918963;0;
206.4983;0;213.8747;0;12.36804;-15.8621;221.6938;221.2948;0.02238612;0.05913015;0;
-45.27021;0;-16.28711;0;13.49469;-16.58297;-25.7797;-24.92894;-0.1725384;0.05907074;0;
-590.0134;0;-521.017;0;12.67684;-14.48984;-561.9843;-559.2603;-0.2373324;-0.0709233;0;
-567.8688;0;-520.8683;0;11.39131;-11.66212;-541.2422;-537.2716;-0.3020612;-0.07085203;0;
-245.2726;0;-229.3037;0;11.91573;-10.37772;-220.6093;-220.1409;-0.3667251;0.05915384;0;
-231.408;0;-207.2093;0;7.684194;-0.1861352;-204.2082;-208.1131;-0.3013892;0.0590944;0;
49.55838;0;51.80629;0;7.006888;3.69894;71.0462;67.02029;-0.3660537;0.1889697;0;
615.8489;0;579.1141;0;11.28675;2.422547;630.3187;625.4847;-0.3007186;0.2537472;0;
557.2592;0;541.8007;0;11.00699;3.893738;575.4626;568.4471;-0.1704817;0.1885249;0;
204.9386;0;222.2292;0;19.36868;2.684133;225.8098;220.488;0.1545263;0.3832375;0;
208.106;0;217.8205;0;21.49267;2.078711;225.9577;224.1395;0.2843057;-0.006951672;0;
-34.10646;0;-6.473251;0;18.18855;0.2680833;-11.89987;-12.96665;0.1540853;-0.3317814;0;
-585.2327;0;-522.4574;0;18.50604;-0.5359813;-555.1149;-555.4309;0.02399582;-0.006611311;0;
-569.1524;0;-528.804;0;11.2528;-4.889211;-541.1888;-540.1302;0.08893905;0.05836267;0;
-235.6853;0;-223.6757;0;8.763246;-6.156974;-211.6229;-212.9392;0.4136864;-0.136598;0;
-226.578;0;-204.5854;0;3.999018;-5.547941;-200.1034;-205.1041;0.4132707;-0.5262648;0;
43.26417;0;44.74489;0;0.9808894;-6.346162;65.08942;60.65602;0.08801875;-0.525736;0;
616.3076;0;576.5576;0;1.649489;0.09045417;630.5522;625.3737;-0.1719391;-0.1354037;0;
554.3442;0;532.8124;0;0.375034;1.095107;571.9478;563.651;-0.1067989;-0.005332947;0;
192.9686;0;205.6288;0;6.201806;5.916656;212.0537;206.7638;0.02324305;0.1895745;0;
200.0835;0;208.1708;0;8.942241;8.522923;215.4638;214.4895;-0.04174765;0.189384;0;
-40.7466;0;-13.67698;0;6.321287;5.299301;-20.25928;-21.6699;-0.1716404;-0.005708368;0;
-583.183;0;-526.343;0;6.113865;7.839205;-554.3455;-555.5048;-0.1065006;0.2541668;0;
-567.1048;0;-540.994;0;16.75764;-5.497909;-539.6081;-538.5798;0.1534758;0.188944;0;
-250.3814;0;-249.8465;0;19.42012;-9.511239;-225.7234;-226.4453;-0.04158044;0.1237868;0;
-236.6366;0;-217.799;0;12.7028;1.014395;-210.1918;-214.0988;0.08839603;0.3185645;0;
44.27262;0;44.22579;0;12.48897;0.2095802;65.00622;61.16552;0.5430786;-0.3314291;0;
614.1917;0;573.5403;0;4.705911;8.916906;627.4082;622.0721;0.2176962;-0.7209001;0;
554.6041;0;532.8591;0;1.017487;12.85982;571.1182;563.2263;0.1525101;-0.3303717;0;
198.4131;0;210.1731;0;2.556706;6.014881;216.7847;211.337;0.7370629;-0.07017034;0;
205.2727;0;211.3363;0;1.013895;7.013582;219.6903;218.246;0.5414203;0.05983485;0;
-35.31271;0;-12.26379;0;0.1422206;4.260234;-16.41189;-17.91717;0.08610491;-0.005192619;0;
-585.5007;0;-532.6149;0;0.2757995;2.58138;-558.6229;-559.9392;-0.0439163;-0.2650568;0;
-573.8554;0;-548.384;0;3.223259;4.856206;-547.9417;-547.8199;0.02109517;-0.06988841;0;
-245.4436;0;-242.8613;0;5.296125;2.975804;-221.1176;-223.1823;0.2809433;0.3199859;0;
-232.7657;0;-211.1956;0;7.769051;6.455927;-206.3402;-211.3389;-0.109143;0.1897297;0;
37.51994;0;38.64116;0;9.636278;7.119269;58.29673;53.42795;-0.3039353;0.1245717;0;
613.8176;0;572.8338;0;16.12431;-0.255885;626.0777;620.0269;-0.04376059;0.1244465;0;
561.5392;0;539.6496;0;19.32328;-1.327355;575.7236;567.6174;0.02125072;-0.2005153;0;
199.5941;0;211.3346;0;16.95934;-3.201421;217.0751;211.226;0.1511641;-0.3302484;0;
205.453;0;213.4961;0;18.34882;-4.269931;221.3548;220.0717;0.2809469;-0.1350146;0;
-33.00863;0;-7.982234;0;14.17818;-2.658172;-11.06346;-11.59562;0.2806645;-0.1348789;0;
-587.9465;0;-534.0223;0;12.75643;-2.655502;-558.5272;-558.9338;0.1504478;-0.1997107;0;
-576.861;0;-544.5427;0;17.09787;1.902006;-551.4067;-550.0014;-0.2395074;-0.3944121;0;
-249.758;0;-241.2102;0;17.884;3.507563;-226.828;-227.0483;-0.4991361;-0.1991138;0;
-236.6385;0;-217.1673;0;14.11596;6.853186;-209.7336;-214.0141;-0.5636019;0.2558577;0;
40.14776;0;40.04675;0;12.9627;9.391529;62.40294;56.68995;-0.4331009;-0.004268762;0;
613.8815;0;573.4883;0;18.37469;4.961341;627.2438;621.4116;-0.04286166;0.06070287;0;
558.3548;0;537.2426;0;18.28985;4.286526;574.0775;566.2521;-0.302688;0.3854786;0;
199.9111;0;212.5531;0;22.08889;6.626622;218.6165;212.2358;-0.4323185;0.06025454;0;
202.8962;0;208.0917;0;24.61229;6.753929;218.1469;216.1455;0.4126913;-0.134708;0;
-39.87329;0;-14.25572;0;12.46377;1.455613;-19.64033;-21.82721;0.5422114;0.190264;0;
-587.3705;0;-527.7958;0;9.905651;-0.4883545;-558.7871;-560.472;0.02192779;-0.004829165;0;
-571.2256;0;-537.5728;0;12.24022;1.320675;-545.1072;-543.667;-0.04306158;-0.329661;0;
-247.0643;0;-236.9334;0;10.68768;0.2476214;-224.4704;-225.0306;-0.172953;0.190409;0;
-232.6982;0;-208.522;0;11.81602;1.118151;-208.3778;-212.8105;-0.1078119;0.3851197;0;
43.89675;0;44.7478;0;10.99986;0.7821125;62.44555;58.14221;0.1521658;-0.135006;0;
616.1899;0;576.4355;0;12.12789;0.513395;626.7866;621.5505;-0.2377911;-0.06990305;0;
559.5364;0;541.1238;0;11.17769;0.579862;573.8081;566.0161;-0.3674869;0.06010187;0;
192.7208;0;204.5615;0;13.30992;-2.033055;210.1016;204.3789;-0.04228091;-0.2647952;0;
196.4627;0;199.5459;0;13.49761;-2.43291;211.0774;208.7962;-0.1721731;-0.1995618;0;
-32.74458;0;-12.6106;0;5.780892;-5.042677;-13.02218;-15.2386;-0.1070328;0.06050807;0;
-584.9966;0;-536.2722;0;3.631629;-6.645201;-557.3605;-558.5127;0.2179115;-0.1344548;0;
-579.0364;0;-548.4145;0;-1.998098;-3.624292;-553.4896;-552.3293;-0.1071442;0.1255497;0;
-245.3721;0;-232.7094;0;-5.680761;-4.357462;-222.537;-223.6893;0.0878655;0.5152276;0;
-229.321;0;-208.1752;0;-2.459872;-2.343718;-203.9476;-209.2841;0.2177119;0.1249059;0;
38.64988;0;37.2232;0;-2.591123;-1.738517;58.75034;53.48169;-0.1723109;-0.2000564;0;
608.762;0;567.4193;0;-5.334209;-5.21976;621.0961;615.6453;0.0877316;-0.06992065;0;
551.4913;0;528.2435;0;-5.52992;-4.946584;567.3737;559.3047;0.3475128;0.2549863;0;
191.8676;0;203.5007;0;0.2354363;-10.70202;210.92;204.7957;-0.1725751;0.2547301;0;
198.3589;0;204.6705;0;2.244932;-13.10253;213.7066;212.2735;-0.237369;0.1895068;0;
-37.40945;0;-12.61349;0;2.175327;-5.788473;-17.14224;-18.76123;0.3475755;0.2542838;0;
-581.6608;0;-517.3471;0;2.776354;-3.974117;-552.6058;-553.5361;0.282259;0.2540282;0;
-572.3307;0;-526.3849;0;4.180084;-6.783407;-545.1166;-543.1098;0.02210597;0.3837077;0;
-256.7265;0;-242.0612;0;3.841091;-5.704864;-231.7886;-231.7828;0.3469205;-0.2663513;0;
-244.1622;0;-222.7026;0;1.761126;-1.211397;-217.7501;-220.5555;0.08670252;-0.6558877;0;
36.81701;0;36.07872;0;0.8887006;1.067239;56.51844;54.02825;-0.368156;-0.07052261;0;
612.1158;0;569.0245;0;-8.221871;2.003928;623.739;619.6271;0.02201798;-0.1354191;0;
557.4655;0;534.5323;0;-12.56787;3.207485;572.7001;566.0936;0.3468326;-0.07031568;0;
194.8373;0;207.9092;0;-9.808572;6.955307;213.2426;208.8291;0.2815167;0.1896244;0;
201.4506;0;208.3874;0;-11.00416;8.287854;216.9638;215.7407;0.1512992;-0.3303049;0;
-27.76172;0;-2.965847;0;-15.28002;6.270161;-7.204126;-8.363546;0.2161145;-0.5898424;0;
-586.0782;0;-521.4523;0;-16.60481;5.79498;-556.7957;-557.5791;0.02099531;-0.459315;0;
-582.4908;0;-535.4835;0;-12.23387;4.181567;-555.4865;-554.1453;-0.04399313;-0.2639515;0;
-244.3252;0;-229.349;0;-11.14985;3.038656;-221.2211;-221.3804;0.6057245;0.3210198;0;
-229.7119;0;-209.1286;0;-10.73748;-0.6483371;-204.3197;-208.7267;0.6700832;0.5155993;0;
39.5087;0;39.20679;0;-9.989756;-2.791139;59.31567;54.78814;-0.1101982;-0.004657554;0;
618.2406;0;577.5842;0;-7.031981;-1.31471;629.8442;624.9465;-0.3699569;-0.004652874;0;
561.2727;0;540.9595;0;-5.552023;-1.447355;577.3624;568.9089;0.02021894;-0.1345829;0;
198.141;0;211.5813;0;-7.421478;-3.254318;217.0257;210.642;0.1501333;-0.4592843;0;
204.2512;0;211.2437;0;-5.806431;-3.184065;219.3063;217.8017;-0.4996909;-0.1989535;0;
-36.3332;0;-11.04442;0;-12.23096;-0.9035681;-15.85844;-17.549;-0.4342215;-0.2637209;0;
-586.1453;0;-526.899;0;-13.29039;-0.2998139;-557.8826;-558.7593;0.1509209;-0.3284233;0;
-575.3115;0;-535.8648;0;-8.18585;2.446666;-549.5134;-548.6402;-0.1740675;0.1266781;0;
-251.9582;0;-237.2262;0;-7.97753;3.6499;-228.9346;-230.4985;-0.3687946;-0.06835121;0;
-234.9634;0;-210.4387;0;1.743377;4.784942;-209.964;-213.8377;-0.173522;0.06165215;0;
42.13351;0;45.08192;0;5.961184;6.387725;61.5481;57.92818;0.02155435;0.3864269;0;
610.6179;0;572.8338;0;3.142155;0.2189986;621.8296;616.6516;0.4113367;-0.06873276;0;
553.6577;0;534.5897;0;4.88031;-1.857692;567.9191;561.3095;0.5408581;-0.3285331;0;
196.6555;0;209.903;0;5.544991;2.096167;213.5263;209.2347;-0.1093588;0.0616011;0;
204.0166;0;211.8784;0;5.740491;1.1563;217.3722;216.5831;-0.2391836;0.3863759;0;
-27.94687;0;-1.352385;0;4.662996;0.7532406;-9.232451;-9.70835;0.3457628;0.1261183;0;
-581.5155;0;-523.7759;0;3.31914;0.6855008;-554.1992;-554.1749;0.5403175;-0.003943097;0;
-580.2441;0;-545.1761;0;4.119112;-3.401025;-555.5789;-553.3682;0.2149378;-0.06890648;0;
-250.2016;0;-241.5931;0;3.646458;-4.067437;-229.5592;-229.4122;-0.1101149;-0.4586413;0;
-239.0182;0;-221.7352;0;-2.251704;-6.206804;-216.4601;-220.9359;-0.1749716;-0.4581804;0;
26.40115;0;23.05212;0;-4.795036;-7.540226;44.0641;39.46785;-0.2397631;-0.1328834;0;
608.7069;0;565.069;0;-2.110901;-2.040171;619.4181;614.764;-0.04462014;0.2570542;0;
559.5572;0;534.3914;0;-3.045809;-0.4305305;574.0682;567.2949;0.1503267;0.0618939;0;
195.865;0;205.9567;0;-2.506885;-1.16691;212.9226;208.2175;-0.3695631;-0.457907;0;
203.1019;0;208.4984;0;-1.432639;0.240904;216.894;215.567;-0.4341591;-0.2625449;0;
-32.10904;0;-11.47565;0;-6.053876;1.647303;-13.83302;-15.28367;-0.2388208;-0.1973137;0;
-577.8025;0;-521.7701;0;-6.114166;2.784236;-551.6738;-552.4358;-0.2385808;-0.3270501;0;
-569.3508;0;-528.1174;0;-4.232988;4.65696;-545.1224;-543.385;0.08649561;-0.2617542;0;
-257.4977;0;-241.9803;0;-4.161386;5.790991;-236.3546;-236.368;0.2163434;-0.2614912;0;
-242.6838;0;-219.6857;0;2.474227;4.57948;-218.501;-223.3245;-0.04374337;-0.1312938;0;
42.60427;0;42.09104;0;4.748917;4.039015;62.38997;56.69678;-0.1736341;-0.001227149;0;
615.1486;0;572.782;0;3.873489;6.580307;626.2938;620.7938;-0.1734596;-0.06619326;0;
561.5572;0;539.1605;0;4.941324;7.109559;574.94;567.6964;-0.04335065;0.06380793;0;
204.3597;0;214.5942;0;3.797283;3.619303;219.9779;215.1778;0.02166025;0.1287112;0;
206.1533;0;208.569;0;3.458675;3.414717;218.2576;218.0226;-0.1082962;0.0636145;0;
-27.68637;0;-4.845936;0;1.445468;0.3971764;-9.90959;-9.894542;-0.2381221;0.3883873;0;
-577.757;0;-518.7703;0;0.4396373;-1.14383;-550.5654;-550.3005;-0.1729155;0.5179317;0;
-575.4274;0;-540.3629;0;-1.704258;3.077122;-550.387;-547.7485;-0.04280703;0.1925746;0;
-247.3888;0;-238.0966;0;-3.242787;2.739115;-226.5589;-225.4224;-0.04276402;-0.06748828;0;
-235.2087;0;-213.9943;0;-2.03408;6.353441;-212.1509;-216.0755;-0.2376231;0.1274816;0;
28.77005;0;28.09912;0;-2.836319;8.222458;47.55682;42.44931;-0.367319;0.2572882;0;
610.3863;0;569.1115;0;-2.096535;1.985027;621.0333;615.6185;-0.6917866;0.127095;0;
568.5437;0;546.863;0;-2.897736;0.7103566;581.3663;574.2704;-0.7560589;-0.1329021;0;
200.5946;0;213.6682;0;-1.153512;2.986941;216.153;211.9377;-0.3005278;-0.1977359;0;
200.0807;0;207.0192;0;-0.8849092;2.983939;212.9998;211.9747;0.02461092;-0.3274719;0;
-30.50457;0;-5.894359;0;-6.041584;-2.243606;-12.66343;-14.3122;-0.04038115;-0.3271429;0;
-584.7578;0;-527.4388;0;-7.173613;-4.3177;-558.4388;-558.6492;-0.1053079;0.1279572;0;
-581.4841;0;-547.461;0;-11.18587;0.3083385;-556.316;-553.9649;-0.04023476;0.2577634;0;
-254.5638;0;-243.251;0;-13.45181;0.6429433;-231.7324;-232.1323;0.3496097;0.192537;0;
-237.8788;0;-214.9582;0;-13.70573;-0.4294296;-213.9459;-217.9061;0.7390624;0.1923435;0;
36.84723;0;37.19366;0;-16.3049;0.508763;55.07147;51.4276;0.08864644;0.06221557;0;
608.6478;0;569.0764;0;-8.518014;-2.572963;620.7943;616.4669;-0.04137731;0.1920878;0;
559.8104;0;539.3318;0;-6.43335;-3.708966;575.318;568.3713;0.2185336;0.06196005;0;
201.3029;0;215.2025;0;-13.19204;1.452325;219.5435;214.103;-0.17149;-0.1330042;0;
201.7878;0;209.614;0;-12.3745;2.321522;217.074;215.6994;0.2184864;0.06203143;0;
-31.86017;0;-6.862954;0;-16.04674;-0.09207454;-12.77869;-13.58964;0.8029729;0.0619691;0;
-582.3015;0;-526.5948;0;-16.90127;-0.2259479;-555.8679;-555.9283;0.21746;0.1268742;0;
-575.1572;0;-540.246;0;-10.58765;0.3771255;-550.6866;-549.0604;-0.1075952;-0.06815533;0;
-246.869;0;-231.6705;0;-8.835698;1.247525;-225.5465;-225.1088;0.02244758;0.06184783;0;
-236.5635;0;-211.6352;0;-9.228961;-2.839688;-212.7012;-215.2;0.217327;0.3216551;0;
31.47713;0;32.9546;0;-10.02299;-3.439559;50.50536;46.44735;0.2171087;-0.003504853;0;
609.7798;0;569.027;0;2.378309;-1.359754;620.2932;614.74;-0.1729135;0.256368;0;
562.628;0;538.3454;0;6.260685;-2.229166;576.0043;569.1449;-0.4326091;0.1261758;0;
198.6203;0;208.47;0;-5.668324;5.409007;214.5445;210.2531;-0.3672071;-0.2637551;0;
201.6067;0;206.3865;0;-6.465936;7.613886;213.0171;212.3532;-0.1069688;-0.1335554;0;
-29.16752;0;-9.087712;0;-12.22021;4.793075;-13.958;-13.99648;0.2179754;-0.1983885;0;
-584.4216;0;-538.7498;0;-15.62419;6.663781;-560.8566;-559.4583;0.2827237;-0.06825449;0;
-578.9618;0;-555.2625;0;-12.25861;-1.648677;-556.42;-553.6487;0.152505;-0.06818591;0;
-246.0471;0;-238.2386;0;-13.11695;-4.125267;-226.0267;-226.569;0.1523517;-0.1330847;0;
-234.8054;0;-213.574;0;-10.69287;1.505323;-212.6811;-217.5333;0.0872313;-0.003016332;0;
30.54725;0;28.0193;0;-9.677749;0.4990663;47.52687;42.49217;0.2820457;-0.06798064;0;
603.3536;0;558.537;0;-6.519216;5.522163;612.8824;607.4155;0.3467296;-0.3277817;0;
556.5206;0;531.0518;0;-4.436561;7.927877;569.7255;562.2651;-0.3682595;-0.3274523;0;
201.702;0;211.8658;0;-3.963588;-0.7876256;217.2674;212.1258;-0.4328569;-0.002286612;0;
201.7492;0;207.0303;0;-2.753181;-2.796322;214.8002;213.6618;0.1522842;0.1276504;0;
-33.64781;0;-9.693901;0;-1.612315;3.23483;-15.36254;-16.5623;0.2820658;0.06255476;0;
-580.8389;0;-529.5479;0;-0.003104318;3.365545;-555.0134;-555.2748;-0.1080216;-0.002475433;0;
-577.007;0;-553.1911;0;-6.031321;-0.3887589;-552.3317;-549.8444;-0.2378478;-0.06744029;0;
-252.3401;0;-246.9764;0;-7.298059;-1.192163;-230.6881;-230.827;0.2821299;-0.1323399;0;
-239.0306;0;-219.1171;0;-1.73102;-4.138093;-215.5888;-220.4126;0.4117811;0.06269514;0;
30.51174;0;27.85403;0;0.07938052;-6.009457;49.86948;45.0505;0.02156333;-0.002335202;0;
609.3151;0;566.8051;0;1.217401;-4.395828;620.0952;614.9688;0.1514763;-0.3271696;0;
564.2252;0;539.6865;0;4.56508;-4.860291;577.4932;569.9981;0.2162915;0.06296322;0;
194.7812;0;203.188;0;2.685459;-6.864896;211.1593;206.1705;-0.2386972;0.3227693;0;
193.3361;0;195.675;0;2.615412;-7.460845;205.8247;205.0887;-0.2384574;0.06257564;0;
-24.74861;0;-2.921853;0;18.95711;-5.577826;-7.025197;-7.635509;-0.04331577;-0.06742192;0;
-574.8847;0;-521.9705;0;23.69348;-4.500494;-547.6839;-547.8563;0.1516298;-0.002386831;0;
-578.3051;0;-549.1196;0;18.17732;-5.36675;-553.5678;-551.3663;0.2164448;-0.06735177;0;
-247.0777;0;-236.5372;0;18.49384;-3.485835;-225.7386;-225.2884;-0.04364209;0.06265058;0;
-238.8334;0;-215.56;0;18.54164;-5.558804;-214.8921;-217.7532;0.08633645;0.2574897;0;
27.77267;0;27.72196;0;18.72408;-5.620201;46.50503;43.83425;0.02128235;-0.06760578;0;
611.9511;0;571.4833;0;5.242302;4.700573;622.5437;618.6263;-0.1736411;-0.4573419;0;
565.1719;0;542.4233;0;-0.6574634;7.70996;578.1902;570.9658;-0.2384339;-0.06707831;0;
201.0368;0;211.6068;0;8.72032;9.644718;216.4158;211.0102;-0.2381943;0.06292377;0;
201.0847;0;205.9594;0;8.645185;12.98405;213.3872;212.4849;0.3467511;0.06286055;0;
-29.62652;0;-5.516311;0;1.401853;9.019135;-12.40131;-12.05338;0.801174;0.1927321;0;
-577.3839;0;-513.6304;0;-0.4745895;9.746884;-550.9931;-550.2708;0.4755323;0.06260373;0;
-572.6183;0;-527.4821;0;7.76491;10.8758;-548.0032;-545.8447;-0.1096516;0.1924755;0;
-252.1413;0;-235.0363;0;9.833213;11.66867;-230.8617;-230.2047;-0.3694108;0.4521515;0;
-250.6386;0;-224.8051;0;6.20601;11.12108;-226.7567;-229.1613;0.08573181;-0.06804159;0;
24.41265;0;25.91986;0;6.735638;10.70801;42.46096;39.68398;0.02067832;-0.4577773;0;
616.2781;0;573.556;0;6.527799;17.73021;626.5622;622.1013;-0.4341139;0.1923561;0;
574.4921;0;549.4915;0;6.052725;19.52094;588.6389;581.4338;-0.303743;0.5169995;0;
208.9733;0;217.9183;0;6.448785;20.10417;225.5421;220.9056;0.08636629;-0.068226;0;
201.7668;0;204.8932;0;6.241234;21.55759;215.0706;213.8745;0.2811815;-0.3280268;0;
-28.69521;0;-6.831305;0;5.6991;17.04819;-11.21935;-11.85203;-0.04393771;-0.2627299;0;
-580.9513;0;-519.9415;0;6.296586;15.15554;-555.4345;-554.9421;-0.1088609;-0.3274332;0;
-583.7408;0;-541.2206;0;1.467488;17.4846;-559.1868;-557.0707;0.2810525;-0.1971695;0;
-244.1997;0;-232.7066;0;-0.2089263;16.79732;-223.1685;-223.3034;0.4107048;-0.1320041;0;
-228.587;0;-210.1715;0;6.221645;9.680372;-206.0777;-210.0231;0.2803575;0.2579326;0;
30.0128;0;27.23297;0;6.282743;6.656536;46.93976;43.06083;0.1501411;0.9073469;0;
607.6298;0;564.4355;0;9.557983;7.319554;616.6687;612.5438;0.2799249;0.7115331;0;
560.9174;0;537.6316;0;11.15597;5.4368;573.6954;566.9509;-0.04519309;0.06114476;0;
197.5362;0;207.5695;0;5.853475;4.962456;213.7995;208.5611;-0.1750824;-0.198786;0;
200.0863;0;203.5504;0;5.5128;4.086692;214.3343;212.287;-0.04497176;0.1262504;0;
-27.87526;0;-6.173841;0;0.6844899;3.747671;-8.644079;-10.00213;-0.3697633;0.3210256;0;
-575.0722;0;-517.7855;0;-1.794444;3.676922;-548.4266;-547.7218;0.02041231;0.125801;0;
-570.8712;0;-532.1328;0;1.757332;2.534518;-546.0015;-543.4233;0.4751632;-0.06922745;0;
-245.9606;0;-232.3734;0;1.688217;2.665937;-224.1768;-224.3499;-0.1100203;-0.1341252;0;
-235.4686;0;-213.3994;0;-0.8590744;2.194378;-212.2699;-214.9416;-0.1099098;-0.06902312;0;
36.88123;0;34.62799;0;-1.728867;2.59407;54.43441;52.39013;0.15007;0.06098092;0;
612.3049;0;566.5758;0;3.832575;2.72543;621.657;618.2405;-0.04498279;0.320789;0;
568.149;0;540.207;0;5.101522;2.789674;579.9281;573.7039;0.02002975;0.6453034;0;
211.2573;0;218.0758;0;3.086664;7.60952;226.1479;222.1788;0.2149117;0.3847856;0;
203.5488;0;205.238;0;3.150911;9.678345;215.8632;215.9586;-0.305043;-0.005405065;0;
-28.16438;0;-8.111061;0;0.535777;7.525167;-11.55197;-11.26928;-0.3697039;0.05956771;0;
-576.2356;0;-520.283;0;-1.541842;8.120451;-551.7064;-550.6743;0.280341;0.05950785;0;
-576.3438;0;-540.937;0;1.206373;8.648155;-553.3384;-550.4333;-0.3046467;-0.005519282;0;
-245.9304;0;-237.1709;0;1.807397;8.170585;-225.5719;-224.7937;-0.6291773;-0.1354484;0;
-240.5609;0;-221.4404;0;-7.437819;10.30583;-217.4742;-220.195;0.2160303;-0.2002797;0;
15.6147;0;14.28874;0;-8.836865;10.69737;33.43084;29.90066;-0.04405612;-0.2000784;0;
598.8683;0;555.8771;0;-8.224773;6.600786;607.4837;602.7701;-0.4987832;-0.2648447;0;
564.9083;0;539.9513;0;-9.154514;5.321477;575.7639;568.8687;-0.30338;0.1252255;0;
201.8979;0;210.5741;0;1.169812;4.914233;216.2408;211.1017;0.02176151;0.3200017;0;
199.1338;0;201.1171;0;5.053402;3.502653;210.9636;208.953;0.281609;0.05981074;0;
-29.63887;0;-7.792554;0;2.838498;3.030253;-13.38574;-14.76959;0.2163587;-0.2650861;0;
-582.6436;0;-527.3361;0;3.773651;1.620689;-558.6607;-558.6064;0.02123928;-0.1998524;0;
-580.1841;0;-549.2324;0;11.53939;2.489717;-558.849;-555.8587;-0.3036188;-0.00474953;0;
-250.3916;0;-243.7088;0;13.47018;2.353249;-232.5762;-230.6508;-0.4332484;-0.3295815;0;
-241.5818;0;-223.474;0;11.04477;-0.4622765;-220.8482;-222.7979;-0.432813;-0.1993156;0;
24.09001;0;21.25263;0;13.0434;-0.3948291;41.05463;38.10742;-0.2374761;0.1257214;0;
599.9014;0;557.3993;0;-2.241322;-3.944406;608.5406;605.0341;-0.1073028;-0.1992417;0;
559.6935;0;534.6003;0;-7.262911;-5.012169;570.1981;564.7587;-0.1721624;-0.004139446;0;
210.0566;0;217.5973;0;0.983409;0.5523283;223.4242;219.7393;0.02291266;0.1257994;0;
204.2858;0;207.3837;0;-1.161033;2.494156;214.6415;214.7709;0.3477263;-0.1991637;0;
-35.04928;0;-11.58976;0;5.872732;3.295445;-18.95687;-18.14044;0.02254025;-0.004061569;0;
-578.1785;0;-514.4503;0;7.876563;5.435588;-553.4191;-551.6665;-0.3023191;-0.2639269;0;
-575.2863;0;-527.8015;0;4.386024;8.243287;-553.1754;-549.4255;-0.1720807;-0.1986943;0;
-248.9344;0;-233.2939;0;6.05558;10.24449;-230.0317;-227.9723;0.4777657;0.2562767;0;
-239.5014;0;-219.7537;0;-0.8493807;13.18133;-219.056;-220.247;0.6072202;-0.2637195;0;
15.2363;0;13.91231;0;-2.121325;14.90964;29.53926;28.4744;0.08687142;-0.2634545;0;
600.3019;0;555.626;0;0.2926801;13.82293;605.5325;603.4692;-0.04315055;0.1266143;0;
571.2755;0;542.9489;0;0.09131521;13.40714;578.9996;573.815;0.1517948;-0.003447668;0;
203.0738;0;210.5076;0;4.913995;15.53712;214.7881;211.6077;-0.1082271;0.2564252;0;
199.6214;0;202.9248;0;7.453676;16.05738;209.4499;210.583;-0.238053;0.1912002;0;
-25.90347;0;-3.86278;0;2.959184;9.008156;-10.89992;-9.518093;-0.1728465;-0.3287307;0;
-581.0983;0;-520.2244;0;0.6116864;7.056599;-558.5512;-556.8584;-0.3026075;-0.3284004;0;
-578.6404;0;-536.3807;0;15.68162;7.853304;-559.5517;-555.8616;-0.1074014;0.06173365;0;
-245.6636;0;-234.056;0;17.80932;6.505876;-229.53;-228.0925;0.02264122;0.2565736;0;
-236.0464;0;-217.5165;0;12.03065;8.37474;-216.6183;-219.0553;-0.1073162;-0.003553528;0;
28.05811;0;24.45555;0;14.56415;8.098392;42.53173;40.72187;-0.3021104;-0.1334846;0;
604.1154;0;559.0372;0;-10.76978;11.37242;611.0782;608.3956;-0.3667742;0.1914862;0;
563.0287;0;537.3611;0;-19.86767;12.96846;573.3578;567.8044;-0.3664056;0.1263265;0;
209.0781;0;218.1064;0;-4.241289;9.003558;223.145;219.9084;-0.2361028;-0.06870251;0;
205.4322;0;210.6409;0;-6.848996;8.860546;217.4235;217.626;-0.1059309;0.2562032;0;
-34.15387;0;-9.835038;0;0.3915548;8.11483;-17.42702;-17.22474;-0.0408571;0.3858805;0;
-578.8458;0;-516.0707;0;5.146584;6.566191;-553.64;-552.3759;-0.1057834;0.2555581;0;
-567.5195;0;-521.1118;0;-11.33566;10.3775;-543.8383;-540.8264;-0.1056771;0.1253666;0;
-243.8617;0;-230.1717;0;-14.13731;10.96992;-223.3902;-222.6302;0.1542985;-0.2645634;0;
-238.2443;0;-221.2573;0;-0.4590707;6.805953;-215.4196;-218.4709;0.1541434;-0.06939557;0;
21.61455;0;18.3447;0;2.220708;6.598288;38.73172;34.68393;-0.3007829;0.1905435;0;
596.8037;0;552.2454;0;-2.604295;4.984067;605.1581;600.6771;0.02435608;-0.004549958;0;
562.8458;0;536.5731;0;-1.32888;4.443196;573.8779;567.7148;0.284201;-0.004545386;0;
199.65;0;208.5735;0;-3.805791;6.448219;213.6696;209.0743;-0.0409213;-0.004540819;0;
193.5149;0;196.9947;0;-5.074765;6.642567;205.1465;203.8043;-0.3657169;-0.1344709;0;
-25.56952;0;-5.851401;0;4.374805;10.11901;-8.952088;-9.855714;-0.1054801;-0.1993032;0;
-577.9537;0;-527.5833;0;6.982378;11.31453;-552.9821;-553.1353;0.674234;-0.5889069;0;
-585.1815;0;-552.7277;0;3.425389;12.97761;-562.9212;-560.7628;0.4136872;-0.5883152;0;
-247.6379;0;-236.0188;0;5.230608;14.77311;-229.5229;-228.5536;-0.1064672;-0.003018;0;
-239.518;0;-218.9151;0;0.2015104;10.33752;-217.7356;-220.2655;-0.04139289;0.1918871;0;
13.97036;0;13.0009;0;-1.942146;9.6573;32.54501;29.33051;-0.3012207;-0.2630771;0;
598.9123;0;556.7145;0;8.709725;10.38441;609.035;605.0117;-0.1709833;-0.3277802;0;
564.0153;0;539.0388;0;10.57698;9.637161;575.752;569.5463;0.1540252;0.192288;0;
205.8783;0;215.0347;0;4.872929;11.16809;220.2269;215.7765;0.08890309;0.3869968;0;
202.2356;0;206.4478;0;3.662584;12.02752;214.4459;212.6861;0.02384642;0.3216406;0;
-30.47573;0;-6.777518;0;5.332867;7.795632;-13.40516;-14.78833;-0.3659816;0.1264154;0;
-571.6106;0;-509.7054;0;4.255782;6.515123;-546.8735;-546.3188;-0.3006465;0.1262883;0;
-569.2247;0;-527.3091;0;3.649269;12.6039;-546.324;-543.5834;0.154427;0.3860308;0;
-247.8764;0;-236.3628;0;5.118495;13.26107;-227.685;-227.3209;0.2842065;0.1907409;0;
-237.1951;0;-216.5726;0;-11.16265;13.85059;-214.2753;-217.5348;0.5437903;-0.004352795;0;
22.97508;0;23.52443;0;-17.11328;14.64047;41.56149;38.05538;0.2184072;0.1255863;0;
596.2263;0;553.9217;0;-2.225627;12.01342;606.6732;602.4834;-0.1716163;-0.1344093;0;
560.8322;0;536.0613;0;-3.295117;12.13532;573.2051;566.7707;-0.1064766;-0.4591109;0;
199.2627;0;208.6245;0;6.219038;7.367455;214.5591;209.5679;-0.04140222;-0.1338129;0;
193.94;0;198.8571;0;12.5758;5.685602;205.7229;204.4848;0.2834761;0.515995;0;
-28.20578;0;-7.11424;0;-10.81278;7.287357;-12.93655;-13.42371;0.2831912;0.5154765;0;
-579.088;0;-532.2181;0;-14.55296;5.873515;-555.4009;-555.1379;0.08800467;0.06018713;0;
-578.5062;0;-550.8612;0;-9.649193;10.82423;-556.5919;-554.83;-0.1069858;-0.1347754;0;
-240.2196;0;-228.4695;0;-14.72971;11.55004;-221.4508;-222.6892;-0.431715;0.1901968;0;
-234.7309;0;-212.5603;0;1.092573;12.00732;-212.8575;-217.2805;0.08845753;0.3199404;0;
14.50482;0;14.66417;0;4.842519;14.33965;31.3587;27.68978;0.2183033;0.1896842;0;
596.0104;0;555.2527;0;-12.24263;6.82328;604.5391;599.8743;-0.6264915;0.05955889;0;
567.1758;0;543.2006;0;-13.43578;6.414526;579.194;571.0983;-0.820764;-0.135403;0;
205.8497;0;217.6931;0;-19.04835;6.073288;221.1043;214.5783;0.02463616;-0.2002343;0;
200.1456;0;205.293;0;-23.11505;3.856749;213.3234;210.3647;0.4144154;0.0598363;0;
-27.06638;0;-6.744331;0;-14.38429;15.03878;-8.52953;-11.985;0.2840644;0.05977618;0;
-574.3266;0;-513.3579;0;-13.96867;16.56415;-548.6245;-550.7646;0.4137136;0.1896508;0;
-574.2493;0;-527.2098;0;-10.80583;16.88243;-551.509;-550.7734;0.08846121;-0.005441792;0;
-245.6496;0;-230.7664;0;-6.910201;19.14288;-226.4929;-227.5697;-0.04156236;-0.2003383;0;
-229.4108;0;-212.9183;0;-15.276;9.947228;-208.2119;-213.0982;0.08841409;0.189667;0;
30.18931;0;25.42591;0;-16.80089;8.664557;45.99463;41.17572;0.02335791;0.1894764;0;
598.4359;0;554.6343;0;-4.526502;5.172861;607.4162;601.9774;0.08830178;-0.200518;0;
561.4153;0;536.211;0;-2.64692;2.086448;574.3846;566.3901;0.1531804;-0.1353492;0;
202.2814;0;212.2098;0;-3.112775;7.509848;217.9864;212.3737;0.08805913;-0.2651479;0;
198.2676;0;202.8762;0;-0.2966077;7.033421;211.3955;210.0364;0.08797065;-0.3298488;0;
-22.07096;0;-1.287649;0;-9.071196;10.3755;-4.271084;-5.566402;-0.1070198;-0.1995827;0;
-573.3967;0;-513.8412;0;-8.727288;12.57539;-547.931;-548.2255;0.08798979;-0.06944745;0;
-579.6296;0;-537.6252;0;-9.521827;11.02227;-556.251;-555.046;0.4777054;-0.2642797;0;
-239.6553;0;-229.3022;0;-9.645981;14.22625;-220.1107;-221.6556;0.6721275;-0.3289815;0;
-229.0447;0;-211.0808;0;-0.05809497;7.982667;-206.8961;-211.4379;0.4115827;-0.003814218;0;
19.99792;0;17.82881;0;1.950719;7.639731;37.68894;32.71447;-0.1735369;-0.1987124;0;
605.1837;0;559.5386;0;15.74749;16.80847;613.9239;608.0799;-0.3682646;-0.2634801;0;
573.0914;0;543.734;0;22.29575;17.79633;584.1342;576.422;-0.1729925;0.06162137;0;
204.8254;0;211.3545;0;16.78099;27.69168;219.6052;213.7123;-0.5626227;-0.06837523;0;
205.6191;0;207.5814;0;19.17502;31.81667;217.3855;215.1218;-0.4321227;-0.2632085;0;
-14.53948;0;4.037525;0;14.80248;23.88096;1.213152;-1.173282;0.2179849;-0.4578461;0;
-569.371;0;-508.2715;0;13.11266;22.45032;-545.0135;-546.2731;-0.0421035;-0.3924187;0;
-574.1087;0;-525.5643;0;10.95603;25.64294;-551.15;-550.1595;-0.04206119;0.1277143;0;
-241.3863;0;-225.7492;0;6.859189;25.81813;-221.1368;-222.7085;0.2828178;-0.06731603;0;
-230.0868;0;-210.7798;0;11.67507;12.39584;-207.7962;-212.2399;0.347501;-0.1322157;0;
25.89084;0;25.37591;0;10.79268;8.29755;43.28648;38.78482;0.2821844;-0.1320829;0;
597.0777;0;555.0217;0;6.695999;7.686366;606.7722;601.2131;-0.04293581;-0.3268522;0;
563.6193;0;537.5975;0;7.024063;2.989959;575.1157;568.0004;-0.3677294;-0.2615564;0;
218.1638;0;225.339;0;-1.28839;16.04838;231.5851;226.0388;-0.04252318;-0.3912283;0;
212.8222;0;215.6798;0;-3.90004;18.97939;223.1691;221.0016;0.02248689;-0.2609005;0;
-23.96026;0;-1.365438;0;1.797306;11.6593;-8.563807;-10.1669;-0.3673398;-0.1307037;0;
-572.473;0;-512.2323;0;0.3226076;13.12121;-548.2839;-549.1357;-0.04213394;-0.06560499;0;
-580.8307;0;-541.5151;0;11.307;7.749509;-558.4776;-556.8298;0.4126798;0.129363;0;
-250.288;0;-241.8089;0;15.78361;5.263475;-230.8308;-230.8714;0.2173631;-0.1956037;0;
-233.1075;0;-215.1417;0;5.050485;12.82701;-210.5465;-214.4601;-0.2376267;-0.1954072;0;
14.50238;0;12.77255;0;6.250859;12.54619;32.16819;27.69633;-0.3673226;-0.1952109;0;
595.7581;0;550.5519;0;-0.721647;14.00721;605.5976;600.3182;-0.3669535;-0.3249494;0;
572.3585;0;543.9392;0;-4.73941;16.06949;585.1241;577.4761;-0.1716828;-0.1946882;0;
204.2181;0;211.5595;0;10.13483;4.867556;218.5951;213.8284;-0.04157559;-0.3893946;0;
202.0764;0;203.4759;0;12.2681;2.92016;212.6283;212.2392;-0.1065012;-0.1941013;0;
-14.58035;0;3.87164;0;8.705801;4.859731;0.3337928;-0.3672889;0.08850788;-0.06397159;0;
-573.2849;0;-515.2463;0;10.10357;3.180274;-550.1398;-550.2155;0.1533863;-0.388744;0;
-584.8902;0;-545.9629;0;8.955321;9.942233;-562.9553;-560.6572;0.08826482;-0.2584187;0;
-250.0955;0;-241.3796;0;10.35284;11.2048;-230.6814;-230.6344;0.08817613;0.326547;0;
-235.1641;0;-216.2121;0;4.850083;11.19354;-213.3332;-217.3467;0.02312019;0.3911863;0;
17.82018;0;16.8256;0;2.701756;12.25402;34.25678;30.18485;-0.2367724;0.06595647;0;
593.5129;0;549.1661;0;11.67402;11.63886;601.4373;596.9321;-0.1715672;0.06589019;0;
569.116;0;540.4309;0;11.86336;12.63191;580.9055;573.6563;0.02350726;-0.1940454;0;
216.0963;0;222.1726;0;16.071;6.52389;232.1842;226.629;-0.2363857;-0.3887524;0;
206.6338;0;209.0808;0;19.06994;5.043832;218.7076;217.2808;-0.04124618;-0.0635251;0;
-23.7706;0;-3.335105;0;9.204165;6.110369;-8.02331;-9.011359;0.02376261;0.2613755;0;
-570.0971;0;-509.14;0;8.190538;4.965641;-546.1198;-545.8574;-0.3660653;0.3910475;0;
-577.9575;0;-532.3665;0;5.30192;8.108727;-556.3156;-553.5548;-0.1707955;0.3906546;0;
-253.8519;0;-241.7274;0;1.210756;7.966614;-235.4801;-235.3458;-0.04068917;0.06542532;0;
-237.2301;0;-221.1197;0;12.39532;11.8435;-216.8777;-220.4917;-0.365485;-0.1295424;0;
18.37995;0;14.73401;0;14.2579;13.30522;33.21458;29.29195;-0.2351831;-0.1294123;0;
600.5688;0;554.5104;0;4.263241;9.741879;606.8304;601.7248;-0.1050121;0.1955545;0;
574.0409;0;544.5829;0;2.919787;10.13399;582.6075;575.3831;0.02502813;0.06542329;0;
197.9653;0;205.0186;0;5.528821;3.5596;209.5843;203.9913;0.1549377;-0.3244465;0;
194.4556;0;196.7542;0;6.126478;0.4079473;204.1888;202.1622;0.154782;-0.06425112;0;
-12.8232;0;6.589453;0;3.038863;4.694323;2.772264;1.372372;-0.04027557;-0.1291539;0;
-568.8433;0;-515.842;0;3.169532;3.41693;-545.33;-546.1038;0.1546669;-0.3239262;0;
-583.5765;0;-558.4896;0;4.238074;5.289019;-562.3358;-561.7969;0.5443156;0.2611054;0;
-246.9716;0;-250.0206;0;3.028367;6.757207;-227.9385;-229.774;0.2189319;0.1309084;0;
-229.607;0;-215.1618;0;14.34483;-0.6844439;-207.9069;-213.1764;0.1537446;-0.3889619;0;
21.93487;0;18.49953;0;17.00973;-1.554534;38.05345;32.72682;0.4784268;0.06620031;0;
598.0607;0;553.2122;0;13.44267;0.3225498;606.2296;600.5959;0.1531094;0.2610358;0;
570.161;0;542.7863;0;15.50624;-0.6155353;581.3826;573.7557;-0.1069138;0.1308389;0;
212.6425;0;218.9659;0;4.304877;5.815201;225.9144;220.6689;-0.2367411;0.0007726902;0;
206.8692;0;209.7504;0;1.687607;7.416948;217.5664;216.0119;-0.1065685;0.06573925;0;
-19.84984;0;1.8315;0;2.490195;6.069837;-2.978934;-4.594409;0.34831;0.3255426;0;
-563.8065;0;-507.227;0;-0.3253465;7.403396;-540.0185;-539.5084;0.4778947;0.2602481;0;
-570.174;0;-529.8931;0;7.10972;2.506325;-549.0961;-546.525;0.1525778;0.2599866;0;
-246.8258;0;-231.8228;0;7.437368;1.164148;-227.5182;-228.0107;0.08745711;0.06482336;0;
-231.5853;0;-211.2251;0;10.17559;2.971518;-210.6729;-214.0385;0.08736923;-0.5199478;0;
20.14596;0;18.80915;0;11.97402;2.097754;35.66505;33.05248;0.0223141;-0.3245234;0;
596.5859;0;553.0842;0;5.800049;3.167373;604.968;601.4835;-0.107643;0.1955415;0;
571.8736;0;544.9697;0;4.655145;3.566088;583.1208;576.7038;-0.2374695;0.06541027;0;
205.6078;0;213.526;0;0.8994236;2.490778;219.7798;214.9934;-0.2372309;-0.3894269;0;
205.4012;0;205.5653;0;-1.914519;3.225087;215.7483;215.1521;0.1528115;-0.5189702;0;
-2.263382;0;13.64264;0;-3.78763;2.685983;11.88391;11.7256;0.34756;0.001289968;0;
-564.6659;0;-513.9808;0;-6.931655;3.420097;-541.35;-540.8834;-0.1075606;0.06625602;0;
-589.8356;0;-557.6922;0;-6.121384;5.693958;-566.9803;-564.8276;-0.2373873;-0.3236146;0;
-249.2888;0;-240.7908;0;-7.856545;6.425049;-228.8928;-229.0536;-0.107214;-0.1283874;0;
-228.7985;0;-210.9388;0;-8.049722;11.04029;-208.0482;-211.2697;-0.3020083;-0.1932258;0;
18.18237;0;14.90978;0;-7.774189;12.90472;32.22771;29.50912;-0.4316396;-0.3229663;0;
595.6863;0;551.0003;0;-10.98156;12.22193;602.4712;599.0057;-0.2363038;-0.3876091;0;
566.4771;0;538.8275;0;-9.228236;12.87947;576.691;571.23;-0.171099;-0.7120563;0;
206.3387;0;215.1985;0;-12.63521;12.06274;220.8526;217.2086;-0.3008618;-0.2565695;0;
205.6316;0;211.5465;0;-10.88121;11.98363;219.3813;217.74;0.08924456;0.1334924;0;
-18.40001;0;5.562363;0;0.1144396;9.292397;0.1459484;-2.618106;0.2840569;0.1983256;0;
-569.1047;0;-508.2475;0;7.415342;8.077368;-543.3935;-544.9678;0.2188042;0.2630937;0;
-581.1515;0;-540.3454;0;8.278547;7.868303;-559.5266;-557.7261;0.1536169;0.06792726;0;
-258.1046;0;-249.1985;0;10.88317;6.721687;-242.0612;-242.1365;0.2184299;0.1977937;0;
-237.9178;0;-223.2111;0;39.53947;7.987609;-219.3293;-224.5894;0.3481451;0.1326276;0;
25.81378;0;20.32843;0;49.81487;7.443719;41.07285;34.63105;-0.04200873;-0.06240768;0;
606.6209;0;557.8503;0;41.72784;9.780643;613.7437;606.7462;-0.3668032;-0.1273123;0;
574.6521;0;541.9225;0;46.24026;11.3113;584.4539;575.2145;-0.431402;-0.06221705;0;
209.0707;0;211.7936;0;34.67322;6.075388;221.5488;215.0673;-0.2360665;0.002812809;0;
210.11;0;206.4584;0;31.35585;6.136266;217.9529;215.4134;0.1539747;-0.06215736;0;
-4.430916;0;9.224987;0;30.65476;4.388666;8.089239;4.740263;-0.3659187;-0.1270622;0;
-564.3325;0;-515.8953;0;25.1316;2.575717;-541.7675;-544.1761;-0.365551;-0.06196723;0;
-586.6915;0;-557.2309;0;33.41174;11.81653;-564.7113;-563.9941;0.4793917;-0.06190496;0;
-248.5841;0;-240.3925;0;32.10537;13.74716;-228.8125;-230.5322;0.47891;-0.3866795;0;
-226.6577;0;-206.9801;0;24.50465;12.25972;-203.5951;-209.4985;0.08862477;-0.2563562;0;
19.44644;0;17.30272;0;19.1214;14.39086;36.6763;32.09067;0.02356838;0.3286074;0;
601.5093;0;557.139;0;24.92933;6.874433;609.2266;604.6456;-0.10639;-0.06152682;0;
578.7286;0;551.2068;0;23.63148;4.590228;589.4991;581.2995;-0.4311198;-0.1913997;0;
210.7067;0;219.507;0;7.733884;12.35539;225.3395;218.7099;-0.3007519;0.3285314;0;
206.6844;0;210.7282;0;5.716381;13.28074;218.8038;216.2412;-0.04058036;-0.06160279;0;
-8.040408;0;13.30309;0;-18.26852;9.985352;8.564463;6.816611;0.02442776;-0.3214103;0;
-559.3177;0;-503.3881;0;-29.43595;10.0423;-534.7336;-535.6675;0.02440321;0.06871674;0;
-577.3713;0;-546.1105;0;-2.614174;10.16618;-555.2482;-554.1823;0.3492154;0.2635497;0;
-251.5797;0;-246.3997;0;0.1351191;10.022;-233.6017;-234.2859;0.4787992;0.00341554;0;
-235.0851;0;-215.5425;0;-0.4682291;11.28448;-214.5014;-218.6208;0.2834161;-0.3214246;0;
14.71321;0;14.43361;0;4.355012;11.20616;31.59053;27.03804;0.218164;-0.386069;0;
593.0327;0;550.6496;0;4.015844;10.92697;601.7722;596.3497;-0.04192463;-0.190779;0;
569.6982;0;544.2242;0;6.824848;9.844381;580.9277;573.9489;-0.3017519;0.004314697;0;
208.3697;0;216.5293;0;8.425581;10.10242;222.5238;218.2382;-0.1065466;-0.1256243;0;
205.724;0;208.0659;0;9.421493;8.551663;216.3032;215.8326;0.0234951;-0.1904654;0;
-14.24722;0;6.083265;0;6.732708;4.792148;0.5692282;-0.4632045;-0.3013652;0.19953;0;
-566.2679;0;-510.913;0;4.649838;2.041033;-542.4709;-543.5023;-0.3660297;0.3292642;0;
-581.8783;0;-547.7559;0;6.922342;-2.180821;-559.9167;-557.6987;-0.04082525;-0.06087071;0;
-257.0816;0;-247.9809;0;6.514221;-4.991913;-238.7653;-237.674;-0.04078423;-0.5805483;0;
-240.2691;0;-221.1201;0;-2.602003;-10.74718;-219.7223;-222.5051;0.02422409;-0.4500302;0;
14.34447;0;9.861132;0;-5.881918;-13.8176;29.99803;26.34346;-0.04076759;-0.1897087;0;
600.8477;0;552.7034;0;-2.794549;-15.00941;608.4896;603.5893;-0.495498;-0.3844201;0;
577.9427;0;547.2755;0;-3.729747;-17.27163;588.7003;581.2438;-0.2351308;-0.3190665;0;
204.7368;0;210.2072;0;-4.395584;-10.69007;219.1692;213.5318;0.2198769;-0.3837132;0;
205.0308;0;205.061;0;-4.524889;-8.335044;215.7631;214.1293;0.02475392;-0.3183603;0;
1.239639;0;17.0743;0;-1.105067;-12.27854;15.64679;13.51487;0.5444678;0.0717636;0;
-557.918;0;-501.7446;0;1.240568;-11.26146;-534.8422;-537.1594;0.608888;-0.1232105;0;
-590.5908;0;-547.2798;0;-3.31503;-8.972845;-567.788;-567.9789;-0.4312012;-0.2530214;0;
-260.9127;0;-247.7552;0;-3.646492;-8.427966;-241.0064;-243.0712;-0.3658006;-0.05786515;0;
-235.4757;0;-218.3958;0;2.988605;-4.400643;-214.4025;-220.1509;0.2842403;0.007160336;0;
15.25998;0;11.2083;0;4.392121;-2.587682;30.25253;24.69735;-0.04088197;0.2670225;0;
598.514;0;552.425;0;5.258364;-4.661553;604.5585;598.5715;-0.6905143;0.3966889;0;
577.6103;0;548.7465;0;7.128114;-3.250228;586.8346;578.2925;-0.3000164;0.07145358;0;
207.5906;0;216.2994;0;1.361152;-7.064867;221.7406;214.9563;0.2849911;0.1363491;0;
201.8848;0;208.7108;0;-0.5835748;-7.660614;214.209;211.1796;-0.1050993;0.3960815;0;
-12.64785;0;11.9124;0;4.508203;-2.964234;3.974347;0.9479446;-0.5597651;0.2657488;0;
-561.6092;0;-498.0932;0;3.90046;-2.693324;-537.1326;-539.9061;-0.4292679;0.3304492;0;
-581.2222;0;-531.7631;0;1.083502;4.342469;-558.8318;-558.4791;0.09090211;0.07024773;0;
-259.7995;0;-240.6873;0;-0.6588991;7.821095;-239.6804;-241.0771;0.2857128;-0.1247249;0;
-236.7999;0;-214.521;0;-1.46252;3.794383;-213.5776;-219.2208;-0.234313;-0.05963221;0;
22.30792;0;22.70045;0;-2.465429;5.331056;39.94722;34.49709;-0.4289796;-0.384409;0;
605.4924;0;563.9056;0;-9.361828;4.38806;614.993;608.7363;-0.3635812;0.07074865;0;
579.7091;0;554.2186;0;-12.09909;3.981753;591.7614;582.9498;-0.03837918;0.525449;0;
205.252;0;214.2073;0;-10.21092;5.719187;219.2912;212.9247;0.4813981;-0.0597851;0;
205.5456;0;208.6822;0;-10.06694;3.637091;215.6351;213.7103;0.09111035;-0.1896597;0;
-0.9322931;0;19.31763;0;-14.00894;10.59942;13.76982;12.47156;-0.1038832;0.2003349;0;
-563.8984;0;-503.1267;0;-15.33403;11.39256;-540.2156;-541.0753;0.4809272;0.2001336;0;
-590.693;0;-550.9718;0;-5.606709;2.405646;-568.8456;-567.6429;0.4154766;0.06999784;0;
-255.4552;0;-250.6314;0;-3.122829;1.197536;-237.1904;-237.7381;0.02525513;0.004960161;0;
-231.4604;0;-217.8959;0;-4.191418;-7.042324;-211.4024;-216.1974;-0.1047049;0.1348899;0;
18.20925;0;12.58231;0;-2.713338;-9.848531;32.74986;27.45994;-0.3644691;-0.0601477;0;
596.1505;0;549.05;0;-1.572512;-10.64231;602.9928;597.3334;-0.2991355;-0.1250546;0;
571.1262;0;542.5013;0;0.9746639;-12.70809;581.5848;573.9321;-0.03896558;0.2648751;0;
207.11;0;213.8711;0;-8.871952;-2.514155;220.9939;214.9106;0.02604091;0.1346743;0;
204.4032;0;205.2854;0;-11.07384;0.1676889;215.2122;212.1959;-0.1039199;-0.1253304;0;
-13.00554;0;3.992747;0;-1.48452;4.186374;1.915546;-0.6603863;-0.2987175;0.1996322;0;
-560.155;0;-505.6926;0;0.3256325;7.732141;-536.8781;-538.8267;0.09138666;0.1344643;0;
-578.3951;0;-544.5397;0;0.4590272;8.59515;-557.453;-557.0259;0.3511642;-0.1905075;0;
-262.4725;0;-258.5735;0;1.530293;11.19873;-244.6748;-245.3101;-0.2988621;-0.1253488;0;
-241.4067;0;-226.5172;0;10.10257;4.221492;-220.441;-225.1361;-0.6883658;0.1996139;0;
16.14403;0;11.40348;0;14.31198;1.939831;32.15365;26.71363;-0.5577394;0.329348;0;
593.3376;0;545.0613;0;6.99658;5.755787;601.2728;595.0261;-0.167375;0.3939844;0;
573.6885;0;543.0143;0;6.588384;5.482072;584.4892;576.0624;-0.03727213;0.3286212;0;
208.5454;0;213.0093;0;8.59052;1.055812;221.3966;215.5396;-0.102202;0.328291;0;
205.3998;0;202.7379;0;6.840576;0.9207851;213.8029;211.2001;0.3526721;0.1980265;0;
1.17096;0;14.06637;0;10.1826;-0.2187279;13.43866;11.08832;0.2873504;-0.2569439;0;
-559.9857;0;-514.9319;0;10.64186;-0.6204057;-537.9852;-538.8339;0.1571269;-0.3866204;0;
-592.4689;0;-567.7626;0;2.659592;6.815079;-571.1777;-570.1515;0.3518711;-0.1263626;0;
-248.796;0;-245.8537;0;1.116678;8.549788;-232.1488;-233.6225;0.2865502;-0.3211376;0;
-233.9908;0;-219.3074;0;-0.492034;12.3591;-215.2989;-220.5816;-0.1035418;-0.4507496;0;
-2.496949;0;-8.193005;0;-2.232852;13.75332;12.24063;7.525453;-0.4932418;-0.1904274;0;
597.329;0;549.6599;0;-0.1545034;15.3471;604.0558;599.283;-0.1679095;0.06963334;0;
585.2971;0;554.9171;0;-1.628217;16.47026;594.8907;587.7488;0.2220633;0.2644654;0;
206.9614;0;212.4689;0;5.138574;6.339535;219.7312;214.0957;0.1568728;0.1992323;0;
202.2557;0;201.6357;0;6.540906;3.720952;212.3265;210.07;0.2866499;0.00413011;0;
-12.33979;0;4.09481;0;3.988738;-2.378111;2.281167;0.1518415;0.09145981;0.1340607;0;
-564.6123;0;-511.5251;0;6.329255;-7.131388;-543.197;-544.0748;0.02640057;0.2638606;0;
-586.6586;0;-551.8656;0;-5.53345;-1.698727;-567.5761;-566.0792;0.09134138;0.1336608;0;
-266.8546;0;-258.2084;0;-7.201853;-1.630037;-249.8527;-251.106;0.2211843;-0.06137552;0;
-242.9733;0;-227.0895;0;-5.051163;-4.240734;-223.6147;-228.4274;0.220962;0.003653494;0;
16.26566;0;10.20703;0;-6.854749;-4.102507;30.79469;25.61202;-0.169064;0.06861717;0;
593.834;0;546.8021;0;7.887896;2.398838;600.0401;593.9256;-0.1039268;-0.3862232;0;
573.2474;0;541.8798;0;11.96581;5.075745;581.1964;573.0266;-0.3636917;-0.6457044;0;
205.9182;0;209.8769;0;12.62337;6.410182;217.2325;210.6951;-0.6231957;-0.1253169;0;
195.1541;0;194.2363;0;16.16066;9.618921;202.7714;200.301;-0.03786342;0.1996457;0;
-10.81356;0;3.324509;0;11.59007;7.264853;0.2318552;-1.23656;0.222044;-0.1253916;0;
-565.5863;0;-513.3566;0;10.57405;9.066093;-545.8689;-546.7111;-0.03804848;-0.06029827;0;
-595.0654;0;-562.191;0;12.17101;8.923018;-576.4922;-574.7724;0.09192443;-0.06023768;0;
-253.5764;0;-252.4065;0;11.82301;9.315949;-238.0203;-238.5511;0.4816361;0.2646596;0;
-229.7709;0;-219.5443;0;1.965496;17.3443;-212.6063;-217.6343;0.09134811;0.4592957;0;
7.215974;0;-1.058414;0;-1.921245;20.3411;18.55375;13.90562;-0.363515;0.3938668;0;
592.1022;0;542.9192;0;2.903456;20.72244;595.0578;590.2269;-0.2981825;0.4584384;0;
581.9496;0;547.5586;0;2.765841;22.10826;587.5259;579.0767;-0.1679482;0.1981084;0;
206.3034;0;205.9298;0;0.4858862;26.1049;214.5602;207.6812;0.02712262;-0.3218294;0;
192.1656;0;188.1068;0;0.3516762;27.48531;197.3532;194.8539;0.02709536;-0.6463428;0;
-15.23586;0;-1.5495;0;5.911028;25.91708;-4.993527;-7.615229;0.02706814;-0.1909219;0;
-568.0677;0;-516.6016;0;7.981194;26.49389;-548.5903;-550.4597;0.1569756;0.199074;0;
-594.2334;0;-566.9319;0;7.571033;21.44367;-575.9;-575.0814;-0.1680188;-0.1259628;0;
-261.6157;0;-265.5759;0;8.30036;20.48436;-247.0489;-248.5424;-0.2328173;0.004098492;0;
-233.3669;0;-222.0808;0;10.43547;20.3968;-216.6908;-221.8685;0.3521227;-0.06087297;0;
17.61652;0;10.15071;0;11.22829;20.30932;30.65274;25.10541;0.2218342;-0.2557138;0;
591.4354;0;541.436;0;5.389863;23.63806;597.1497;590.2336;-0.3630948;-0.06055486;0;
571.7882;0;541.2043;0;2.772479;24.75302;580.4327;571.2748;-0.03789324;0.004473328;0;
207.6464;0;211.6383;0;3.439279;31.29223;218.9684;212.3184;0.2220142;0.2643382;0;
196.3808;0;195.4962;0;1.158647;33.5382;204.0058;201.8602;0.1568238;0.32904;0;
-12.52411;0;1.272282;0;-0.3163857;37.79129;-1.28358;-3.302107;0.3515682;0.1338073;0;
-563.9219;0;-519.4672;0;-1.387795;40.29867;-544.8216;-546.5258;-0.03858908;0.06870549;0;
-589.9044;0;-564.7972;0;-6.677686;35.50239;-572.1351;-570.8391;-0.363387;0.1336038;0;
-249.42;0;-249.4505;0;-8.278566;35.13192;-234.917;-234.9965;-0.2330872;-0.1913671;0;
-232.6152;0;-220.964;0;-7.198521;27.46069;-215.8154;-219.8929;-0.1678856;-0.5809789;0;
1.688384;0;-4.038393;0;-7.123939;22.87838;14.34837;9.462898;-0.1027496;-0.1905911;0;
597.1998;0;547.0012;0;-2.629779;25.19967;600.7267;594.5967;-0.2975484;0.1344371;0;
585.6053;0;550.5745;0;0.9228373;22.09326;591.1901;583.5671;-0.3622168;-0.06059999;0;
205.3327;0;207.381;0;4.941374;20.66442;214.9099;210.1681;0.1578859;0.2642976;0;
199.3168;0;197.49;0;12.3038;18.70127;206.8229;205.2718;0.287662;0.1990647;0;
-6.717472;0;9.261057;0;5.326188;16.53903;5.903469;4.416357;0.3523403;-0.4508087;0;
-561.0571;0;-505.552;0;6.056794;15.98654;-540.9526;-541.3138;0.2870189;-0.5153231;0;
-586.1055;0;-545.9609;0;28.95911;10.74593;-568.3325;-566.7568;-0.03810622;0.004933429;0;
-257.9937;0;-249.3112;0;33.14957;9.797375;-243.362;-243.8493;-0.03806793;0.3297652;0;
-237.8694;0;-224.1357;0;46.51285;10.18943;-221.0036;-225.1761;0.02693766;0.06956446;0;
14.74274;0;8.4727;0;55.24003;9.576344;27.59364;22.42583;0.1568453;-0.06044012;0;
596.9353;0;545.2568;0;29.86619;14.59044;601.9647;595.99;0.09172034;-0.1253467;0;
576.2206;0;539.8364;0;25.28086;15.1785;584.1185;576.2133;0.2865302;-0.2551555;0;
213.4487;0;215.1444;0;28.87278;19.78495;225.2117;218.7512;0.1563076;-0.1249644;0;
204.1762;0;202.4345;0;25.76231;21.37266;213.741;210.348;-0.3635882;0.005095849;0;
-12.60756;0;4.330613;0;17.76582;17.73423;1.820189;-1.31958;-0.03838614;-0.05987661;0;
-565.567;0;-508.9782;0;12.65775;17.64943;-543.3451;-544.7326;0.1565545;-0.1897511;0;
-594.7961;0;-558.3792;0;23.02653;9.861797;-575.5327;-573.7329;-0.1034722;-0.1245931;0;
-262.4903;0;-258.9684;0;23.80768;6.837779;-248.6809;-248.1948;-0.1683356;-0.1894353;0;
-236.427;0;-225.9746;0;26.06093;5.625215;-222.7564;-225.2068;-0.03823176;-0.384147;0;
8.812442;0;-2.047492;0;29.85216;3.342265;17.47175;14.3367;-0.1031607;-0.2538263;0;
600.756;0;545.7417;0;22.99064;2.870026;600.8484;596.5921;-0.4928611;-0.05866921;0;
590.7821;0;553.2518;0;22.96754;0.8576545;593.3107;586.8723;-0.2974638;-0.05861026;0;
209.3799;0;210.4929;0;27.16402;9.497347;216.4037;212.3455;-0.2321976;0.006415975;0;
195.7388;0;191.9781;0;26.80193;11.89919;200.0694;199.7009;-0.6217683;0.1363442;0;
-7.668268;0;2.942621;0;30.72712;7.66743;0.03126848;-0.3992914;-0.0364375;0.006272528;0;
-564.1309;0;-512.3638;0;31.63425;8.798436;-548.6929;-547.374;0.1585011;0.1362009;0;
-592.2996;0;-553.6405;0;28.85579;5.574415;-577.9391;-573.9978;-0.03656014;0.3959334;0;
