Fp1;Fp2;O1;O2;POLY3;POLY4;A1;A2;Video;Audio;event;
45.20153;0;0;6.162528;-1.489743;-7.350372;42.46203;41.74714;-0.3026179;0.02442773;0;12:32:29 Глаза закрыты;
679.8995;0;0;621.9093;3.067081;-3.993961;668.5421;669.2648;-0.3023138;0.08937053;0;
588.3246;0;0;566.562;2.259716;-4.25788;580.0396;579.3871;0.2177287;-0.3005233;0;
187.9969;0;0;199.177;4.066106;-6.664865;184.4053;185.5651;0.3474446;-0.3002214;0;
209.8594;0;0;217.2177;3.258714;-5.854373;205.2719;210.9283;0.3470955;-0.2999197;0;
-53.28184;0;0;-27.3777;9.283659;-6.853235;-51.74276;-46.27946;0.2817794;-0.2996183;0;
-634.3112;0;0;-593.8154;11.68523;-5.97557;-629.5878;-624.3798;0.2814963;0.2853888;0;
-588.634;0;0;-581.2248;0.8224961;-0.008329098;-590.412;-582.0859;0.4111481;0.1551674;0;
-240.6546;0;0;-253.7426;-0.1827083;2.001167;-242.181;-236.6119;0.4757023;0.02507676;0;
-249.1584;0;0;-255.9239;-4.201989;9.70195;-247.31;-246.6815;0.1503876;0.4148556;0;
50.50391;0;0;20.81925;-6.273871;13.2423;47.41548;48.54313;-0.04466553;0.2195367;0;
666.0187;0;0;611.9387;-3.721972;13.09503;656.9365;657.6882;0.1502814;0.2193161;0;
582.9534;0;0;561.8487;-4.588888;15.15822;578.2531;576.7551;0.2150977;0.1541284;0;
193.0009;0;0;206.9622;4.860194;10.8562;193.9274;194.43;-0.1749225;-0.1058958;0;
206.675;0;0;219.4979;8.003142;10.71132;205.789;209.7269;-0.4346161;-0.04082207;0;
-52.40253;0;0;-23.16331;8.798409;5.074118;-49.78941;-47.66711;-0.04437532;-0.1707157;0;
-634.8071;0;0;-594.7277;11.87103;1.920943;-625.6999;-625.5787;0.5403754;-0.2355115;0;
-594.002;0;0;-591.9437;7.840611;8.885117;-587.59;-585.5324;0.864669;-0.04037287;0;
-241.0822;0;0;-266.8246;7.698034;9.14412;-238.1749;-237.8061;0.7988329;0.2195371;0;
-253.2712;0;0;-276.5515;9.76738;8.933983;-249.9921;-253.2467;0.4082262;0.0893818;0;
47.95701;0;0;5.647224;10.09236;9.460748;44.61118;43.6711;0.212914;-0.2355447;0;
676.4054;0;0;619.5205;6.934386;9.317398;664.4423;665.1898;0.2127001;0.2194633;0;
590.4561;0;0;569.048;6.256856;8.571223;582.503;580.5636;0.147519;0.6090469;0;
186.2532;0;0;192.2903;6.184197;11.30879;181.6814;180.7434;-0.04753127;0.4785002;0;
197.9976;0;0;195.4704;4.369322;11.96726;191.4938;193.0555;0.01748383;0.08821537;0;
-54.94935;0;0;-43.41849;13.54098;4.386281;-55.19972;-54.26423;0.01746627;-0.3666447;0;
-632.3539;0;0;-606.1545;16.14032;3.310269;-629.8553;-629.2332;0.1473834;-0.3662763;0;
-586.3663;0;0;-593.9887;6.880703;-2.252519;-588.368;-586.6844;0.2122027;-0.1060389;0;
-229.831;0;0;-262.9955;5.266199;-5.264487;-229.332;-228.8995;-0.1778146;0.2189044;0;
-242.0938;0;0;-270.7272;8.944603;3.113547;-239.159;-241.2882;-0.1126686;0.6084885;0;
54.37556;0;0;7.467654;9.672549;4.717887;50.31091;49.05845;-0.04758806;0.4129751;0;
672.885;0;0;611.8439;2.495534;5.315993;661.703;660.5143;-0.6322463;0.0877234;0;
582.8163;0;0;559.63;0.9527856;7.655054;575.3937;571.9573;-0.436709;0.2175699;0;
193.1763;0;0;201.8098;4.434453;9.054004;190.821;190.1992;0.08346853;0.0224493;0;
210.4109;0;0;215.9748;3.491992;10.11651;206.9961;210.2479;0.08338466;-0.1724753;0;
-56.29158;0;0;-31.30556;12.86658;14.66106;-53.2687;-51.26953;0.1482682;-0.3022367;0;
-634.3819;0;0;-592.8668;17.00586;16.32091;-623.3661;-621.8062;0.08315189;-0.2369656;0;
-589.3918;0;0;-582.5884;6.874719;13.49134;-582.0102;-578.7028;-0.3067357;-0.1717602;0;
-243.4731;0;0;-263.1634;5.796084;13.87969;-240.2844;-239.1042;-0.4363622;-0.3015223;0;
-259.6577;0;0;-275.2052;11.88583;7.904381;-255.9724;-258.7289;-0.2410217;-0.04134996;0;
40.20258;0;0;4.618278;12.00761;5.552036;38.8867;37.13244;-0.1108448;0.08862629;0;
676.3424;0;0;622.3656;12.46503;9.02957;668.9059;668.028;-0.04576612;-0.1063648;0;
597.7645;0;0;579.6364;13.85903;8.953513;594.7083;591.1451;-0.1756548;0.02367677;0;
196.1779;0;0;209.4898;6.610457;7.336926;196.5605;194.9374;0.01942371;-0.04131438;0;
213.1596;0;0;221.773;4.595059;6.190845;210.6683;213.9194;0.08437154;-0.1062402;0;
-41.92643;0;0;-14.33128;9.680656;14.95914;-39.16787;-35.85759;-0.24055;0.02380124;0;
-630.2761;0;0;-586.2794;9.336137;18.09231;-623.8971;-621.2773;-0.1753409;0.08874466;0;
-591.412;0;0;-581.6298;10.66593;10.90708;-590.5991;-586.1703;-0.1101974;0.08865549;0;
-231.3109;0;0;-245.5266;10.78991;11.29802;-230.3739;-227.3239;-0.04511931;0.2185011;0;
-240.9485;0;0;-251.0894;11.04651;11.75555;-237.4513;-238.1525;0.01989337;0.2182816;0;
49.95997;0;0;16.0912;11.705;11.94468;47.14437;47.44339;-0.04509396;-0.04180717;0;
669.2859;0;0;615.0864;3.588909;12.87044;659.4767;661.0248;0.01991869;-0.1716998;0;
588.7161;0;0;570.8029;0.1017024;12.65656;582.9147;582.025;0.1498334;0.1533094;0;
200.1945;0;0;214.658;4.924371;17.39951;198.4594;199.3822;0.1496828;0.2830901;0;
211.1753;0;0;223.1255;4.048767;18.11884;207.6303;213.6121;0.2144997;0.1528709;0;
-52.09219;0;0;-22.10057;-0.4432795;20.44491;-50.51117;-45.22256;0.4091862;0.2176846;0;
-625.7515;0;0;-580.4227;-1.648283;22.09894;-617.8627;-614.391;0.1489057;0.02256389;0;
-583.5186;0;0;-571.3438;-5.062878;16.58426;-579.8857;-574.6058;0.1487561;-0.2373282;0;
-238.2306;0;0;-254.1163;-7.334967;16.1657;-238.4743;-234.9489;0.1486066;-0.1721224;0;
-259.7927;0;0;-274.3507;-5.518935;12.26457;-257.4125;-258.8882;-0.04644471;-0.5617535;0;
31.75939;0;0;-4.647971;-7.322051;10.10879;29.38957;28.04035;0.148504;-0.366287;0;
672.5304;0;0;614.7953;-2.759366;13.3808;662.1669;661.6937;0.01842008;0.4786565;0;
599.7034;0;0;577.7584;-0.7478378;12.7645;593.9106;591.6262;-0.1115331;-0.1065305;0;
195.1788;0;0;206.4892;-9.520996;16.83752;193.3274;193.7314;0.08348098;-0.4962275;0;
217.8462;0;0;226.3341;-8.640774;19.09802;213.0606;217.7746;-0.2414396;0.08897717;0;
-32.30954;0;0;-2.59084;-11.37876;14.99287;-31.09336;-27.57106;-0.3711317;0.1538551;0;
-630.4139;0;0;-584.7956;-10.2956;15.51367;-624.8262;-623.3064;-0.1108894;-0.04120152;0;
-593.4862;0;0;-582.5838;-4.993967;16.03394;-593.0265;-590.6337;0.01915669;-0.5608988;0;
-228.1357;0;0;-244.0433;-3.381358;14.9461;-227.4891;-226.8478;0.1490721;-0.5603352;0;
-239.7755;0;0;-257.791;12.02836;22.50004;-235.8811;-238.4889;0.01898766;-0.1050008;0;
50.44463;0;0;6.210418;16.23583;24.88869;49.33762;47.48213;-0.04599876;-0.039928;0;
668.0834;0;0;603.0292;27.47265;16.62503;660.106;658.9395;0.1489495;0.2849489;0;
584.6413;0;0;555.7592;35.21458;15.73754;579.4205;576.1312;-0.1760369;0.02479316;0;
199.747;0;0;205.5016;15.15215;15.4538;198.0921;196.9301;-0.8905008;-0.4949705;0;
225.4083;0;0;226.8467;12.52398;14.1656;220.944;223.2814;-0.7596713;-0.1696364;0;
-37.24879;0;0;-16.82133;9.497287;15.29007;-37.33578;-35.87527;0.1506348;-0.169466;0;
-633.0994;0;0;-591.3281;4.129109;14.40393;-624.753;-623.6688;0.2804181;-0.234263;0;
-596.8561;0;0;-590.5466;8.881358;17.87257;-591.4542;-588.8093;-0.2396024;-0.1690603;0;
-247.0569;0;0;-271.6132;7.197495;18.9932;-246.408;-245.7023;0.02050774;0.1559463;0;
-259.9895;0;0;-280.2108;5.783743;14.88828;-258.3418;-260.6353;0.3453238;0.415659;0;
40.68321;0;0;0.679684;4.974625;14.5384;36.39478;35.47787;0.02014015;-0.2344321;0;
671.4503;0;0;615.4325;6.376146;13.65314;659.4825;659.9408;0.08508726;-0.5590333;0;
597.8123;0;0;580.0815;6.034946;12.23278;590.854;589.1879;0.2149365;0.09120186;0;
197.0377;0;0;209.1848;6.965911;14.56477;193.9595;194.6064;0.1497531;0.5458816;0;
216.0801;0;0;225.154;7.026261;14.21522;209.8815;215.7752;0.2795373;0.4153984;0;
-30.38828;0;0;1.102781;3.067086;11.05286;-31.08335;-26.69487;0.4741585;0.09014432;0;
-636.3656;0;0;-586.9153;2.460792;9.434161;-631.8751;-629.6774;0.3437474;-0.234783;0;
-608.9896;0;0;-596.5704;-4.909071;9.692614;-608.1893;-604.2447;0.2134673;-0.1046124;0;
-235.0029;0;0;-253.3931;-7.784527;9.080029;-233.5162;-231.9494;0.08331811;0.2852968;0;
-249.9467;0;0;-266.3194;-5.766973;3.511443;-245.5879;-249.0826;0.01826705;0.4149448;0;
32.66257;0;0;-3.496274;-7.637188;1.230617;30.45776;28.21592;-0.111686;0.2196258;0;
669.5596;0;0;616.6331;-0.1937989;1.832227;660.3605;660.0574;0.08332826;0.4792745;0;
593.7996;0;0;575.9711;2.685808;0.08882968;588.8576;586.6183;0.2131792;0.673695;0;
199.7757;0;0;211.0755;-4.148418;1.22745;198.6492;198.5361;0.08303033;0.08831197;0;
219.1901;0;0;227.9173;-4.211598;0.6903535;214.6915;218.9513;0.2128816;-0.1716461;0;
-47.20887;0;0;-17.50098;-1.193257;0.5556939;-46.89286;-43.76176;0.277635;-0.1065063;0;
-629.6187;0;0;-580.0756;-1.32578;1.425914;-620.5574;-618.1166;0.4722581;0.02353538;0;
-586.2575;0;0;-570.2474;2.024455;-5.541622;-580.3912;-575.579;0.4068162;0.2184138;0;
-235.2196;0;0;-249.3979;3.898431;-7.612402;-232.9199;-230.4864;0.2764727;0.08825962;0;
-239.0437;0;0;-247.9604;-1.798913;-3.652883;-234.2476;-235.5646;0.08129293;-0.04176377;0;
56.61051;0;0;29.77428;-2.132874;-4.386024;55.90458;55.0886;-0.1786581;0.08821289;0;
669.1207;0;0;621.8842;-0.9243065;-1.568456;660.2321;659.9792;-0.04854392;-0.3016798;0;
580.9924;0;0;566.3494;-1.325519;-0.5621363;575.6734;574.2338;0.1464069;-0.6262134;0;
184.7325;0;0;198.3401;3.163791;-2.570937;183.4793;183.4155;-0.04864226;-0.4956495;0;
207.0355;0;0;215.9443;4.43341;-1.228817;204.6592;207.6564;-0.3084627;-0.4951515;0;
-39.92347;0;0;-10.15911;4.696399;-6.786922;-36.11303;-32.99392;-0.1782181;-0.3647192;0;
-628.5875;0;0;-583.4232;5.562336;-8.253727;-621.1577;-619.2286;0.08183032;0.0254513;0;
-590.4747;0;0;-584.3362;6.36103;0.3281376;-589.2992;-586.3726;-0.1781213;0.1553604;0;
-219.63;0;0;-239.6096;7.291667;3.141091;-218.0184;-216.7189;-0.3728443;-0.1046651;0;
-235.0889;0;0;-248.4268;3.064782;1.262413;-229.8558;-232.9928;0.01733437;-0.1045599;0;
41.5084;0;0;5.820163;1.454112;3.605425;40.67681;37.7303;0.01731695;0.02547985;0;
665.8403;0;0;609.7607;5.605837;5.544307;658.4504;657.0061;-0.5024392;-0.03951311;0;
592.6453;0;0;572.2916;6.403512;6.208566;589.3232;586.0063;-0.3070323;0.02549395;0;
201.8084;0;0;215.0208;2.31124;15.71366;202.3627;200.5484;0.08308025;-0.03949902;0;
213.0999;0;0;224.9247;2.242545;18.24322;210.6551;212.7782;0.01802943;0.02550802;0;
-47.85819;0;0;-19.30367;2.909877;17.35411;-46.61482;-44.49393;-0.1768907;0.02548239;0;
-625.6447;0;0;-581.3767;2.504812;19.14509;-616.9063;-615.8495;-0.2416803;-0.1694452;0;
-586.9102;0;0;-575.4203;6.253339;10.41832;-580.4919;-578.9989;0.1483666;0.02562705;0;
-238.4953;0;0;-256.8145;5.844914;8.465344;-235.5817;-235.527;0.4080869;0.155536;0;
-249.6874;0;0;-267.3635;12.53782;6.84937;-245.0276;-248.2213;0.08284011;0.09041236;0;
44.66568;0;0;5.892972;16.00785;4.36412;44.88547;42.19474;-0.1771125;0.2202562;0;
668.2448;0;0;611.1453;1.323356;8.646521;660.5934;659.5295;-0.3068692;0.09010019;0;
594.1103;0;0;574.3619;-1.42464;8.972747;590.0272;586.903;-0.1766262;-0.1698597;0;
204.5838;0;0;219.6503;2.461557;10.23641;204.0656;202.0064;0.2783227;0.1551477;0;
222.4317;0;0;236.7334;1.186286;10.82897;219.8525;221.4186;0.278043;0.2849265;0;
-33.0385;0;0;-1.259966;1.386165;14.43504;-29.93048;-28.36594;-0.3719098;-0.2350986;0;
-632.5789;0;0;-587.7139;0.3130451;16.16209;-626.8503;-625.2874;-0.2416014;-0.4297644;0;
-600.9589;0;0;-592.9954;5.805087;13.33269;-599.6089;-597.2979;0.2134128;-0.1044958;0;
-229.354;0;0;-247.2606;7.607915;13.989;-226.5686;-226.4463;-0.1766057;0.1554786;0;
-248.1765;0;0;-258.9436;3.715505;9.085316;-242.4578;-245.8339;-0.1764283;-0.1695144;0;
30.5579;0;0;-0.750585;4.381357;7.803633;30.02396;27.40091;0.1485857;0.22046;0;
667.582;0;0;619.3135;1.697637;7.795792;659.3025;658.1188;-0.306335;0.3501731;0;
597.8209;0;0;583.6463;1.026346;5.711488;593.4228;590.6161;-0.3060272;-0.4297868;0;
205.1673;0;0;216.1193;0.8915927;11.86806;205.8335;204.5914;-0.2407523;-0.1694856;0;
226.5753;0;0;234.7052;-0.8506154;11.65518;226.1789;228.1864;-0.5653471;0.02558674;0;
-35.20842;0;0;-6.03474;3.436171;12.7152;-30.73186;-29.03871;-0.2399424;-0.03940632;0;
-630.9985;0;0;-582.9262;2.495689;12.76941;-619.1552;-618.5882;-0.1747339;0.2205027;0;
-590.697;0;0;-573.5324;7.985538;6.527284;-580.9269;-580.6104;-0.5643624;0.1553137;0;
-235.844;0;0;-246.4952;12.19707;5.047101;-229.3947;-231.0149;-0.2389586;0.02522301;0;
-250.1622;0;0;-258.9911;-9.316094;-3.866457;-241.6579;-246.8997;-0.1087838;-0.299639;0;
46.69008;0;0;17.75514;-14.1295;-7.680477;49.56368;45.7639;-0.4984786;-0.2343706;0;
663.5206;0;0;615.312;-3.063245;-8.14164;657.1459;656.0986;-0.2381083;0.2856036;0;
585.2679;0;0;568.4669;-4.199243;-10.94674;583.1475;580.2896;0.151935;0.2853166;0;
206.1201;0;0;220.3204;2.034267;-4.170588;207.75;206.1443;0.2167497;-0.1047741;0;
220.1558;0;0;234.7791;4.376748;-2.022944;219.5977;222.5538;0.1515645;-0.1696362;0;
-43.80783;0;0;-10.02133;2.563689;-4.834195;-37.93116;-35.6651;0.3463143;0.2203383;0;
-632.1556;0;0;-585.4095;4.503496;-4.025542;-622.7241;-622.0845;0.4109336;0.09018224;0;
-597.1002;0;0;-585.9457;-0.7249661;3.145555;-592.7381;-590.8498;0.02071665;-0.4296471;0;
-235.744;0;0;-248.0266;-1.863314;6.089521;-230.3244;-230.4994;-0.0442715;-0.1043787;0;
-248.4382;0;0;-256.7103;-0.7223654;4.073914;-239.9005;-243.2613;0.150675;0.6103669;0;
31.04612;0;0;0.7933008;-1.860715;6.146292;33.07841;30.84547;0.1505236;0.479819;0;
658.0747;0;0;608.4246;0.01716437;3.25985;651.3594;649.8159;0.08540501;-0.0404019;0;
589.6351;0;0;572.456;0.4183127;3.524506;585.4877;582.3215;-0.04461548;0.02460605;0;
192.8667;0;0;208.5009;0.6863121;6.334248;195.0328;193.0567;-0.1745053;0.2194834;0;
215.349;0;0;228.4688;2.829076;7.198661;216.7009;218.0376;-0.17433;-0.1055739;0;
-32.30547;0;0;-2.020023;-3.73785;11.61218;-27.26934;-26.05889;-0.1741548;-0.2354025;0;
-632.0965;0;0;-581.9765;-5.676477;13.2081;-619.8191;-619.2346;-0.1090125;-0.04026395;0;
-603.7878;0;0;-588.2008;5.447661;17.48162;-594.7711;-592.8128;0.02103173;-0.1701582;0;
-239.4264;0;0;-254.8395;5.978051;19.47342;-235.4163;-235.0217;-0.1738914;-0.5597912;0;
-250.5551;0;0;-262.8293;8.785084;19.2529;-244.4251;-247.8415;-0.3686187;-0.4292941;0;
34.11615;0;0;2.551518;10.1164;20.10433;36.05467;34.01602;-0.498183;-0.1689934;0;
656.7689;0;0;608.0571;4.078018;16.26623;650.3971;650.3595;-0.2378131;0.2859479;0;
581.8962;0;0;569.7151;4.676157;15.64704;579.6538;576.7427;0.1522299;0.6104972;0;
192.6319;0;0;213.1341;-10.66654;11.0766;194.827;193.668;0.02214228;0.2850471;0;
214.6772;0;0;231.0983;-16.0818;8.654081;214.059;217.961;0.1520547;0.2197933;0;
-36.84969;0;0;-4.515612;-8.429832;12.5304;-31.47027;-28.19684;0.2168693;0.1546052;0;
-624.7047;0;0;-579.4096;-10.89961;12.38384;-615.0828;-612.6872;0.02174934;0.08948246;0;
-591.7182;0;0;-581.9508;0.02968409;13.443;-587.3534;-583.4609;0.08669483;0.2842946;0;
-232.0541;0;0;-244.7228;3.91442;13.83139;-226.9441;-224.9921;-0.04332697;0.08910689;0;
-240.9414;0;0;-247.2255;-3.65895;15.15715;-232.838;-233.8239;-0.04328343;0.218952;0;
39.28498;0;0;11.70536;-3.319505;15.40985;41.13341;40.89803;0.0217274;0.5435687;0;
662.3073;0;0;617.0768;-2.646584;16.53308;657.1574;657.7968;-0.1731965;0.6079899;0;
593.1763;0;0;583.0985;-3.649279;17.58819;592.4043;590.7318;0.0218796;0.4774443;0;
191.4069;0;0;213.3857;-5.520646;10.00157;195.3209;194.9618;0.1517923;0.2170952;0;
210.3924;0;0;231.5995;-7.792275;7.915173;211.5538;216.0052;-0.1082296;-0.2378943;0;
-31.32261;0;0;8.978569;-7.718072;8.242013;-25.72706;-21.77988;0.02181384;-0.2376553;0;
-624.3055;0;0;-568.4902;-7.911388;5.889451;-609.8451;-608.9004;0.411596;0.3472896;0;
-596.0671;0;0;-575.4777;-16.4099;9.433506;-583.8701;-582.1767;0.2812477;0.2170059;0;
-231.6511;0;0;-238.5685;-18.26845;8.754198;-223.2768;-222.3348;0.08606309;-0.2379835;0;
-239.7266;0;0;-242.5766;-14.70012;7.740779;-229.2994;-231.5441;0.02100927;-0.04284237;0;
40.99826;0;0;17.66142;-13.88204;7.398087;46.29263;43.98764;-0.1739139;0.3470047;0;
664.831;0;0;620.1533;-10.65291;2.70197;661.2495;659.6964;-0.2387065;0.4765908;0;
593.8233;0;0;583.5483;-9.235689;1.158648;594.1809;590.7554;-0.1085319;0.1512752;0;
199.6745;0;0;221.2063;1.223416;-0.4501069;204.6544;203.1688;-0.04345552;-0.2386809;0;
217.7771;0;0;235.2893;6.17868;-1.119484;220.7531;223.5168;0.02155548;-0.3683757;0;
-36.25163;0;0;1.920065;2.75622;-4.333418;-27.46909;-26.01993;-0.1084009;-0.3030383;0;
-628.7924;0;0;-573.0428;5.231697;-5.467773;-616.0206;-615.6349;0.02164275;-0.1727991;0;
-599.2375;0;0;-579.2761;1.743816;-0.7735961;-592.2883;-589.9664;-0.04334634;-0.04269077;0;
-240.4405;0;0;-247.3606;1.005129;0.03097637;-233.1859;-233.6774;-0.3681395;0.1522542;0;
-247.8825;0;0;-251.7348;3.080224;3.312987;-236.5747;-241.8134;-0.1728676;0.08713383;0;
37.59816;0;0;11.88581;2.206473;4.649317;42.9601;38.66373;-0.3675959;0.08704628;0;
657.9985;0;0;615.383;3.007563;7.189996;654.4845;652.0041;-0.8869653;0.1519262;0;
582.8123;0;0;575.5969;1.732719;9.326104;582.6752;577.8859;-0.49627;0.08680616;0;
189.2992;0;0;211.7011;4.141876;1.814888;193.9723;190.812;-0.1709346;0.476523;0;
211.1604;0;0;229.2295;3.802921;0.2054744;213.7048;215.3578;-0.1707629;0.3461095;0;
-36.73975;0;0;-3.196635;0.9860611;0.004319162;-29.13792;-27.67404;0.08927809;-0.1090097;0;
-631.5913;0;0;-582.6522;1.051443;-2.540915;-616.1885;-616.3503;0.1541557;0.4108386;0;
-603.2831;0;0;-589.0632;-6.986589;-1.399774;-591.7064;-590.9935;0.08903348;0.8002298;0;
-235.0492;0;0;-249.1419;-8.78823;-3.608682;-228.2317;-228.3941;0.02397668;0.3446544;0;
-246.5571;0;0;-255.3258;-5.430497;-0.2560313;-237.2478;-239.9711;-0.2359168;-0.04549601;0;
27.67789;0;0;-2.008935;-3.348936;0.8159529;32.41769;30.1968;-0.3006471;-0.1104176;0;
660.1447;0;0;611.2473;-6.15861;-10.30379;657.0087;655.2897;0.2193937;-0.04533935;0;
591.8278;0;0;579.5862;-6.286143;-12.57073;592.5681;589.0392;0.4140753;0.08464091;0;
188.9354;0;0;207.3157;12.20697;-12.42426;193.423;191.8343;0.08882256;0.1495232;0;
214.7325;0;0;231.0953;17.01748;-14.48812;217.0291;219.8773;0.218668;0.2143403;0;
-32.60906;0;0;5.538895;20.48301;-11.05756;-23.88044;-21.40995;0.4133503;0.08419025;0;
-630.4008;0;0;-576.5491;25.08412;-11.38136;-616.9333;-616.4019;0.08809825;0.2790077;0;
-602.656;0;0;-583.1536;17.55683;-8.288712;-595.199;-593.0439;-0.1068923;0.603564;0;
-247.4787;0;0;-254.1078;18.47719;-6.873864;-240.5914;-239.5004;-0.04181755;0.4730229;0;
-255.101;0;0;-260.1618;4.326084;-9.27822;-245.0348;-248.2553;0.2180938;0.2126782;0;
36.32143;0;0;8.527185;-2.510766;-7.996222;40.50548;37.35075;0.08794001;0.08252985;0;
660.3463;0;0;613.527;7.404743;-13.54765;657.4672;656.0023;-0.3019524;-0.04748778;0;
588.9683;0;0;575.6168;4.115749;-15.07464;590.4024;586.7526;-0.106747;-0.04744006;0;
198.1351;0;0;216.2812;8.934384;-10.70573;204.6902;202.4184;0.02329497;-0.04739239;0;
218.8006;0;0;236.3662;10.06351;-10.76195;222.8503;225.5782;-0.1066631;0.08258992;0;
-31.66851;0;0;4.807474;3.35559;-8.00484;-23.31247;-20.83718;0.02337874;0.2124416;0;
-628.4617;0;0;-574.3438;4.691389;-6.992174;-611.8057;-611.1445;0.08832259;0.08229347;0;
-604.467;0;0;-585.0735;-8.173072;-4.97566;-591.201;-588.479;0.08823384;0.01724344;0;
-240.2923;0;0;-250.7783;-12.45177;-2.358327;-231.5999;-229.8802;0.5429166;-0.1127086;0;
-252.732;0;0;-254.8991;0.5551891;-7.379555;-241.7995;-244.1419;0.4124364;-0.3074974;0;
23.38327;0;0;4.101931;2.228595;-6.434501;29.05745;27.27962;0.1521526;-0.1772537;0;
664.5375;0;0;623.9113;1.624119;-6.093121;662.1475;661.5583;0.1519997;-0.04714091;0;
599.9019;0;0;594.7362;2.694214;-6.220964;602.5118;600.0492;0.2168143;0.08284116;0;
187.6311;0;0;213.0177;8.786099;3.229636;194.2363;194.15;0.2815638;0.08275792;0;
212.3675;0;0;232.2314;11.45659;6.240623;215.1555;219.692;0.08637886;0.1476421;0;
-31.59837;0;0;7.923155;6.354862;8.243718;-23.56575;-20.03337;0.1512594;0.4723305;0;
-634.576;0;0;-581.1013;5.812613;11.31665;-622.9908;-621.1486;0.2160748;0.1470191;0;
-606.8895;0;0;-590.2625;4.735045;10.0326;-600.8755;-597.6609;0.02095562;-0.1779653;0;
-244.2117;0;0;-255.3374;3.859632;11.16123;-237.6416;-236.0544;-0.04403277;-0.1128191;0;
-245.0283;0;0;-255.4556;-2.440886;8.738631;-236.091;-238.5658;-0.2388906;-0.1127058;0;
43.94781;0;0;14.79033;-5.988407;6.854451;47.12902;44.46927;-0.5634872;-0.1125925;0;
661.0934;0;0;617.41;0.7163916;11.40228;657.4623;655.8672;-0.4979537;-0.4373161;0;
587.4658;0;0;579.4959;0.9831154;11.12289;586.587;583.1819;-0.04268195;-0.4368767;0;
201.3818;0;0;222.5303;-2.500497;6.289067;204.8767;202.6619;0.08729562;-0.04663366;0;
226.7291;0;0;239.7979;-3.503338;4.943089;228.284;230.2568;0.1521752;0.0833479;0;
-26.87134;0;0;4.112781;0.6533676;2.660824;-21.38254;-19.84895;0.2169897;0.2781662;0;
-620.7958;0;0;-568.3536;1.724438;1.452458;-607.254;-607.2213;0.02186962;0.342854;0;
-596.4964;0;0;-575.9034;-5.109798;0.8481521;-584.53;-582.873;0.1517823;0.2125748;0;
-236.2653;0;0;-245.3656;-6.845976;0.9812657;-228.9336;-228.9025;0.2165972;-0.2424102;0;
-244.8985;0;0;-250.7412;-5.566299;1.248212;-236.5746;-240.1042;0.0214775;-0.8268726;0;
28.14799;0;0;2.196183;-6.163918;1.715838;31.59092;28.75198;-0.04351142;-0.4362378;0;
664.175;0;0;614.886;-6.55889;6.536763;659.2437;657.3446;-0.2383697;-0.1759301;0;
600.8516;0;0;586.2822;-5.21313;7.869853;600.423;596.2145;-0.04322819;-0.04581862;0;
193.0775;0;0;212.3808;-11.50453;12.41666;196.5849;194.1922;0.2816519;0.2790641;0;
221.0569;0;0;234.5936;-13.83652;14.14562;221.0624;223.6697;0.4113036;0.08388171;0;
-20.1691;0;0;12.34448;-0.4933792;13.32761;-13.85422;-11.74936;0.6057924;0.2137321;0;
-624.3452;0;0;-573.436;1.583221;14.72086;-612.4144;-612.1233;0.4102817;0.2784847;0;
-604.0402;0;0;-586.353;1.514282;3.989045;-597.119;-595.4538;-0.04490199;0.08330285;0;
-240.8655;0;0;-248.7457;3.255048;0.4350637;-234.2011;-233.787;-0.3696936;0.0182518;0;
-243.0597;0;0;-248.9955;-2.508998;3.046839;-232.8413;-235.9883;-0.1094527;0.01823346;0;
39.91738;0;0;13.7477;-3.377134;1.101394;44.62829;41.73433;0.4753633;0.08318248;0;
661.0026;0;0;618.2426;-8.397582;3.310602;658.0876;656.3209;0.8646896;-0.0468358;0;
593.7468;0;0;586.0746;-10.66632;4.111071;594.5204;592.006;0.4740168;-0.1117561;0;
203.4711;0;0;228.7901;-12.93278;3.905992;208.3669;207.9164;-0.1761329;-0.04667644;0;
223.5065;0;0;245.864;-15.5991;5.777589;226.2109;229.7589;-0.04602123;-0.04662954;0;
-25.1557;0;0;13.42115;-6.674819;4.499108;-16.58195;-13.16249;0.148927;-0.11155;0;
-616.7705;0;0;-560.1166;-4.123492;4.427604;-599.9595;-598.7924;0.3436794;-0.30634;0;
-592.85;0;0;-569.049;-5.525868;13.06371;-579.1169;-577.576;0.7331381;-0.1111301;0;
-234.9964;0;0;-240.9543;-2.506206;15.26102;-225.8997;-225.5474;0.4075648;0.1488509;0;
-245.255;0;0;-247.4588;-4.512444;12.90141;-234.9181;-238.1268;0.3421879;-0.1761354;0;
31.60241;0;0;7.41185;-4.306839;13.42418;37.30624;34.91283;0.2119094;-0.3058931;0;
666.1891;0;0;620.5962;3.668092;9.927704;663.5789;663.7491;-0.1131402;-0.3055857;0;
602.1141;0;0;595.0476;5.204648;8.377121;603.567;602.675;0.08187546;-0.0454093;0;
187.03;0;0;216.5147;6.404867;5.555542;193.6663;194.0246;0.01682585;0.3444404;0;
211.0799;0;0;237.474;8.139743;2.736677;214.3987;218.5672;-0.1131257;0.01925759;0;
-17.45497;0;0;24.5298;-0.1064823;2.80091;-9.766713;-6.539364;0.2118246;-0.2406311;0;
-622.8831;0;0;-566.7601;-2.71932;0.3198493;-610.7673;-608.7301;0.1466445;-0.1104547;0;
-606.3277;0;0;-584.6189;-1.376441;1.391255;-599.2841;-595.8121;-0.3732416;-0.3052457;0;
-235.9044;0;0;-239.5172;-3.652233;0.9879593;-228.7428;-226.8986;-0.4378339;-0.2399717;0;
-246.9117;0;0;-246.8352;-0.299661;-3.567751;-235.7594;-236.853;-0.04758995;0.08510619;0;
27.32369;0;0;5.723516;2.045165;-3.832098;33.59225;33.31183;-0.1125095;-0.04491402;0;
655.3555;0;0;613.4123;-9.678537;-8.248999;653.8717;653.0294;-0.2423311;0.08506581;0;
589.7922;0;0;579.9999;-11.54482;-9.915283;591.1209;587.2809;-0.1771203;0.214915;0;
200.5199;0;0;222.534;-1.620236;-4.81474;206.1576;204.8202;-0.111975;-0.4349744;0;
221.2454;0;0;240.1765;-0.5468813;-4.943868;224.816;227.9777;-0.1768298;-0.4995046;0;
-33.91126;0;0;3.991217;6.688313;0.6205614;-24.53466;-21.87591;0.1481846;0.1506707;0;
-625.3923;0;0;-565.7264;9.360909;2.696409;-607.7793;-606.1852;0.2779704;0.02058462;0;
-603.0249;0;0;-576.7772;12.96785;0.6172285;-588.8654;-585.6486;-0.2420477;-0.1093708;0;
-252.3449;0;0;-258.2949;17.4428;2.492131;-241.1356;-239.4214;-0.1118698;0.2805432;0;
-255.3397;0;0;-259.2223;3.828591;-6.954845;-242.2676;-244.6156;-0.1117573;-0.04457542;0;
30.83561;0;0;7.279387;2.417248;-9.961967;36.71069;34.86483;-0.4364818;-0.3044;0;
655.678;0;0;612.9676;0.4724362;-5.330256;653.1764;652.3943;-0.1112065;0.475514;0;
585.3043;0;0;579.1184;-3.881319;-7.334389;588.3024;585.5222;0.2787093;0.6049709;0;
177.8581;0;0;202.6629;11.19313;-3.642958;184.5389;183.698;0.0185599;-0.1752451;0;
201.1676;0;0;219.076;13.79385;-3.505332;204.6558;208.251;-0.1763608;-0.3699711;0;
-28.73156;0;0;8.898861;10.36472;-5.913195;-19.31239;-16.22056;0.2785878;-0.1097299;0;
-630.0879;0;0;-573.8172;13.50213;-5.103458;-616.6177;-614.7784;0.4082426;0.2801844;0;
-619.8971;0;0;-598.7278;5.852757;-13.73888;-611.8127;-608.7259;0.147963;0.5397722;0;
-250.9594;0;0;-258.2345;4.842498;-15.93552;-243.0706;-241.6734;-0.1770224;0.4092952;0;
-254.6427;0;0;-259.5368;10.86585;-13.30717;-244.3256;-245.8034;-0.5016812;0.2789492;0;
15.47751;0;0;-8.527035;10.98866;-14.56647;19.53743;18.8107;-0.04640572;0.1487342;0;
646.6447;0;0;605.7353;14.19279;-10.0641;643.0793;643.1655;0.2135103;0.2135521;0;
585.6503;0;0;580.4515;14.51333;-9.719076;585.5868;584.236;0.01839371;0.3432722;0;
180.9524;0;0;206.6809;16.70955;-4.886662;185.3867;185.7864;0.08334257;-0.04687674;0;
200.5107;0;0;218.7171;17.56341;-1.264795;202.4418;206.964;-0.04667585;-0.1767643;0;
-41.5692;0;0;-6.577084;10.51219;-11.44469;-34.89243;-30.81202;-0.1115963;-0.2415541;0;
-628.9821;0;0;-573.9728;8.559245;-12.03603;-615.1907;-612.1763;-0.04651682;-0.3062787;0;
-604.6746;0;0;-582.0792;3.996293;-12.62666;-595.2697;-590.2594;-0.1114374;0.08383314;0;
-254.3677;0;0;-260.0309;0.5086774;-15.62821;-248.7829;-245.4643;-0.1762928;0.01878156;0;
-258.8598;0;0;-260.5817;1.579893;-4.761513;-250.5944;-250.9023;-0.04618097;0.01876269;0;
24.94531;0;0;3.922318;0.03806426;-3.41707;29.14188;28.77183;0.08380012;0.4735152;0;
647.6072;0;0;607.1777;-1.703286;-5.423125;644.5532;643.9337;-0.4360228;0.08323538;0;
582.0516;0;0;575.5206;-3.041721;-2.872324;583.6859;580.8806;-0.3706174;-0.241685;0;
183.9166;0;0;208.8139;-0.02455514;-15.46199;190.6716;190.118;-0.1103756;-0.0465401;0;
208.1571;0;0;229.656;0.1765403;-18.46056;211.7194;215.8514;0.01967;0.01847402;0;
-29.1829;0;0;10.66021;0.3100848;-11.74396;-21.12644;-17.12347;0.4094543;0.08342279;0;
-627.6028;0;0;-572.9946;1.448849;-12.60282;-614.8693;-612.1821;0.3440755;-0.1765304;0;
-610.1057;0;0;-591.097;-2.169929;-8.035436;-602.0701;-597.9489;0.01889308;-0.1113857;0;
-244.7384;0;0;-249.6744;-1.297093;-6.687825;-236.1487;-233.8433;0.1488088;0.01866093;0;
-251.9888;0;0;-249.6109;-6.252282;-6.815071;-239.6595;-241.6043;0.2136266;-0.2412272;0;
21.12729;0;0;4.199951;-7.987312;-5.535547;27.75946;26.44138;0.08347726;-0.2409848;0;
654.7875;0;0;618.512;1.733605;-8.812027;654.2292;654.2242;0.01842604;-0.1757753;0;
595.2217;0;0;593.028;3.003685;-9.406019;598.2246;596.9703;0.08337487;-0.1755987;0;
189.7646;0;0;219.6819;8.493023;-9.865448;197.3872;198.0082;-0.04664359;-0.1754223;0;
209.6264;0;0;234.8285;12.03544;-10.65933;214.6176;218.6738;0.2132726;-0.2402133;0;
-30.58861;0;0;11.89197;6.329918;-12.92592;-21.47949;-17.42739;0.6678298;-0.3699067;0;
-623.8221;0;0;-561.5817;6.925794;-14.52052;-606.2264;-602.5532;0.342322;-0.3045676;0;
-601.8936;0;0;-574.6356;4.709008;-11.35785;-587.2516;-582.3951;-0.4376301;0.08554246;0;
-244.4057;0;0;-249.284;3.63255;-11.14549;-235.2132;-232.2981;-0.3072557;-0.1744129;0;
-251.2815;0;0;-251.2823;4.96807;-13.21064;-240.9113;-241.435;0.4076938;-0.7589437;0;
25.58195;0;0;8.33977;4.427215;-14.00116;31.00669;31.3581;0.3423168;-0.4333444;0;
654.6775;0;0;617.8375;6.56622;-12.24554;652.5381;653.5139;0.01713617;0.1517971;0;
597.673;0;0;594.1033;7.095486;-12.7691;599.2839;598.5095;0.1470536;0.02170991;0;
195.3994;0;0;225.3789;7.959013;-15.3686;201.1315;202.9816;0.01697119;-0.04327926;0;
208.8212;0;0;237.084;8.353157;-16.89377;210.7995;217.3329;-0.3078826;0.1516663;0;
-32.26756;0;0;12.14618;8.679556;-18.88616;-26.60561;-20.76594;-0.3075732;0.02157919;0;
-630.1846;0;0;-572.7595;8.268693;-20.07287;-619.5933;-615.8834;0.01757255;-0.1083772;0;
-618.0571;0;0;-603.4808;8.194012;-26.61691;-618.7833;-614.2026;0.1474896;-0.04330096;0;
-252.7444;0;0;-266.356;8.252151;-30.07316;-255.7812;-253.7039;-0.3723974;0.2815793;0;
-255.1142;0;0;-254.7816;0.0721859;-24.75141;-245.7166;-247.3895;-0.5019578;0.1513617;0;
17.94257;0;0;-0.5907391;-3.611582;-24.59257;23.45759;23.03579;-0.3065515;-0.1086598;0;
654.4796;0;0;613.3513;-0.7275649;-27.18019;650.244;650.4473;-0.5011455;-0.04358329;0;
596.6632;0;0;590.871;-3.20508;-26.75099;596.1174;594.4465;-0.3707072;-0.1085068;0;
187.0817;0;0;212.4671;-3.67135;-27.79571;190.2222;190.3645;-0.2404;0.08650424;0;
207.9457;0;0;227.5585;-5.341625;-28.1027;208.8966;213.2242;-0.1751911;0.2813194;0;
-29.33162;0;0;9.189461;-8.417716;-22.98388;-22.69701;-17.93651;-0.04508044;-0.04380006;0;
-629.0632;0;0;-569.8412;-9.748428;-20.95142;-613.5647;-610.4332;0.0199322;0.151146;0;
-611.0648;0;0;-585.0732;-16.37007;-22.2699;-600.6418;-596.5765;0.08487952;-0.04390792;0;
-256.5037;0;0;-258.7116;-18.83186;-20.17118;-251.2137;-248.0894;-0.1101078;-0.8884392;0;
-260.8687;0;0;-260.8254;-20.82267;-22.42821;-252.5854;-252.9625;0.01993752;-0.3678078;0;
34.24525;0;0;10.55038;-23.54744;-22.27171;37.14785;37.70818;0.2797869;0.2822352;0;
665.3936;0;0;621.2953;-15.8216;-16.02016;659.5477;661.6691;-0.240233;-0.04288511;0;
604.8176;0;0;595.6211;-13.12638;-14.73139;602.3508;602.1589;-0.499861;-0.1078094;0;
214.1559;0;0;238.6393;-19.00769;-10.22885;215.3773;217.6843;-0.174522;-0.04273369;0;
225.9972;0;0;251.7053;-18.05059;-7.874168;225.7806;234.2071;0.02055537;-0.1726254;0;
-19.04434;0;0;25.50343;-16.42486;-11.55032;-13.07635;-5.407883;-0.1743673;-0.4323213;0;
-606.7922;0;0;-549.4207;-17.34636;-12.20842;-596.8947;-591.5453;-0.4340615;-0.4968543;0;
-592.502;0;0;-570.6702;-6.075798;-11.52644;-586.6748;-579.9565;-0.3036906;-0.2364857;0;
-236.5852;0;0;-241.7618;-3.055583;-12.31854;-229.6395;-224.8019;-0.04351613;0.02362132;0;
-242.282;0;0;-245.6418;-10.82204;-15.52134;-232.2823;-231.1977;0.02149494;0.08856493;0;
30.51197;0;0;4.979139;-11.07959;-16.04161;34.00486;36.77499;0.2163754;-0.3013281;0;
665.9119;0;0;622.6012;-15.22067;-22.18767;661.1555;665.6719;0.3460926;-0.43096;0;
613.5812;0;0;607.2955;-16.94766;-24.71073;613.2024;615.5904;0.2807775;-0.04072295;0;
205.0448;0;0;234.6847;-16.79593;-16.51423;211.6628;215.4227;0.08559339;0.02428532;0;
221.268;0;0;252.4399;-16.37789;-14.68909;229.1287;236.5705;-0.1093946;-0.04070643;0;
-14.5859;0;0;35.73254;-19.84406;-15.41115;0.2009106;6.82312;-0.04431738;0.02430182;0;
-618.3928;0;0;-551.3208;-21.43171;-14.52488;-596.4369;-591.1956;-0.3691096;0.08924475;0;
-603.8409;0;0;-572.5059;-5.066829;-6.20465;-587.2794;-581.0439;-0.5636407;-0.3656163;0;
-231.6084;0;0;-234.6627;0.02847665;-2.045474;-222.7472;-218.7669;-0.1732703;-0.3002816;0;
-235.4362;0;0;-238.3624;-2.516171;-10.75108;-227.396;-227.9174;-0.04316152;0.2197589;0;
33.72773;0;0;10.81447;0.9026085;-11.34312;36.57496;36.05409;-0.1080855;0.1545707;0;
663.8771;0;0;620.8719;-0.8405868;-6.843867;659.1627;659.4545;-0.3028789;0.1544154;0;
610.2366;0;0;604.1937;-0.03545891;-6.435093;610.0248;608.817;-0.1726399;0.1542602;0;
209.5746;0;0;239.6445;-2.246226;-6.830524;214.7977;216.0898;0.08740295;0.2190726;0;
218.9841;0;0;245.0883;-5.124357;-6.421763;222.1405;226.9921;-0.04261956;0.4137545;0;
-24.67604;0;0;15.58232;4.191541;-7.219106;-17.58727;-13.92747;0.02239061;0.1534694;0;
-609.045;0;0;-556.7706;5.995991;-8.283579;-599.652;-597.2452;0.2822375;-0.3664236;0;
-586.569;0;0;-568.3301;-5.79903;-2.581828;-583.0575;-579.4038;0.08705185;-0.4959901;0;
-234.5938;0;0;-238.7994;-7.668237;-1.641473;-230.7734;-228.4977;-0.4977417;-0.1056877;0;
-240.6674;0;0;-240.6834;-8.263744;-3.984226;-233.7899;-235.6394;-0.3673069;0.2192552;0;
42.24488;0;0;19.99005;-10.53262;-3.042462;43.86804;42.20781;-0.3669378;0.08910026;0;
671.4486;0;0;627.9769;-5.967682;-8.598866;666.4485;665.9144;-0.6914058;-0.04092397;0;
608.3054;0;0;596.9861;-5.826988;-8.92514;606.3712;603.6512;-0.300907;-0.1058502;0;
196.9006;0;0;221.7621;-3.008094;-8.380309;200.2158;199.6225;-0.17067;-0.1707112;0;
212.2575;0;0;238.5932;-0.3931029;-7.836025;214.2574;218.5997;-0.4303679;-0.5603437;0;
-14.09215;0;0;29.77077;-6.689348;-4.077229;-7.34657;-3.320988;-0.2350334;-0.234944;0;
-612.1523;0;0;-550.2177;-6.816348;-3.202354;-596.6055;-594.2706;-0.1048626;-0.1047732;0;
-604.3534;0;0;-578.1505;-2.522591;9.326305;-593.07;-589.8629;-0.03978986;-0.2995699;0;
-233.3073;0;0;-239.6144;-1.314608;14.27355;-228.2821;-226.8274;0.02521747;-0.03939957;0;
-238.3203;0;0;-241.8099;-0.9111451;10.0394;-231.9258;-234.8453;0.02519213;0.2854767;0;
26.911;0;0;2.060609;-0.2406443;11.16803;27.80179;26.13459;-0.03980053;0.3501572;0;
663.9387;0;0;619.6231;3.510642;10.62094;657.3324;658.4155;-0.1047279;0.08993603;0;
611.9849;0;0;606.8816;4.64619;9.873458;610.6326;609.778;-0.1046226;0.154813;0;
203.8873;0;0;233.7715;7.187117;4.170109;206.5968;206.9925;-0.1694849;0.3495595;0;
216.9882;0;0;241.5326;10.12666;0.8168946;217.2587;221.1523;-0.03937988;0.08933887;0;
-15.05077;0;0;23.5244;0.2034951;0.3471932;-10.22035;-7.392676;0.1555617;-0.1056529;0;
-599.5543;0;0;-546.7751;-2.074861;-1.997436;-591.2305;-589.2803;-0.2343986;-0.2354815;0;
-586.7081;0;0;-563.592;7.907558;-3.536037;-581.2662;-577.3813;-0.3640978;-0.1702775;0;
-236.1694;0;0;-233.9411;9.507203;-4.671194;-229.1713;-227.2269;0.2209741;0.02479563;0;
-243.4284;0;0;-237.8914;6.082375;-5.001414;-233.5637;-236.2439;0.0908174;-0.300066;0;
35.80101;0;0;19.34346;5.5404;-5.130355;40.97061;38.60542;-0.1041759;-0.4296992;0;
667.1976;0;0;629.0176;10.75877;-4.65632;664.4285;664.3146;0.4156675;0.2853734;0;
614.1785;0;0;605.2097;11.55224;-4.785606;612.6616;611.1735;0.02544582;0.2850866;0;
215.574;0;0;237.2862;7.253727;-1.565617;219.181;218.0691;-0.4293512;-0.1699713;0;
229.4128;0;0;245.0437;5.638848;-0.6264051;231.6419;233.2798;-0.03911568;0.02510157;0;
-2.701162;0;0;27.90653;6.169045;-4.778595;2.149347;2.223893;0.1558256;-0.4296951;0;
-599.1486;0;0;-546.6452;6.162847;-6.448245;-588.7433;-590.5429;0.2856038;-0.364296;0;
-588.9265;0;0;-571.0209;-4.627964;-3.896537;-583.2792;-583.0155;0.2853168;0.2207762;0;
-219.3327;0;0;-235.3031;-8.440731;-3.691673;-219.1258;-219.737;-0.03980662;-0.3641517;0;
-232.7929;0;0;-244.4994;-1.868166;-12.32852;-229.088;-234.8835;-0.1697013;-0.5586879;0;
27.18544;0;0;-4.186938;-2.201082;-14.66053;27.57574;21.53627;-0.1045634;-0.2982571;0;
665.962;0;0;614.6937;-1.529284;-12.83726;657.7938;653.6968;0.02547631;0.09184662;0;
616.4424;0;0;603.0815;-0.9245355;-13.42721;611.968;607.0631;-0.104484;0.6114931;0;
208.2154;0;0;228.1013;2.357947;-11.67216;207.4311;204.7176;-0.299281;0.4159766;0;
226.9966;0;0;239.1164;4.700102;-10.72279;221.1532;221.7532;-0.2340129;0.02575459;0;
-4.177861;0;0;22.29752;-0.6632547;-8.367618;-7.829045;-9.041196;-0.03887579;-0.1691733;0;
-598.9997;0;0;-560.6194;-1.06473;-7.287483;-601.5852;-603.9206;0.09109796;-0.104036;0;
-584.3423;0;0;-585.3558;-0.6615185;-3.395272;-593.2971;-593.4437;-0.2338303;-0.03896413;0;
-230.058;0;0;-257.3698;-2.334817;-2.186168;-237.6294;-239.2752;-0.2985627;0.09100972;0;
-236.5734;0;0;-257.2986;2.624022;-1.983022;-240.3267;-245.7813;-0.03839331;0.4807223;0;
43.83594;0;0;6.82734;3.424693;-0.641493;34.15194;29.32746;0.02661261;0.2853373;0;
671.6013;0;0;614.1402;-3.075483;-9.214419;653.0565;648.4868;0.1565205;-0.03978616;0;
621.8887;0;0;591.7841;-4.61361;-11.21465;604.4869;597.7354;0.2213306;-0.1696809;0;
230.6476;0;0;232.4947;-3.268828;-11.00243;218.011;213.9523;0.2211082;-0.1695104;0;
241.2854;0;0;242.0687;-3.600336;-12.3979;227.1622;226.9807;0.1559187;0.1554967;0;
-2.584593;0;0;18.37526;-6.074965;-9.773226;-11.88351;-13.62654;0.02582736;0.02540575;0;
-598.0327;0;0;-553.918;-6.471002;-9.62944;-599.4512;-602.3794;0.1557361;-0.1695218;0;
-583.6262;0;0;-573.3514;-8.205812;-5.13203;-589.9159;-591.5293;-0.1042898;0.02555056;0;
-215.9118;0;0;-241.4419;-10.54209;-3.318334;-227.8798;-230.9908;-0.299087;-0.03944247;0;
-224.3156;0;0;-248.5706;-0.4174423;-2.980085;-232.7733;-239.4419;0.02605024;0.09053186;0;
34.46738;0;0;-4.505841;1.592709;-1.637432;22.39499;16.73257;0.09099141;0.4152776;0;
675.7354;0;0;617.4361;-5.040323;-4.114155;654.2424;650.0224;0.02593264;0.2849256;0;
638.8871;0;0;611.4434;-4.834188;-4.243987;619.5396;612.4503;-0.1040281;-0.1051647;0;
230.2002;0;0;233.0189;-10.85755;-7.119867;212.2465;207.3508;-0.1688909;0.02487565;0;
240.2762;0;0;238.282;-12.78902;-8.787286;218.0927;217.887;0.02618081;-0.105084;0;
3.841046;0;0;23.21305;-12.44138;-7.974661;-10.82399;-12.27884;-0.03881284;-0.6896845;0;
-596.3611;0;0;-556.3315;-13.96912;-9.37329;-603.89;-606.0305;0.1561282;-0.4291221;0;
-579.8324;0;0;-575.0753;-9.267012;-8.694042;-592.2263;-592.678;0.285906;-0.4936583;0;
-218.9309;0;0;-242.3519;-8.387044;-9.69005;-233.0614;-236.1364;0.02574934;-0.6880643;0;
-227.8313;0;0;-249.9794;-5.699299;-8.67557;-241.3855;-248.6427;-0.3640806;-0.3625362;0;
50.88261;0;0;7.392524;-3.281699;-8.465904;30.53303;24.28255;-0.2987474;-0.4271393;0;
678.7659;0;0;620.0771;-6.15879;-15.55747;652.8145;647.3824;0.1563242;-0.2318081;0;
624.2983;0;0;601.838;-5.817809;-18.55594;603.683;596.3198;-0.03873493;0.2881636;0;
231.0559;0;0;238.0408;-3.936929;-15.25526;214.0219;209.2898;-0.1036634;0.02800467;0;
239.1321;0;0;238.9885;-3.329761;-16.17757;217.9298;217.4503;0.4811469;-0.03699083;0;
-4.798221;0;0;12.86188;-7.747044;-18.90761;-22.10612;-22.95992;0.3507288;0.2878831;0;
-593.6224;0;0;-554.8657;-10.82072;-18.62068;-602.8545;-605.1442;0.02553962;0.09269178;0;
-577.8461;0;0;-573.3611;-2.504451;-24.02747;-589.1303;-590.9805;0.1554486;-0.2972054;0;
-217.5088;0;0;-244.5749;-1.765;-24.8741;-232.155;-235.6275;-0.1045769;-0.2969068;0;
-228.3472;0;0;-253.0748;-10.13597;-18.88775;-241.292;-248.5716;-0.2344065;-0.2316411;0;
39.62269;0;0;-4.945093;-11.33123;-17.12722;21.50596;15.10827;-0.03926897;-0.3613431;0;
681.3853;0;0;616.2476;-18.48617;-12.55529;655.2908;650.2738;0.02573783;0.0288241;0;
630.226;0;0;598.4496;-22.82185;-9.394597;606.6564;598.5836;0.09067931;0.4185992;0;
215.6133;0;0;215.7903;-15.09576;-6.571875;195.878;189.1876;0.4154249;0.1583092;0;
231.9509;0;0;229.2541;-14.47836;-3.819093;211.6107;209.7995;0.4150075;-0.0367519;0;
1.895801;0;0;18.81688;-19.4203;-2.944477;-13.239;-15.48563;-0.429985;0.09321973;0;
-598.3044;0;0;-564.9711;-19.26707;-1.400911;-608.9887;-612.42;-0.2996182;0.2230607;0;
-587.8332;0;0;-589.3909;-17.90756;-3.810889;-602.3174;-604.121;0.4802909;0.02793458;0;
-228.173;0;0;-254.7166;-17.28733;-4.677838;-243.1424;-245.9437;0.09000428;-0.1020282;0;
-235.5649;0;0;-258.2712;-13.65264;-4.606155;-249.2699;-254.3797;-0.2998902;0.09297638;0;
43.65654;0;0;-0.01636687;-11.96398;-5.87408;23.78097;19.11352;0.09021518;0.09288295;0;
676.1072;0;0;613.4878;-10.54544;-5.801195;650.0673;645.342;0.2850266;-0.03714507;0;
623.5165;0;0;594.3182;-8.659807;-6.13028;601.1259;594.1565;0.2197728;-0.03710775;0;
227.5887;0;0;229.3416;-9.722833;-8.736455;207.4069;202.0688;0.2845193;0.09286423;0;
239.5414;0;0;237.6694;-9.109851;-9.062592;215.6942;214.8592;0.3492008;0.1577383;0;
2.16987;0;0;17.47865;-7.961621;-9.321417;-17.46789;-18.61445;0.0240132;0.09261242;0;
-595.5319;0;0;-564.3715;-7.150314;-9.513;-608.5907;-611.4227;0.08895641;0.1574867;0;
-588.8116;0;0;-592.7274;-8.214856;-5.685535;-605.3555;-606.5605;0.1538344;0.09236112;0;
-222.4663;0;0;-257.1127;-8.608744;-4.809045;-242.4918;-244.945;-0.04122223;0.222203;0;
-228.1772;0;0;-260.7274;-2.504525;-1.923946;-244.0598;-249.9463;0.1537212;0.2869471;0;
35.98186;0;0;-14.21416;0.3783799;-0.3815278;16.99188;11.42363;-0.1063026;0.09175672;0;
668.6277;0;0;602.2402;-6.253433;-2.256545;640.8487;636.0981;-0.4310325;0.02669718;0;
620.1674;0;0;587.7671;-6.783012;-2.053328;595.4148;588.6075;-0.1057627;0.156605;0;
214.6228;0;0;208.1795;-1.618633;-6.271068;193.4558;188.0921;-0.04068908;0.3513497;0;
230.8988;0;0;215.8414;-1.884451;-8.40822;206.3173;205.5193;-0.0406482;0.221062;0;
-0.9042959;0;0;3.731008;1.868487;-6.658216;-19.71398;-20.57368;0.08932733;0.2858072;0;
-604.1002;0;0;-579.9793;2.267775;-7.254372;-617.7061;-620.1266;0.3491069;0.5453894;0;
-593.873;0;0;-600.1986;0.5241844;-9.591485;-611.7131;-612.5695;0.5436582;0.09006999;0;
-224.7115;0;0;-251.8328;1.260592;-9.581848;-241.6591;-243.5767;0.1533079;-0.2998246;0;
-231.045;0;0;-251.9546;-8.92208;-12.7203;-244.4773;-250.6407;-0.04174821;0.02531341;0;
33.61677;0;0;-8.448713;-11.72615;-14.717;15.20045;9.293077;0.1531958;-0.1696141;0;
663.2665;0;0;598.6921;-12.25024;-4.989933;636.6228;632.6579;-0.3017296;-0.03950895;0;
617.6851;0;0;584.6598;-15.52046;-3.17638;593.1297;587.6695;-0.3663937;0.2204001;0;
221.2634;0;0;221.4421;-5.658248;-6.120316;200.8556;196.4628;-0.1711235;-0.2345927;0;
233.5348;0;0;230.5274;-3.509109;-5.511442;210.4613;210.2584;-0.430821;0.2204144;0;
-4.767695;0;0;11.21839;-5.983829;-9.055877;-21.94594;-21.52396;-0.4303881;0.4150949;0;
-601.9003;0;0;-562.8168;-3.365849;-9.78359;-608.3791;-609.3943;-0.2350536;-0.2999629;0;
-590.4884;0;0;-582.3662;-8.385332;-13.8596;-599.0222;-599.0994;0.02505196;-0.1047595;0;
-225.2034;0;0;-245.3876;-9.248539;-16.05598;-237.6641;-238.6158;-0.1049079;0.2851498;0;
-230.4119;0;0;-245.4534;-3.946984;-13.02574;-239.0495;-244.0607;-0.03983514;0.1549286;0;
36.06083;0;0;1.669123;-4.679953;-13.14662;22.68425;18.42774;0.544911;0.08980562;0;
665.0834;0;0;608.6748;0.2812429;-10.78901;640.9756;639.0972;0.1545594;0.08971538;0;
621.5616;0;0;595.5695;1.486409;-8.902766;598.7275;595.1643;-0.3653347;0.02465789;0;
221.0131;0;0;226.7187;-4.007441;-9.429684;202.3873;200.0146;0.08980382;-0.1053016;0;
226.8505;0;0;233.9246;-3.5349;-7.812618;208.5558;209.5587;0.2846156;-0.1701631;0;
-1.450287;0;0;26.66865;-13.04219;-6.063212;-13.72966;-13.66471;0.4142643;-0.1050248;0;
-596.6497;0;0;-551.9423;-15.90948;-4.985515;-605.9807;-606.6654;0.6737174;-0.2998213;0;
-591.4899;0;0;-585.1832;-10.20006;-0.6266146;-606.4962;-605.0563;0.0883344;-0.3644874;0;
-217.2709;0;0;-242.5172;-10.12246;1.517347;-231.8248;-231.8232;-0.1716237;0.1556176;0;
-221.9251;0;0;-239.7748;-7.500325;-1.163373;-231.4669;-235.3383;0.3482875;0.6102327;0;
34.98133;0;0;2.03224;-7.760232;-1.363153;21.20125;17.95843;0.08806813;0.5446522;0;
667.9405;0;0;612.9106;3.700793;0.6475827;646.803;644.9377;0.08797964;0.2192682;0;
622.4794;0;0;596.4277;7.380769;0.5129662;605.2986;601.0614;0.412728;-0.2357236;0;
217.1823;0;0;221.4541;0.4744772;-1.429932;203.8294;200.4086;0.02250918;-0.5603234;0;
233.3933;0;0;234.2251;2.282662;-2.634188;215.0563;217.0112;-0.1074481;-0.2349237;0;
0.7756221;0;0;19.28517;-10.98152;-2.698524;-13.60743;-11.8419;0.02259453;0.2850511;0;
-600.298;0;0;-561.4423;-14.65516;-3.09771;-605.6087;-606.7809;0.1525065;0.15483;0;
-588.9503;0;0;-581.8676;-10.0851;-6.309657;-596.8792;-596.9259;0.08738592;0.02473974;0;
-223.6668;0;0;-246.7636;-11.88363;-6.906163;-234.8362;-235.7573;-0.3025059;-0.1052198;0;
-227.6899;0;0;-249.7016;-2.829362;-7.636036;-236.4743;-240.9552;-0.1072999;-0.2350488;0;
43.09039;0;0;-0.6382244;0.1202423;-8.365175;29.00502;24.02882;0.02274255;-0.1048779;0;
669.9195;0;0;606.4948;1.460268;-2.59636;647.54;643.2559;-0.04224764;-0.2347072;0;
620.8332;0;0;590.7679;4.472911;-0.3164534;602.0993;596.5702;0.1526968;-0.03956935;0;
224.096;0;0;223.5461;6.076007;-2.52645;209.5039;205.0423;-0.04235862;-0.1044969;0;
234.1157;0;0;229.5059;8.347077;-1.988048;217.6641;217.0176;-0.1072834;-0.3642613;0;
-2.438296;0;0;11.3848;4.989788;1.229008;-14.0632;-14.14686;0.2826284;0.09087612;0;
-599.1359;0;0;-568.5226;4.649981;1.696654;-607.8131;-608.7712;0.3473118;0.02581746;0;
-590.4755;0;0;-594.4381;3.104091;3.704437;-605.2659;-604.6613;-0.3027106;-0.4939472;0;
-222.5668;0;0;-250.9507;0.7574238;5.509132;-236.9675;-237.8628;-0.4323411;-0.1686142;0;
-229.7144;0;0;-250.3862;4.57408;-2.333163;-239.1657;-244.308;0.1527994;0.1563919;0;
30.5107;0;0;-10.81735;4.03362;-3.402545;16.19641;11.99633;0.02271117;0.02630012;0;
665.8482;0;0;604.1969;2.220906;-2.79628;643.5523;640.7307;-0.1072463;0.2211757;0;
624.5121;0;0;598.9047;2.419745;-4.200112;605.2996;600.1695;-0.04217123;0.2859208;0;
214.3404;0;0;219.993;-4.816355;2.569263;199.3326;196.0193;-0.04212886;0.2856335;0;
226.244;0;0;225.1443;-7.624554;3.705391;208.1902;209.5029;0.1528155;0.2853465;0;
6.18962;0;0;24.95605;-2.995193;4.840255;-7.410681;-6.286708;0.02272726;0.4149945;0;
-592.2658;0;0;-550.0925;-3.862839;6.175051;-598.3562;-598.4827;0.1526391;0.4795448;0;
-589.1719;0;0;-579.5872;-3.055651;3.288702;-599.0043;-598.1312;0.4123551;-0.1706104;0;
-221.6394;0;0;-243.0486;-2.985232;2.682551;-234.3979;-235.0249;-0.107798;-0.170439;0;
-227.2887;0;0;-244.8034;-5.86262;2.411924;-236.2863;-240.9732;-0.367559;0.2195363;0;
35.62013;0;0;1.81871;-6.794734;2.610449;22.07135;18.2013;-0.3022223;-0.105521;0;
663.8935;0;0;609.6989;-5.314038;-5.028106;641.8002;639.3083;-0.3019187;0.08948707;0;
619.8732;0;0;596.655;-3.500038;-7.769232;601.1754;595.9374;-0.236648;0.4142339;0;
225.5108;0;0;235.1743;-13.74528;-3.742572;210.4549;207.0962;-0.2364102;-0.04095377;0;
234.0923;0;0;241.8096;-15.87492;-6.083092;216.3654;217.8826;-0.30114;0.08902208;0;
-5.834971;0;0;18.36629;-6.146076;4.707028;-18.35918;-17.65552;0.153934;0.2188673;0;
-597.1569;0;0;-557.4877;-4.867102;8.252273;-603.8589;-605.5922;0.5435834;-0.3010913;0;
-588.3735;0;0;-580.3533;3.576906;-3.946669;-597.2552;-598.3621;0.1532331;-0.2358215;0;
-226.8387;0;0;-241.4402;9.065668;-4.411584;-235.649;-237.8168;-0.1717575;-0.04068249;0;
-228.6722;0;0;-238.3241;2.09131;-7.153329;-236.4117;-242.0131;0.02331707;-0.3654783;0;
33.55085;0;0;1.170163;2.289303;-8.686749;20.44683;15.60074;0.283163;0.2845623;0;
667.7609;0;0;612.1744;9.320577;-7.472328;648.3607;644.6439;0.08797646;0.6740804;0;
629.4838;0;0;605.6872;9.713353;-8.536547;613.1641;607.0772;-0.107014;-0.106205;0;
219.9943;0;0;228.5804;10.30583;-1.963764;208.3136;203.7321;0.02302824;-0.04113092;0;
232.8292;0;0;237.2212;11.09976;-1.024029;219.2237;218.8947;-0.1069296;0.2837471;0;
7.583316;0;0;31.46116;1.710506;3.196802;-0.9484981;-1.839416;0.1530472;0.2184947;0;
-600.0564;0;0;-554.7133;-0.9031814;5.872785;-599.8965;-602.7855;0.5426975;-0.1065616;0;
-594.331;0;0;-587.0144;-1.035996;-3.041602;-598.9814;-600.4932;-0.04255388;-0.1714219;0;
-219.6094;0;0;-245.5959;-2.776267;-4.914068;-230.6268;-232.5119;-0.1724458;0.2185545;0;
-227.5096;0;0;-247.0983;-0.6973725;-4.708181;-235.8299;-240.3368;0.2175315;0.2183349;0;
35.89918;0;0;-1.036036;-0.2281573;-6.10997;23.5893;19.58669;0.2173129;-0.1067213;0;
666.9834;0;0;611.2822;2.987253;-11.12743;646.2526;642.7538;0.02219256;-0.04164668;0;
619.899;0;0;600.1108;5.127705;-13.46065;602.4999;597.5053;-0.04279708;-0.2365068;0;
225.0368;0;0;236.1904;3.648684;-10.16508;212.1529;208.7876;0.02221326;-0.3012366;0;
231.3699;0;0;238.7017;2.439569;-10.08789;217.1246;217.6982;-0.1727111;-0.1709992;0;
-11.30323;0;0;17.82279;12.4848;-9.876801;-18.97496;-18.83928;-0.04260286;-0.3657294;0;
-597.9969;0;0;-553.9078;14.48101;-9.93386;-601.3506;-602.0897;0.4122113;-0.1054925;0;
-588.1508;0;0;-583.8359;4.553476;-4.230451;-598.0602;-597.5491;0.2168951;0.2844175;0;
-230.6142;0;0;-249.7918;3.610896;-1.881798;-241.3258;-242.6893;-0.2380942;0.08922972;0;
-231.6318;0;0;-244.3559;-7.377445;-7.640317;-238.7095;-243.5074;-0.627659;-0.04079464;0;
31.53125;0;0;-7.791698;-12.25918;-8.034537;20.08784;15.48219;-0.4970936;0.1541484;0;
661.7453;0;0;599.2235;-9.902333;-7.69155;643.6292;639.403;0.0881119;0.08902616;0;
619.4138;0;0;591.1252;-13.44236;-8.018736;603.5023;597.1564;-0.04191132;-0.2359;0;
207.873;0;0;212.4088;-3.382143;-10.2881;194.9135;190.2607;-0.3667059;-0.1706956;0;
221.4072;0;0;221.2533;-0.6320778;-11.34937;205.2124;205.1244;0.08843394;0.08934525;0;
3.106819;0;0;17.69569;-5.856355;-8.725749;-8.94876;-8.599376;0.3482144;0.4140922;0;
-600.6553;0;0;-563.1552;-3.975437;-8.783965;-603.0786;-604.5412;0.1529625;0.3487087;0;
-603.6125;0;0;-593.5737;-7.587789;-5.492975;-607.4077;-608.1191;0.1528088;0.08848901;0;
-229.6311;0;0;-249.5249;-8.384448;-3.813004;-237.6704;-239.5056;0.3475573;0.2833021;0;
-232.149;0;0;-250.9608;-3.083761;-7.359146;-239.2432;-244.6372;0.4121754;0.3479848;0;
25.14251;0;0;-13.14059;-2.143634;-8.155547;12.37088;7.169656;0.2168593;0.2826678;0;
663.0466;0;0;606.1863;-1.739338;-4.798327;641.4172;637.783;-0.1081954;0.1524491;0;
623.7748;0;0;603.7032;-0.5985144;-4.391609;606.4775;601.4725;-0.2380213;-0.2375081;0;
218.4139;0;0;233.2824;-1.402196;-8.473033;207.5058;204.2551;-0.2377822;-0.1073348;0;
226.4403;0;0;237.7332;-0.9322729;-9.268314;214.2938;215.1692;-0.1076085;0.02270773;0;
-10.41826;0;0;19.16656;-0.5955674;-10.26375;-17.86742;-17.74252;0.1523689;-0.1722171;0;
-602.4227;0;0;-556.8132;-0.8633887;-10.99012;-604.4921;-605.8666;0.2821505;-0.3669461;0;
-591.3851;0;0;-584.1772;2.352659;-9.57256;-596.7632;-597.3243;0.2168997;-0.3665774;0;
-234.6574;0;0;-254.6305;3.756815;-9.027078;-240.405;-242.8394;0.2166817;-0.2362744;0;
-238.1073;0;0;-251.6885;-3.346906;-7.544383;-240.6631;-247.2806;0.1514967;0.02383241;0;
30.74694;0;0;-1.873582;-6.759795;-6.264127;22.3216;16.02315;-0.04355758;0.1537431;0;
658.4005;0;0;609.5085;3.495752;-4.181484;641.4255;637.3198;-0.2384158;0.08862133;0;
616.2598;0;0;603.3988;4.697688;-2.636675;603.3622;598.1362;-0.1082416;0.218467;0;
210.4068;0;0;227.4187;-7.163377;-0.6245373;201.8325;198.7982;-0.04316549;0.02334542;0;
218.3163;0;0;229.9388;-10.57146;1.117524;206.2524;207.7188;-0.1080895;-0.2365474;0;
-0.1683532;0;0;30.6828;-9.489106;-1.02693;-7.16017;-7.069542;0.02195383;0.08852699;0;
-601.4285;0;0;-551.1805;-11.62302;-1.561762;-599.98;-601.8884;0.08689912;0.0234707;0;
-610.0695;0;0;-595.3542;-17.30477;1.654866;-610.9963;-611.3411;-0.04312288;0.2183491;0;
-232.521;0;0;-246.9933;-20.77099;1.988118;-236.8826;-238.414;0.1518225;0.3480644;0;
-229.2264;0;0;-236.6252;-19.47732;-0.09022859;-231.3347;-236.4253;0.346572;-0.1070567;0;
23.93933;0;0;-1.880365;-21.6012;0.1776718;18.14742;13.87407;0.021387;-0.1069492;0;
656.4723;0;0;608.5022;-18.83283;-3.707395;641.3159;639.2958;-0.1085692;0.02309301;0;
614.3336;0;0;599.4575;-16.80515;-5.043328;602.0035;597.6115;0.281344;0.2179718;0;
207.9202;0;0;226.6673;-25.42845;0.186286;201.8494;197.4619;0.1511266;0.08781813;0;
214.3954;0;0;232.4365;-24.4649;1.525758;207.2688;207.071;-0.173862;-0.4320089;0;
-16.82886;0;0;17.56084;-20.35448;-0.4181586;-19.20077;-19.96053;-0.1087199;-0.1067381;0;
-605.0787;0;0;-556.7931;-15.51125;-0.5517043;-602.9506;-605.771;0.216226;0.1532386;0;
-602.9715;0;0;-586.5309;-16.36632;3.735636;-605.1558;-605.9744;-0.2387626;0.02314991;0;
-236.0498;0;0;-246.5497;-15.21178;3.798865;-238.8565;-241.2985;-0.8232288;0.1530613;0;
-226.5048;0;0;-235.9946;14.67716;7.278039;-226.5601;-232.9976;-0.5625322;0.1529075;0;
32.53022;0;0;3.622192;24.64275;9.950043;26.54045;21.35876;-0.3020976;0.2826886;0;
658.6203;0;0;608.1896;25.75706;-2.719485;643.9534;640.4011;-0.2368268;0.1524698;0;
616.6668;0;0;596.7715;34.43872;-4.324343;604.6383;599.5279;0.1532153;0.02238196;0;
207.8148;0;0;222.3597;19.13249;-5.190654;200.7335;196.7526;0.477898;0.3471962;0;
220.662;0;0;231.9439;16.90247;-7.998722;212.4008;212.1096;-0.1072883;0.08697795;0;
1.675221;0;0;27.68838;21.9757;2.793324;-3.016919;-3.620198;-0.4969845;-0.4978155;0;
-598.2749;0;0;-554.1095;18.73844;4.130176;-597.0903;-598.8798;-0.1716484;-0.4973153;0;
-602.4838;0;0;-592.0334;24.27931;6.671255;-604.049;-604.5874;-0.2364433;-0.3019136;0;
-229.0034;0;0;-250.5474;24.58971;8.741022;-234.8148;-237.2892;-0.106271;-0.1067082;0;
-231.6468;0;0;-251.1077;16.46068;5.918956;-235.1411;-241.9234;0.2836398;0.08830105;0;
18.5228;0;0;-18.09739;14.09961;6.716804;12.03352;5.445499;0.08845277;0.1531797;0;
654.8718;0;0;600.6722;16.02783;-1.662568;639.8309;635.5608;0.2832659;0.4778624;0;
615.2334;0;0;594.8214;14.80628;-4.139266;603.0811;597.6284;0.3479486;0.802219;0;
202.6973;0;0;213.7899;13.5186;-6.412404;194.6801;190.4198;0.02276231;0.3466415;0;
217.1737;0;0;225.4441;12.56701;-10.22399;206.7283;206.4703;0.02273943;-0.2384129;0;
-9.368252;0;0;20.57045;11.28256;-1.573039;-14.43083;-15.31328;-0.3670875;-0.3031406;0;
-608.2453;0;0;-558.7216;10.86908;-0.7006799;-609.5547;-611.1859;-0.1718166;-0.302836;0;
-606.947;0;0;-592.3929;8.714709;-2.240583;-612.1906;-612.1959;0.3480948;-0.1076297;0;
-248.0797;0;0;-260.3393;8.10274;-0.3628098;-251.8812;-253.8856;-0.04205903;-0.2374563;0;
-245.1443;0;0;-251.9568;8.22832;-6.323804;-245.6936;-251.1317;-0.1719515;-0.5620543;0;
22.34271;0;0;-4.327968;7.818887;-7.791075;15.8594;11.48872;-0.1068113;-0.1716856;0;
646.6315;0;0;601.6218;11.09258;-2.491716;632.7834;629.9788;-0.2366387;-0.2364804;0;
605.0648;0;0;595.1453;12.01944;-2.556196;595.3535;589.8656;-0.04149889;-0.4311448;0;
205.4074;0;0;227.7941;10.73457;-2.821559;199.454;195.0961;0.02351015;-0.2358096;0;
215.6333;0;0;234.4992;10.59006;-2.483809;206.8123;207.0814;0.2833559;-0.3655073;0;
-10.78222;0;0;26.30562;11.65115;-7.236979;-13.59732;-13.64083;0.2181038;-0.170238;0;
-607.7838;0;0;-549.8063;11.70679;-9.239196;-602.3502;-603.2682;-0.04198468;0.3496718;0;
-611.1086;0;0;-583.8614;9.283152;-7.421373;-608.9913;-608.0969;0.08799218;-0.04048363;0;
-238.7439;0;0;-240.8843;8.939032;-8.552626;-240.4393;-240.9825;0.3477731;-0.5601817;0;
-236.0678;0;0;-237.4564;7.925671;-8.142135;-234.7005;-239.5535;0.5423257;-0.2347821;0;
13.85644;0;0;-8.645194;8.989434;-7.196192;11.22431;6.875956;0.02204205;0.2851925;0;
651.1472;0;0;607.179;2.014177;-16.03046;639.7721;636.8024;-0.3677841;0.3498733;0;
613.9488;0;0;602.0711;-1.203028;-18.69367;606.4582;601.0552;-0.2374799;0.08965241;0;
195.6668;0;0;217.8465;18.62415;-10.10132;192.8064;189.7827;-0.1073066;-0.04037237;0;
210.8999;0;0;231.4332;24.23249;-8.95246;204.4817;206.8333;-0.04223144;-0.0403318;0;
-8.826631;0;0;29.8643;15.09847;-8.072686;-10.67821;-9.265995;-0.04218901;-0.1052586;0;
-610.6403;0;0;-553.0602;16.95833;-5.385257;-607.43;-607.9557;-0.2370486;-0.1051529;0;
-613.0876;0;0;-587.5494;17.74557;-9.532788;-613.4413;-612.9046;-0.1068758;0.2847569;0;
-251.4656;0;0;-253.8764;17.92881;-9.590193;-251.0693;-252.0948;0.2830357;0.3494381;0;
-252.2124;0;0;-252.1846;19.78583;-3.552214;-247.9435;-253.1533;0.3477186;0.1541849;0;
13.53258;0;0;-6.804373;18.82795;-2.208986;12.73727;7.96993;-0.04243482;0.02409533;0;
647.7627;0;0;605.5197;16.5992;-1.938835;638.5974;635.2091;-0.1073595;-0.3007656;0;
607.2568;0;0;597.9772;11.02282;-0.9991258;600.9118;595.5905;-0.172219;-0.3004634;0;
201.5378;0;0;226.6877;15.2313;-2.136832;200.1967;197.192;-0.3019806;-0.04029211;0;
214.5786;0;0;236.0176;9.388845;-2.335634;211.1774;212.7984;-0.1717425;-0.105219;0;
-13.14762;0;0;24.82402;7.303307;-2.266304;-11.23563;-10.74068;-0.04163526;0.1547561;0;
-611.0214;0;0;-552.7231;8.501417;-2.130061;-600.4282;-601.6829;0.08834125;0.2845353;0;
-611.3444;0;0;-585.9008;-44.02077;-4.338357;-604.5724;-604.8889;0.4130892;-0.1055546;0;
-248.2249;0;0;-255.3529;-61.12319;-4.869861;-247.0819;-248.7098;0.08783741;-0.2353833;0;
-244.9145;0;0;-249.4117;-40.36515;-3.927207;-241.8361;-246.9606;0.02278181;-0.3001141;0;
13.38937;0;0;-8.781929;-46.62025;-4.459125;12.90394;8.034461;0.412563;-0.2348452;0;
648.3068;0;0;602.9194;-29.96261;0.4349882;639.7634;636.0232;0.02234438;-0.2346092;0;
617.1082;0;0;603.8753;-23.1;2.042141;610.7598;605.0244;-0.3674821;-0.3643082;0;
204.945;0;0;229.394;-33.52564;-0.2372082;204.9123;200.557;-0.1722109;-0.1690401;0;
216.9829;0;0;236.5348;-30.94734;0.2317887;214.0142;213.6613;-0.1720378;0.09099914;0;
0.4361199;0;0;35.21068;-24.82067;-0.7730662;1.593343;0.3661838;-0.1068976;0.155875;0;
-603.6981;0;0;-549.4683;-21.5132;-1.174187;-596.1078;-598.7705;0.02314449;0.2206858;0;
-616.21;0;0;-605.013;-25.10891;-1.976802;-623.3074;-624.718;0.08808857;-0.1043727;0;
-248.7127;0;0;-268.8863;-23.67716;-3.247492;-260.5506;-263.8339;0.2829021;-0.3641372;0;
-245.9016;0;0;-260.1828;-28.67721;-0.5649114;-253.1049;-259.8831;0.4125525;-0.298804;0;
9.029987;0;0;-23.97748;-30.92557;0.03850264;-4.662841;-10.12243;0.3471706;-0.1036017;0;
647.6374;0;0;605.6677;-20.57937;-3.779563;636.8319;633.1269;0.1519198;0.2213391;0;
612.8163;0;0;606.7457;-19.35324;-3.909731;608.331;602.8806;0.08679978;0.4160188;0;
199.9078;0;0;225.0151;-18.79793;-6.250083;197.3011;193.5428;0.2816146;-0.03917068;0;
214.5745;0;0;238.1573;-18.71169;-8.119326;211.9079;212.7136;0.2813316;-0.169066;0;
-4.718509;0;0;33.95802;-16.41572;-1.948859;-4.946167;-3.891369;0.08614691;-0.1039288;0;
-605.5367;0;0;-545.5973;-15.99708;-1.879918;-597.8931;-597.4016;0.02109301;-0.2987264;0;
-609.7384;0;0;-581.031;-22.87988;-1.342166;-603.9765;-601.9863;0.3459085;-0.1684915;0;
-244.6214;0;0;-246.6774;-23.32639;-0.2021073;-243.0508;-242.999;0.1506589;0.1565145;0;
-245.2502;0;0;-243.7434;-34.15394;-7.904819;-240.6826;-244.6914;-0.4341985;0.02642254;0;
16.30237;0;0;-2.432186;-37.5349;-9.370502;14.99334;12.30044;-0.2388602;-0.03857137;0;
652.2163;0;0;611.5741;-31.60366;-11.37045;640.9136;639.8477;0.02124915;0.02643474;0;
613.83;0;0;605.5248;-31.5719;-13.63645;606.724;602.0359;0.08619514;-0.03855917;0;
207.7295;0;0;233.4156;-19.61746;-9.201993;205.1909;202.0067;0.6708146;-0.03852043;0;
221.3888;0;0;244.9877;-13.23376;-8.991797;215.9792;217.8582;0.5402059;0.1564203;0;
-3.158403;0;0;37.72057;-14.29219;-7.107241;-2.190768;-1.563029;-0.1100103;0.02632846;0;
-607.8513;0;0;-549.3972;-10.25934;-5.157594;-601.2625;-602.8217;-0.1098998;-0.2335674;0;
-615.1116;0;0;-590.1994;-5.02412;-7.496814;-613.0895;-613.6478;-0.04482202;0.09150404;0;
-241.3685;0;0;-244.3424;-3.47883;-6.55152;-239.9732;-241.4679;0.0851577;0.09141209;0;
-240.5013;0;0;-240.0989;4.428895;-5.339245;-236.6712;-241.6001;0.2150068;-0.2984838;0;
10.30189;0;0;-10.53543;8.175489;-4.664173;8.568501;3.706955;-0.1750133;-0.2332166;0;
650.2823;0;0;609.6634;-8.645563;-2.449049;641.7416;638.759;-0.4996741;0.0918545;0;
615.2712;0;0;610.675;-13.79444;-1.57581;610.9244;605.9459;-0.109368;0.3516316;0;
201.5481;0;0;232.1264;-7.752359;0.1673294;203.0778;198.3541;0.08564391;0.2213436;0;
215.1512;0;0;242.4503;-10.15547;1.238766;215.305;214.3966;-0.1093442;-0.2986176;0;
-4.329796;0;0;39.37116;-13.42779;0.1659165;-0.05320095;-0.58587;0.08566773;-0.4932196;0;
-598.152;0;0;-533.1931;-14.01654;0.03178392;-585.8837;-586.8531;0.2804837;-0.2328546;0;
-602.4235;0;0;-569.3264;-18.89257;0.7014593;-592.8537;-592.0106;0.2802019;0.1571834;0;
-247.6837;0;0;-246.7287;-19.74425;0.8347203;-242.4338;-242.7784;0.409855;0.2219928;0;
-250.1209;0;0;-245.169;-14.03098;-2.984024;-242.1902;-246.47;0.2795085;-0.03809961;0;
10.74938;0;0;-0.9202862;-11.40491;-5.057374;14.79908;10.77348;0.1492929;-0.167996;0;
643.6704;0;0;611.4603;-9.652141;-0.5645579;639.2203;636.8854;-0.0457591;0.09204218;0;
609.1657;0;0;608.2222;-7.63271;0.1058387;607.5936;603.3245;0.01925422;0.3518191;0;
198.8221;0;0;228.8015;1.61836;-5.654678;201.1871;197.7344;0.4740063;-0.1033059;0;
208.4923;0;0;234.8809;5.5015;-6.65374;208.2313;209.0299;0.278628;-0.2981041;0;
-6.859046;0;0;36.61946;2.415489;-5.307395;-2.434661;-1.262022;-0.2413907;0.09199952;0;
-608.9245;0;0;-549.3728;2.614133;-5.837926;-600.6315;-599.4601;-0.04624617;-0.03802762;0;
-620.1817;0;0;-594.4854;2.544157;-2.81795;-615.9575;-612.9756;0.08373498;-0.1679241;0;
-248.8699;0;0;-248.9364;1.872015;-1.542443;-244.3376;-244.1073;-0.3061532;0.09211402;0;
-248.3075;0;0;-242.9391;-4.828647;-2.947535;-240.9686;-245.7986;-0.2408782;0.2219561;0;
1.441627;0;0;-14.74711;-7.435763;-1.872846;3.838065;-0.799605;0.01923317;0.09179844;0;
642.4305;0;0;605.3311;-9.973887;-3.880452;638.3903;635.2565;-0.0457535;-0.2980978;0;
612.7996;0;0;612.1566;-12.24104;-4.814192;611.512;607.2569;0.4090639;-0.232831;0;
191.2079;0;0;222.7994;-10.75487;2.759472;192.7952;189.7938;0.5385875;0.157207;0;
203.1971;0;0;226.0737;-11.81579;5.235068;201.8468;201.9719;0.278177;0.3519511;0;
-3.528219;0;0;33.31835;-2.627869;-0.6645681;-0.3794495;-0.8167492;0.4727995;0.1566954;0;
-604.0978;0;0;-545.6116;1.729028;-0.6639003;-592.5189;-593.8303;0.4073571;-0.1682988;0;
-613.7357;0;0;-585.1683;-5.774798;0.4083717;-603.7301;-603.3536;0.01714371;-0.1031623;0;
-248.6147;0;0;-250.6231;-4.898339;-0.3287289;-242.5547;-243.6778;-0.04784086;0.2217781;0;
-248.3024;0;0;-248.06;-1.142373;4.561234;-240.9367;-245.6818;-0.1127601;0.3514899;0;
14.06534;0;0;-6.119709;-0.7390835;6.164119;15.36418;11.49838;-0.4374835;0.1562347;0;
643.1725;0;0;603.8298;4.887737;2.875883;634.6624;632.0499;-0.2421419;-0.1037917;0;
602.1715;0;0;597.601;7.361073;3.47584;595.6066;590.6228;0.1479054;-0.1686547;0;
204.8908;0;0;232.6211;3.134118;1.596825;202.4554;199.4132;-0.2420472;0.4162208;0;
216.1792;0;0;243.3194;3.733205;0.2556842;211.6223;213.5806;-0.3067714;0.5457373;0;
-10.29931;0;0;30.8066;1.051112;5.145059;-11.04107;-10.08418;0.08334093;-0.1694518;0;
-599.3679;0;0;-551.4941;-1.361817;5.072906;-596.2358;-597.5287;0.2781592;-0.4291509;0;
-603.7006;0;0;-589.9829;7.882952;4.39798;-605.007;-604.2997;0.147945;-0.1688503;0;
-238.5273;0;0;-247.7493;9.348899;3.857697;-241.1442;-240.9373;-0.04710565;0.2211234;0;
-236.9758;0;0;-243.9397;2.909144;1.30847;-237.9659;-242.0695;0.2128111;0.6756726;0;
7.389632;0;0;-19.24487;2.437706;0.7043086;1.340578;-2.758945;0.1476299;0.350157;0;
643.9373;0;0;600.0257;-1.114716;-5.257636;631.3351;629.3011;-0.1123878;0.08993576;0;
621.4886;0;0;609.6052;-3.591843;-6.592012;610.8357;607.9292;0.01765978;0.4796494;0;
202.387;0;0;222.8118;-0.5741239;-8.46091;194.306;193.0266;-0.1122926;0.3492328;0;
209.4925;0;0;226.7733;-1.244108;-9.925911;198.3586;201.3284;-0.1771472;-0.1058895;0;
3.697847;0;0;39.32701;-3.050543;-3.351854;-2.677266;-0.02279544;-0.04703448;0.02415158;0;
-599.3777;0;0;-540.2962;-3.44962;-2.879606;-596.3137;-595.9108;0.01798013;0.154062;0;
-612.3936;0;0;-589.041;-4.7863;5.629876;-611.8939;-610.0546;0.01796206;-0.3658316;0;
-239.8403;0;0;-252.1807;-4.714142;9.643195;-244.9007;-244.5;-0.04702333;-0.6253333;0;
-238.5998;0;0;-247.0547;-5.781132;1.46171;-243.1554;-247.4402;0.0829586;-0.1049663;0;
16.38694;0;0;-11.79961;-6.043743;1.058344;5.901384;2.62032;0.0179079;0.1550086;0;
648.3653;0;0;598.2806;-3.022584;-0.1482907;629.3321;627.9283;-0.1770121;0.0898855;0;
616.542;0;0;599.4286;-2.148891;-1.688749;602.1506;597.4374;-0.04689957;0.02482784;0;
216.2484;0;0;231.3235;-1.945661;-4.567318;206.2442;202.9101;0.2779843;-0.1051318;0;
220.279;0;0;233.7772;-2.078404;-6.773044;206.5367;209.078;0.3426723;0.08987587;0;
-5.76637;0;0;24.02261;1.407285;-5.493563;-14.6847;-13.27037;-0.1124434;0.1547529;0;
-597.1508;0;0;-551.0875;2.477598;-6.291838;-601.2501;-601.7737;-0.3072325;0.2195648;0;
-606.6082;0;0;-590.6385;-0.3389068;-5.347754;-614.6389;-613.3504;-0.1120217;0.4792135;0;
-243.8058;0;0;-255.2134;1.068929;-4.873501;-251.9533;-251.978;0.1479602;0.4137646;0;
-238.5008;0;0;-247.4607;-10.319;-4.667777;-244.5787;-248.0391;0.2777462;0.08851217;0;
12.73764;0;0;-15.95331;-15.06503;-3.859292;1.668361;-1.913494;0.2124998;-0.1064788;0;
649.8421;0;0;599.9406;0.1553562;-3.922397;633.724;629.9583;0.08235158;0.02356289;0;
623.577;0;0;608.0834;1.494371;-3.315609;612.66;606.8991;0.1472362;0.08850656;0;
201.5997;0;0;221.7288;1.091704;-2.977363;195.1289;192.7472;0.2770229;-0.3013864;0;
208.2062;0;0;224.567;4.104717;-2.572474;198.7435;202.9857;0.1468099;-0.366051;0;
2.225461;0;0;34.99901;-4.606945;-0.1585032;-2.605134;3.194603;0.2116297;-0.2357485;0;
-602.098;0;0;-547.6808;-5.33925;1.918005;-599.4275;-593.4462;0.6012211;-0.3004789;0;
-614.2366;0;0;-592.1078;-4.262158;-2.102776;-615.0046;-606.593;0.01591092;-0.04030763;0;
-239.9947;0;0;-251.4339;-6.000164;-2.301612;-245.8844;-239.0429;-0.3739091;0.08966757;0;
-240.5657;0;0;-249.0573;3.383964;3.729043;-245.0751;-242.9881;0.01627064;-0.3002266;0;
15.36003;0;0;-8.36539;6.327324;5.131937;7.54433;8.567192;-0.2436151;-0.2349576;0;
649.2759;0;0;608.3955;-1.716985;9.614515;633.0973;636.0557;-0.568207;0.09011523;0;
613.5162;0;0;608.4713;-2.85336;13.28879;600.1649;603.1203;-0.177832;0.02505734;0;
211.6014;0;0;240.0448;2.709213;7.113133;203.386;207.4004;0.0172487;0.02503216;0;
217.948;0;0;244.9885;2.840212;6.771071;206.43;214.5008;-0.04773597;-0.169895;0;
-4.596712;0;0;44.09322;1.564561;11.38597;-14.22911;-6.166411;0.4070834;-0.2346917;0;
-591.2972;0;0;-528.9131;1.630338;10.77168;-599.4207;-592.553;0.341707;-0.1694885;0;
-599.8235;0;0;-584.6658;-2.055972;16.52127;-613.6859;-606.013;-0.3732771;-0.3642202;0;
-246.2107;0;0;-266.0507;-2.388699;18.64812;-259.9967;-254.0182;-0.04806532;-0.1689522;0;
-247.4001;0;0;-264.0967;-6.069994;10.99345;-255.2377;-254.4501;0.341787;-0.1038151;0;
10.21914;0;0;-30.19882;-7.202971;11.04939;1.82714;0.2401656;-0.1133278;-0.1686781;0;
650.2621;0;0;588.0833;-0.229508;5.813738;635.132;635.8579;-0.2431486;0.02639338;0;
627.4324;0;0;599.2365;2.651111;2.927752;612.7547;612.9802;0.01696507;0.2862362;0;
213.8221;0;0;217.6383;1.777791;10.69459;201.3455;201.6332;-0.177954;0.1560139;0;
222.8526;0;0;223.7915;3.182524;10.34905;207.39;212.0503;-0.04784051;-0.3638816;0;
19.60567;0;0;40.03384;10.94886;15.29526;9.968292;14.62385;0.601881;-0.1686139;0;
-587.3589;0;0;-542.651;12.81387;17.42323;-587.7413;-584.2773;0.5363089;0.09142488;0;
-609.6323;0;0;-593.8298;17.62376;11.91324;-613.2626;-607.2409;0.08099859;-0.2335037;0;
-236.2696;0;0;-249.9681;20.62016;12.30317;-244.7688;-240.1899;-0.04901748;-0.1033344;0;
-236.7818;0;0;-247.0308;11.48977;6.463414;-244.273;-244.4463;0.1459338;0.09167147;0;
14.08015;0;0;-16.64826;10.87501;4.313588;1.224186;1.175957;0.3406892;0.221514;0;
655.556;0;0;601.995;2.893479;5.180031;635.2168;636.0432;-0.04945719;0.1563241;0;
626.8489;0;0;606.575;-1.998573;2.897407;610.5906;609.1672;-0.1793422;-0.3635717;0;
219.7359;0;0;233.0905;6.643623;8.186025;207.4294;207.944;0.08070739;-0.6880431;0;
226.8239;0;0;236.9167;5.497872;8.110817;212.3434;216.6681;0.01565895;-0.2975477;0;
2.396226;0;0;29.22043;8.975948;8.772496;-6.13527;-3.564031;0.2105452;0.2874574;0;
-598.4292;0;0;-554.5155;11.04303;9.902391;-601.3924;-600.0731;0.275301;0.02729917;0;
-609.2596;0;0;-596.6244;4.065713;1.720646;-615.5307;-612.4636;-0.0498123;-0.102663;0;
-243.5809;0;0;-256.2582;3.726835;-0.1564833;-250.2205;-248.281;-0.1796969;0.09234224;0;
-244.0858;0;0;-250.8158;2.718713;-1.16107;-247.283;-249.031;-0.114549;0.02728211;0;
7.22075;0;0;-15.93173;1.644254;-2.767494;0.2787039;-1.342637;0.01550075;0.09222204;0;
646.0799;0;0;601.1491;3.250192;-3.903423;630.0869;629.8414;-0.04948217;0.3519987;0;
623.5042;0;0;609.8529;2.912134;-5.573952;607.8396;605.7828;0.2104369;0.2217104;0;
212.459;0;0;234.6784;3.310373;-0.9466509;201.5578;200.4401;0.4051275;-0.2982512;0;
215.7438;0;0;234.6925;2.838532;-0.4768192;204.4787;207.2352;0.01491637;-0.3629188;0;
4.258178;0;0;38.43017;4.979134;0.3943161;-2.247998;0.4432899;-0.3099353;0.02724991;0;
-596.2568;0;0;-540.6924;5.577343;1.398664;-595.3226;-594.3207;-0.1147219;-0.1027122;0;
-617.5841;0;0;-592.6227;2.422931;-2.286681;-619.587;-616.2747;-0.04963926;-0.4274457;0;
-248.2739;0;0;-256.7583;2.420497;-2.820247;-255.0848;-251.9008;-0.04958938;-0.3620488;0;
-239.2788;0;0;-252.1275;-2.47108;-4.425003;-244.4587;-245.3383;-0.2444416;-0.1018157;0;
12.64761;0;0;-21.42746;-4.88047;-4.889437;4.162096;3.470725;-0.1792286;-0.1017134;0;
647.7532;0;0;596.7209;0.1482757;-7.965617;631.4676;632.5261;0.2107555;-0.1665785;0;
622.9894;0;0;606.3661;-0.119317;-9.766152;609.5938;608.5897;0.08060907;-0.5562152;0;
212.9442;0;0;229.5709;-0.3876168;-4.866707;204.1223;203.6189;-0.2443086;-0.685591;0;
213.9172;0;0;227.7161;-0.3198784;-5.263593;201.7932;205.1635;-0.3739978;-0.2301307;0;
-2.626547;0;0;27.58775;-1.458633;1.037848;-10.49045;-7.810752;-0.3086547;-0.1649321;0;
-595.0136;0;0;-548.9002;-1.323445;4.452934;-597.8721;-597.0067;-0.3733119;-0.09979905;0;
-607.1594;0;0;-593.7009;-4.067806;-4.72808;-614.7626;-611.5867;-0.3079695;-0.03473143;0;
-240.6082;0;0;-250.3391;-4.533209;-4.120482;-247.2668;-245.3435;-0.2426927;0.03027082;0;
-239.4919;0;0;-243.4659;-7.408066;-6.929503;-242.0209;-244.5348;-0.1774815;0.4200445;0;
9.373767;0;0;-16.89752;-10.01357;-8.329183;0.9752973;-0.8489089;-0.2422705;0.3546551;0;
649.73;0;0;599.747;-3.171002;-0.3499662;633.0316;632.9584;-0.1120924;0.419266;0;
626.5884;0;0;609.2643;-3.301538;0.4540586;611.7184;610.2709;0.01795496;0.5487794;0;
209.6681;0;0;228.3433;-2.695984;7.151773;199.3732;200.0511;-0.04703042;0.2883587;0;
208.333;0;0;226.802;-0.616194;10.29279;197.3613;201.5992;0.1479189;0.1581342;0;
-2.333088;0;0;32.42168;-12.80671;6.464416;-8.608566;-5.5618;0.2777049;0.09300799;0;
-597.8439;0;0;-543.5714;-15.13837;7.328699;-596.7418;-594.6976;-0.1123782;-0.2319222;0;
-613.61;0;0;-588.7522;-12.57756;3.369464;-614.4455;-610.7167;0.08263677;-0.3616238;0;
-240.2433;0;0;-245.8952;-13.90409;2.026419;-244.2014;-241.9756;0.3424231;-0.03642376;0;
-239.0648;0;0;-242.8995;-6.590083;0.4167928;-241.2074;-242.7319;0.2121443;0.2884496;0;
6.052282;0;0;-18.45561;-3.970516;-1.191094;-1.772743;-3.982907;0.0819965;0.0932577;0;
647.5987;0;0;599.0026;-3.900154;0.8864514;630.5987;629.4527;-0.1779553;-0.03677071;0;
622.8351;0;0;607.5211;-1.618083;1.488407;611.037;608.6429;0.01712558;0.0282336;0;
207.4178;0;0;227.6638;-0.008866984;-0.3884886;199.817;198.9869;0.08207571;-0.2966315;0;
214.5807;0;0;233.9318;1.330312;-1.258876;203.8641;208.0948;-0.2428435;-0.1014314;0;
0.6599894;0;0;38.10753;1.462698;8.387687;-2.861967;1.052154;0.08223725;0.2235072;0;
-601.6005;0;0;-548.9482;1.193784;11.32639;-602.3702;-601.521;0.01718728;0.1583153;0;
-613.4272;0;0;-593.374;2.531755;5.286663;-619.3811;-617.4708;-0.04779733;-0.1666805;0;
-243.8088;0;0;-247.5138;2.59656;5.080524;-245.5089;-245.0997;0.08218537;-0.2964477;0;
-246.0001;0;0;-245.8283;-2.965754;4.874471;-244.4501;-248.4766;-0.2427339;0.0286869;0;
3.496789;0;0;-18.2581;-4.905157;4.065777;-2.32606;-5.973711;-0.24249;0.02865808;0;
644.0463;0;0;600.1994;-6.173026;2.521085;630.858;628.5883;-0.3072137;-0.03633808;0;
621.2853;0;0;611.153;-8.64507;2.25062;612.2332;609.0912;-0.2419377;-0.1012689;0;
206.4317;0;0;230.2301;-4.416824;-0.5648028;202.9484;201.6837;0.0181748;-0.03619981;0;
206.5366;0;0;224.1267;-3.876523;-1.501996;199.4961;201.2936;-0.4366148;0.2886733;0;
-2.815765;0;0;31.56066;-7.622696;1.245691;-7.412938;-6.929093;-0.3712088;0.09348121;0;
-593.2037;0;0;-533.9368;-7.213871;0.641593;-589.8627;-591.1285;0.1489029;-0.3613841;0;
-607.4127;0;0;-577.4407;-9.282727;6.267393;-606.5738;-606.1517;0.2137206;-0.4909557;0;
-240.2366;0;0;-240.4046;-10.01033;6.529027;-244.0213;-244.3492;0.2135059;-0.3605277;0;
-239.2456;0;0;-235.1031;-4.976434;8.531955;-240.9025;-245.6029;0.08335669;-0.1002961;0;
3.935192;0;0;-13.29071;-4.033429;10.66671;-1.468186;-5.476667;-0.1765964;0.0297394;0;
641.3608;0;0;594.5421;-2.221691;-5.352437;628.0294;626.2738;-0.04648431;0.1596442;0;
624.0997;0;0;603.9397;-0.8129388;-9.433018;613.9051;609.4651;-0.1114049;0.2244511;0;
210.8051;0;0;224.0235;-1.012217;-8.016898;205.2434;201.5575;-0.1762604;-0.1006111;0;
212.7172;0;0;223.1113;0.9311834;-10.75502;205.0996;205.9776;-0.04614855;-0.1654774;0;
4.607947;0;0;33.04501;-3.557731;-8.132002;2.432779;2.372894;0.1487998;0.224493;0;
-598.3436;0;0;-548.4459;-3.486807;-8.056848;-594.5821;-596.0787;0.278585;0.09433272;0;
-614.359;0;0;-596.4329;-0.5365424;-5.034521;-615.0366;-613.908;0.2133377;-0.1656314;0;
-232.8082;0;0;-242.9485;-0.06748878;-3.154062;-234.7344;-234.6689;-0.04674599;-0.03553034;0;
-232.7617;0;0;-236.8324;5.894426;-1.9452;-231.3751;-235.8699;-0.1766337;0.02947272;0;
8.600991;0;0;-13.33162;7.428745;-0.4696206;4.676332;0.3109936;-0.1114889;0.1593778;0;
645.897;0;0;603.0594;12.3114;0.5354732;632.9808;631.1811;0.01855783;0.0942503;0;
624.5084;0;0;613.3231;15.31314;1.271747;614.0415;611.494;0.2784086;-0.2306811;0;
220.7086;0;0;244.2045;8.733669;-1.140794;215.7494;214.9535;0.4080635;-0.1005147;0;
223.7352;0;0;246.7702;7.920611;-2.010426;217.7815;220.9219;-0.04711793;0.02952104;0;
2.558927;0;0;41.43783;5.635477;-3.816945;1.796101;3.184273;-0.5668093;0.09445872;0;
-593.1442;0;0;-535.1265;2.683053;-5.152646;-587.0347;-587.647;-0.1764357;0.3542332;0;
-606.2288;0;0;-579.3788;3.21622;-8.429632;-604.4359;-603.1734;0.278513;0.3538772;0;
-245.6132;0;0;-249.9619;0.4663225;-11.16734;-248.1947;-248.5577;0.2132657;-0.0362824;0;
-243.5548;0;0;-245.9002;0.9343685;-7.539163;-242.5731;-246.9337;0.1480841;-0.1012133;0;
10.00012;0;0;-10.39635;0.3975661;-8.335383;8.544575;5.625111;0.2129027;0.2886925;0;
644.6086;0;0;604.1177;-7.774507;-8.594939;634.4089;633.5538;0.01778671;0.5482718;0;
626.7195;0;0;616.9415;-10.24494;-7.514576;618.0918;615.6759;-0.0471985;0.4177862;0;
216.0459;0;0;239.2611;-7.153189;-14.80804;210.3629;209.9484;0.342653;0.02756234;0;
213.3926;0;0;237.6463;-5.940552;-15.79779;203.5298;207.551;0.01747197;0.09250198;0;
8.156198;0;0;49.1272;-11.82908;-13.90651;3.67569;5.943717;-0.1124803;0.4172457;0;
-593.612;0;0;-541.063;-13.22371;-14.36142;-592.5908;-593.0112;0.4073715;0.2868918;0;
-616.2538;0;0;-598.3653;-0.7518463;-8.452613;-620.0438;-618.2148;0.2770275;0.2866035;0;
-234.1389;0;0;-238.8819;1.928226;-6.970495;-237.2378;-236.1604;0.1468144;0.5461849;0;
-233.9037;0;0;-232.9573;5.208819;-5.690815;-232.6267;-236.5478;0.5364709;0.5456361;0;
-1.472845;0;0;-22.70376;9.355795;-4.680475;-6.194111;-9.798969;0.4059972;0.1552838;0;
642.6424;0;0;598.6318;0.7062057;-4.072926;629.3677;627.2032;-0.04918211;-0.1047416;0;
634.8127;0;0;620.5189;-0.1651601;-3.131073;624.7372;620.5135;-0.1790674;0.155233;0;
221.6322;0;0;241.8979;1.911111;-9.893081;215.315;214.0315;0.08098192;0.2200444;0;
221.2846;0;0;242.5919;0.8374636;-11.42362;212.2251;215.3157;-0.04903414;0.0898886;0;
7.482128;0;0;43.88541;2.042071;-13.1537;4.678576;5.329808;-0.4387889;0.219733;0;
-593.7232;0;0;-536.9293;2.308439;-14.74808;-586.8413;-587.7524;0.01642337;-0.04035721;0;
-605.6204;0;0;-578.4312;0.9659725;-11.91997;-601.1816;-599.7805;0.601113;-0.1702513;0;
-240.1952;0;0;-244.455;0.8312801;-11.43912;-239.0093;-238.3592;0.5355416;0.1547565;0;
-238.642;0;0;-237.5877;2.973899;-8.078598;-235.2084;-237.62;0.01526475;-0.04030108;0;
16.53215;0;0;3.467487;3.305703;-6.194958;15.08971;13.43022;-0.1796526;-0.1052279;0;
645.8867;0;0;615.8437;3.838245;-3.174624;635.5127;635.2292;0.1453646;-0.04015486;0;
624.1858;0;0;629.3428;2.896383;-0.8270313;615.7587;613.7888;-0.2445855;0.02485285;0;
222.885;0;0;254.5235;8.386806;-0.2903368;219.2765;218.4955;-0.1144051;0.1547626;0;
222.4736;0;0;239.3378;11.19142;1.451389;217.1196;220.5873;0.5353833;0.02467237;0;
6.04626;0;0;35.44964;-3.154419;-1.832111;3.94601;7.222778;0.2100087;-0.04031978;0;
-595.7198;0;0;-550.6039;-5.428425;-2.96898;-594.3822;-593.7324;-0.1800064;-0.1052466;0;
-614.4865;0;0;-605.8976;-1.337134;0.2491842;-618.2102;-617.3112;-0.1148582;0.08976118;0;
-235.9341;0;0;-252.3412;-1.403139;-0.3539126;-239.1542;-239.1307;-0.1797101;0.2196057;0;
-233.3232;0;0;-239.4065;1.679729;-0.5545058;-230.4807;-234.2053;-0.3744316;0.02448299;0;
2.605292;0;0;-22.39991;2.414976;-0.4199827;0.01018042;-2.898573;-0.5689574;0.08942573;0;
642.2811;0;0;595.1872;10.4505;-5.577125;630.2559;629.5364;-0.5034183;0.2192706;0;
624.3944;0;0;609.644;12.58345;-7.045145;615.2548;613.0993;0.1467609;0.02414821;0;
212.9111;0;0;228.7226;17.05879;-5.430476;207.8411;207.6868;0.2115808;0.1540586;0;
220.5682;0;0;231.3664;20.85907;-5.558985;211.7552;215.8489;-0.4383052;0.3488058;0;
5.891839;0;0;33.42078;6.570863;-4.950553;0.5859326;3.301207;-0.3728975;0.2185207;0;
-595.7491;0;0;-544.6348;3.952292;-4.275871;-591.9293;-590.4661;0.2121833;0.02339909;0;
-613.7037;0;0;-590.2518;3.54618;-3.93666;-610.45;-606.1147;0.01706806;-0.04159177;0;
-246.7087;0;0;-253.2028;0.7295773;-4.200636;-247.2063;-244.1248;-0.2428185;-0.1065173;0;
-239.2145;0;0;-240.0174;3.340812;1.430029;-237.9625;-239.6941;-0.04767245;-0.1713776;0;
12.58693;0;0;-4.207148;3.070012;3.304114;9.027609;8.047324;0.08231013;-0.04127075;0;
645.5686;0;0;607.5521;5.477825;-3.598326;632.705;633.8497;-0.04770725;0.2836075;0;
623.6182;0;0;617.7487;6.946189;-5.604076;614.8279;614.3472;-0.04765932;0.1533878;0;
216.3834;0;0;242.4413;8.010937;-2.852267;212.9119;213.681;0.01735591;0.08826632;0;
217.103;0;0;240.4486;8.471401;-3.184316;211.2612;216.1525;-0.1125962;0.2830797;0;
8.48962;0;0;49.67773;12.68342;-11.28581;7.901017;13.4121;-0.3723525;0.08789319;0;
-593.4039;0;0;-536.0153;13.54134;-14.2887;-589.0569;-585.6128;-0.5668803;-0.2370318;0;
-622.6052;0;0;-598.6949;9.977757;-10.79123;-621.8857;-618.9448;-0.436376;-0.106859;0;
-240.109;0;0;-244.2087;9.967731;-11.38323;-239.4527;-237.7642;0.1487685;-0.2366863;0;
-234.3705;0;0;-236.5921;1.316551;-11.37179;-231.466;-233.3399;0.2135864;-0.1714811;0;
-7.061633;0;0;-26.89713;-0.894599;-10.75752;-9.844714;-10.21745;-0.306367;0.2184952;0;
645.0552;0;0;606.0618;-3.305574;-11.61749;633.5917;636.2179;-0.3710265;0.283243;0;
641.1586;0;0;636.1249;-6.517433;-11.60582;633.205;632.8925;-0.3056863;0.0880564;0;
211.7924;0;0;243.995;5.813975;-7.039438;208.9067;209.1567;-0.4353139;-0.2368688;0;
211.892;0;0;238.315;8.889592;-4.754945;205.8857;210.6332;-0.3049418;-0.3665655;0;
10.53015;0;0;52.29395;5.665479;-8.970092;9.714833;14.39508;0.02020135;-0.4961318;0;
-593.9266;0;0;-525.7805;6.865235;-8.894096;-586.4328;-581.2575;-0.04478629;-0.430666;0;
-612.4452;0;0;-575.7893;12.21697;-6.138859;-607.5201;-600.351;0.0851934;-0.3002986;0;
-239.8293;0;0;-237.2557;15.28615;-5.797776;-237.5953;-233.5569;0.02014045;-0.2350295;0;
-232.7793;0;0;-228.4591;7.433914;-3.313704;-228.7984;-229.5116;-0.04484713;-0.0398913;0;
17.82879;0;0;0.1556972;6.622161;-2.037699;17.24544;16.97023;0.1501;0.09008349;0;
642.7468;0;0;603.1649;5.945922;-3.911173;633.9806;635.8921;0.08498179;-0.2348437;0;
619.1125;0;0;614.303;2.523696;-3.706295;612.9163;613.4516;0.2148311;-0.1046731;0;
220.6903;0;0;248.6817;13.50587;-3.099724;218.1236;219.4704;-0.04525414;0.2852362;0;
215.0338;0;0;242.5598;15.36831;-3.163592;210.4707;216.064;-0.6299148;0.02508017;0;
-7.632935;0;0;39.48049;5.305186;-0.07919864;-5.882155;-0.7317601;0.1503263;0.1549896;0;
-596.7666;0;0;-535.8325;3.558543;1.99723;-590.5823;-587.7485;1.059718;0.1548339;0;
-610.3474;0;0;-583.7073;0.8756506;-3.497255;-608.9169;-604.7115;0.2790451;-0.6249298;0;
-236.3593;0;0;-234.9208;-2.139339;-3.962622;-233.9932;-231.2289;-0.3059413;-0.4943672;0;
-232.5611;0;0;-226.6263;1.010642;1.533838;-227.9485;-229.6847;-0.3706013;-0.1040664;0;
-3.442434;0;0;-17.12876;2.148703;2.135143;-5.331256;-6.753345;-0.5651309;-0.1689291;0;
638.6133;0;0;598.8289;-6.762064;7.558494;629.5425;629.6835;-0.2397264;-0.1037921;0;
632.8492;0;0;620.9657;-7.558577;10.16323;627.723;625.4277;0.1503186;-0.2985898;0;
211.1125;0;0;235.5977;-0.853177;4.392611;210.7391;209.8828;0.3450696;-0.2333224;0;
210.4631;0;0;233.237;0.7552707;2.981555;207.4663;211.4835;0.01988612;-0.1031533;0;
7.91579;0;0;46.59633;7.921808;6.997414;9.794633;14.12007;-0.1750359;-0.03808231;0;
-591.7283;0;0;-530.6603;10.45847;6.655468;-581.4805;-578.1589;0.214944;-0.1030114;0;
-615.8713;0;0;-583.9751;15.67287;0.3526288;-608.195;-603.5649;0.2796954;-0.4927119;0;
-247.6872;0;0;-247.807;17.66685;-2.059111;-244.204;-240.828;0.019545;-0.2323475;0;
-238.8176;0;0;-238.6874;16.84482;-4.602272;-233.9012;-234.0892;-0.1104093;-0.1671467;0;
6.92393;0;0;-10.99943;18.43548;-7.076015;6.77544;7.899442;-0.1752657;-0.2319461;0;
634.2266;0;0;597.7057;2.408406;-7.671752;624.7705;627.8299;0.01981241;0.4179604;0;
616.9103;0;0;615.0336;-1.880922;-8.869736;610.8994;611.7693;-0.1101422;0.2876058;0;
214.4299;0;0;245.5385;-4.289929;-8.99479;213.3601;216.0407;-0.1749988;-0.1674546;0;
211.9656;0;0;240.1069;-9.644254;-9.320666;208.9603;216.136;0.08504635;0.09258302;0;
-1.515228;0;0;44.27644;2.891367;-8.842421;0.4799995;6.399102;0.08496089;0.287392;0;
-594.8405;0;0;-532.3532;5.03094;-9.101467;-588.8492;-584.9976;0.3447449;0.1571686;0;
-615.9818;0;0;-584.9791;2.212846;-8.221544;-614.1821;-608.5226;0.2794312;-0.1028588;0;
-244.237;0;0;-239.3148;4.354076;-9.552941;-241.9392;-237.285;0.08424835;-0.4275921;0;
-238.4943;0;0;-230.2662;4.885564;-5.055486;-233.2628;-233.1735;0.4739678;-0.4921298;0;
-3.560131;0;0;-13.14387;6.287175;-3.175006;-2.769206;-3.054765;0.1486548;-0.5566027;0;
639.87;0;0;608.8067;5.477551;-16.83597;633.9136;634.5028;-0.1763313;-0.5560433;0;
627.4205;0;0;627.3729;4.667763;-18.76156;624.2186;622.7458;-0.1111868;-0.3605826;0;
200.192;0;0;234.6895;7.074947;-22.02475;200.9913;200.6445;-0.3059771;-0.03538361;0;
202.2397;0;0;233.7666;5.996111;-25.48561;200.5395;205.0656;-0.2407023;0.2894887;0;
2.136996;0;0;50.49867;4.85101;-13.06852;6.060665;10.45723;0.08437629;0.4191325;0;
-596.3768;0;0;-526.8244;4.042829;-10.44306;-583.524;-580.6312;0.3441609;0.353744;0;
-615.7051;0;0;-577.0195;-3.463322;-8.825094;-605.9886;-600.5999;0.2138804;0.1584865;0;
-245.9594;0;0;-237.6725;-6.473952;-5.132166;-241.5626;-237.8035;-0.2411059;0.02839259;0;
-240.5899;0;0;-229.2503;-7.204381;-7.404428;-233.7612;-235.5031;-0.110929;0.1582987;0;
5.778168;0;0;-2.758722;-9.139525;-6.794142;9.289125;7.986278;-0.04585017;-0.03676236;0;
637.5798;0;0;606.1255;-10.06835;-1.294837;632.6539;633.1015;-0.2407061;-0.6214315;0;
615.8248;0;0;617.6978;-11.5321;0.9167789;613.7774;612.7253;-0.1754969;-0.3609377;0;
208.9102;0;0;245.8887;-5.759735;-5.648226;211.2377;211.561;-0.2402879;-0.2956077;0;
212.6983;0;0;247.5157;-3.409423;-6.178414;212.962;217.3454;-0.1101118;-0.4902127;0;
-0.09609528;0;0;51.24056;-5.683173;-6.373155;5.10239;9.668777;0.08490087;-0.3597854;0;
-595.9839;0;0;-525.7709;-2.797074;-7.773392;-586.168;-582.8556;0.2147502;-0.4893586;0;
-616.7494;0;0;-577.2789;-7.751733;-0.3305981;-611.1912;-607.2574;0.1495671;0.1608065;0;
-250.5634;0;0;-241.7423;-9.083115;2.214964;-246.5101;-244.5167;0.01948215;0.355547;0;
-241.3786;0;0;-233.0661;1.777003;-1.136287;-236.9545;-239.0862;0.1493973;-0.2944837;0;
1.991679;0;0;-6.133375;1.842567;-0.3983327;3.662732;1.908062;-0.04565488;-0.1642531;0;
636.858;0;0;606.5648;7.198374;2.21428;632.1556;632.4017;-0.3054784;-0.03415341;0;
624.3491;0;0;617.7619;8.732358;2.413004;614.0917;612.7758;-0.3051714;-0.1640538;0;
209.1801;0;0;238.519;0.7529812;4.888947;200.9945;201.4291;-0.04499542;-0.03395424;0;
210.5317;0;0;243.0269;1.019668;4.951018;207.6641;212.7209;0.08498447;-0.1638548;0;
8.671474;0;0;58.75025;-18.67361;5.013026;14.30251;18.54214;-0.499807;-0.2286575;0;
-596.9078;0;0;-536.8844;-26.358;6.280543;-595.4054;-592.4194;-0.5642721;-0.3583624;0;
-627.8547;0;0;-615.4927;-17.15547;-4.375688;-641.4087;-636.0519;-0.3038358;-0.2280677;0;
-249.3513;0;0;-259.2405;-20.6882;-7.050609;-253.8337;-248.9196;-0.1086285;0.09699821;0;
-240.1053;0;0;-234.4923;-10.41866;-4.632139;-231.6522;-230.616;0.2163174;-0.03303394;0;
-6.918585;0;0;-25.67403;-6.791844;-7.50775;-8.281572;-7.246458;0.02119802;-0.1629354;0;
631.5175;0;0;586.1068;-13.3491;4.221563;619.5362;622.6317;-0.3686273;-0.1627717;0;
622.0124;0;0;609.0685;-10.65637;7.499362;614.7907;616.0091;-0.5631589;-0.3575102;0;
206.8457;0;0;231.1462;-17.41082;-0.4119148;207.315;209.0944;-0.1727891;-0.2272163;0;
206.8878;0;0;231.9759;-19.60315;0.5262601;205.3576;212.0702;-0.04268074;0.03288141;0;
-1.715361;0;0;39.02716;-7.527014;-3.493245;0.878904;7.397348;-0.1076052;0.09781571;0;
-602.5991;0;0;-548.092;-5.375997;-5.365135;-594.6351;-590.5595;0.477209;0.1626848;0;
-625.9816;0;0;-605.1373;-7.581398;-0.5370947;-622.3984;-617.2025;0.1518928;0.09755396;0;
-258.9117;0;0;-263.0759;-5.631397;-0.7375038;-255.0199;-251.2034;-0.3030312;0.0324886;0;
-255.0284;0;0;-253.8785;-5.960532;0.535913;-248.1419;-248.2024;0.02210997;0.09742329;0;
-7.084165;0;0;-23.3017;-3.542669;1.406031;-3.952722;-3.888184;0.02208775;-0.0326093;0;
635.0377;0;0;597.5347;-9.433607;-1.609492;631.2944;632.0461;-0.1078691;0.1623255;0;
620.2817;0;0;613.8008;-11.96972;-1.94279;619.4158;619.2296;0.02217395;0.3570644;0;
208.6151;0;0;238.1226;6.462732;-1.471957;213.9344;216.3096;-0.04281567;0.4866403;0;
207.9057;0;0;229.7624;10.94324;-1.671427;204.1617;209.7205;0.02219469;0.226282;0;
-1.323156;0;0;36.12872;4.904025;-0.2631056;-4.688546;0.4898127;0.2820418;-0.09878211;0;
-599.2088;0;0;-530.4353;7.042551;0.8757466;-585.3295;-581.2808;0.1518237;0.2261539;0;
-625.9055;0;0;-586.6238;1.94526;-1.536397;-612.5399;-607.933;-0.1731656;0.4208287;0;
-252.0267;0;0;-246.9548;0.06729523;-1.333904;-244.4841;-241.3811;0.02191043;0.2904711;0;
-239.8419;0;0;-231.2769;4.688928;0.4759751;-228.4963;-228.8947;0.3467251;0.03030989;0;
-4.344208;0;0;-12.21704;4.484122;0.00661635;2.742154;2.843938;-0.1083947;0.03027944;0;
633.0273;0;0;606.7966;4.948131;5.432105;632.7352;634.0238;-0.4331225;0.1601837;0;
621.834;0;0;630.6746;6.618098;5.828545;624.6032;623.4542;0.1520188;-0.09984664;0;
204.731;0;0;246.796;-1.091711;5.688722;210.8083;211.3471;0.3467681;-0.229681;0;
207.0865;0;0;243.9868;-3.435139;6.218748;211.2836;216.0073;0.2814523;-0.1644829;0;
3.480698;0;0;59.27188;7.017162;-3.298833;12.48365;16.7653;0.0862675;-0.2292849;0;
-595.909;0;0;-518.3099;7.680673;-6.041697;-582.3549;-578.265;-0.3685906;0.03081483;0;
-623.2337;0;0;-579.6955;7.672955;-9.786549;-612.9416;-607.0441;0.08655118;0.1607185;0;
-251.2941;0;0;-239.846;7.464175;-13.32681;-240.9499;-237.0574;0.606203;-0.229247;0;
-239.2351;0;0;-224.8;6.451321;-10.29919;-225.7778;-225.9496;0.1508224;-0.293984;0;
-1.613991;0;0;-4.809548;6.378465;-11.15962;6.08267;6.285784;0.08570355;0.03114812;0;
631.5069;0;0;608.4495;-6.689738;-9.005072;630.1379;632.1523;0.1505848;-0.03385053;0;
621.0648;0;0;630.7642;-11.43844;-7.656365;622.0709;622.8965;-0.1744032;-0.09878386;0;
213.6452;0;0;255.5061;-10.08777;-8.251518;217.4614;220.2852;0.02067403;-0.2286193;0;
212.3061;0;0;250.3144;-12.68961;-7.238483;212.183;219.3767;-0.04431409;-0.09845489;0;
-0.3629327;0;0;54.97344;-9.662745;-8.235953;6.385619;12.88494;0.02069778;0.2264808;0;
-594.8138;0;0;-518.0438;-7.375861;-9.16544;-578.1395;-573.5208;0.215579;0.1612858;0;
-621.1401;0;0;-577.618;-12.52601;-4.735356;-614.7899;-608.1768;-0.04450697;0.09615646;0;
-251.1391;0;0;-239.145;-12.31236;-3.926925;-252.6039;-246.4347;0.08547243;0.1610272;0;
-234.6449;0;0;-212.1057;0.7618092;-8.812612;-224.2392;-222.6364;0.08538654;0.09589803;0;
-0.4642434;0;0;5.185824;5.047951;-8.66979;9.368838;11.5322;0.2152354;0.2257364;0;
635.1542;0;0;609.6893;6.583121;-15.96197;633.983;638.5804;0.4099212;-0.1642945;0;
628.7064;0;0;629.6288;9.456894;-19.49603;631.2845;633.6284;0.2795746;-0.0991621;0;
207.4736;0;0;238.9422;10.45177;-10.7018;214.172;216.8259;0.6690977;0.2257743;0;
215.8858;0;0;241.3883;12.04886;-10.62406;219.3916;226.3532;0.3435887;-0.1642567;0;
23.45302;0;0;66.54599;6.142253;-8.135141;30.70334;38.2202;0.2782761;-0.03415693;0;
-589.0752;0;0;-525.4733;4.863284;-5.581616;-577.5218;-571.0745;0.7977353;0.2257468;0;
-625.6521;0;0;-594.2855;1.777914;-12.54211;-618.0458;-610.4181;0.277195;-0.2942188;0;
-249.5247;0;0;-247.175;-1.10426;-12.93141;-242.1759;-236.2425;0.1469818;-0.09902115;0;
-233.9067;0;0;-226.9992;5.12614;-11.84669;-223.5668;-222.0122;0.2767687;0.2259151;0;
6.020383;0;0;-2.946084;6.192716;-12.43763;11.10246;13.21779;-0.1782807;0.1607207;0;
633.2615;0;0;603.4396;2.903964;-9.812797;630.3425;633.3303;-0.5029383;0.2255266;0;
617.7577;0;0;617.076;3.035744;-9.601988;617.028;617.3267;-0.3724983;-0.1645041;0;
211.341;0;0;242.0192;6.983832;-5.841417;214.6725;216.2202;-0.2421893;-0.4242082;0;
213.1276;0;0;239.0899;7.982169;-2.821438;214.8316;219.8135;-0.3718806;-0.1639126;0;
0.3328051;0;0;40.57434;9.045876;-9.114877;6.407882;10.63516;0.01829709;0.03115418;0;
-595.5555;0;0;-536.0516;10.04116;-8.435888;-581.8029;-578.5169;0.4730501;-0.09881183;0;
-618.6951;0;0;-588.3614;6.815894;-6.350941;-606.8929;-601.6736;0.1477381;0.0961895;0;
-255.3183;0;0;-255.0625;5.737319;-6.34456;-248.5254;-243.9986;-0.1772471;0.2909949;0;
-243.0678;0;0;-239.9386;7.271795;1.096677;-235.5946;-235.1952;-0.1121017;-0.03413424;0;
-0.07059623;0;0;-13.37382;7.66663;2.033336;0.7734705;1.359823;0.2128477;-0.3589366;0;
635.36;0;0;600.0188;2.099221;5.581388;624.5841;627.1689;0.4075359;-0.4885107;0;
623.3524;0;0;623.9036;0.9590119;6.446436;619.1465;619.6672;0.147257;-0.1631831;0;
201.0005;0;0;240.594;1.761355;2.889985;205.2946;207.0641;-0.1777277;0.1618176;0;
204.7341;0;0;241.1644;-0.4502411;3.08803;205.6505;212.2908;-0.5673531;-0.2281491;0;
11.75025;0;0;64.32333;10.60227;-9.77543;17.60077;23.73467;-0.4368484;-0.4228218;0;
-594.8941;0;0;-525.4449;13.60573;-13.58363;-583.9895;-579.7983;-0.04660539;0.0323744;0;
-629.4037;0;0;-592.1331;2.741068;-15.3784;-622.5081;-616.6344;0.01840878;0.3571786;0;
-250.2741;0;0;-238.5281;0.260067;-19.18098;-242.7607;-237.6425;0.4081943;0.2918524;0;
-240.5274;0;0;-223.3584;5.216299;-9.047525;-229.7107;-228.0959;0.2128821;-0.03327763;0;
-5.403736;0;0;-7.367444;5.612223;-7.296878;1.216698;2.642409;-0.3720378;-0.09821153;0;
631.9688;0;0;606.7687;-6.784649;-3.739573;631.5861;634.3847;0.08310739;0.2916912;0;
620.7142;0;0;628.5853;-10.46153;0.5510922;622.7056;624.5019;-0.0469108;0.3563655;0;
212.6702;0;0;255.8282;-7.369556;-1.659898;219.4073;223.1384;-0.5016351;-0.2286987;0;
212.7689;0;0;251.8855;-9.640303;1.221914;217.4378;225.6003;0.01860772;-0.4883383;0;
3.597639;0;0;59.60398;-3.066533;-2.128339;13.25931;20.47659;0.3434257;-0.2929456;0;
-586.5468;0;0;-507.1711;-1.05372;-3.465859;-567.8994;-562.501;-0.0467234;0.03218551;0;
-614.6306;0;0;-564.0701;-3.8657;5.111317;-598.8129;-591.2335;-0.1766111;-0.03281419;0;
-256.6301;0;0;-235.2308;-1.718362;5.240147;-244.5765;-238.0667;0.2133704;-0.03278121;0;
-243.8785;0;0;-218.94;-5.66875;8.315974;-228.9635;-226.2083;0.1481886;0.03221908;0;
1.680708;0;0;5.104961;-5.595706;11.05392;12.70772;15.46013;-0.04686229;-0.2276827;0;
634.2361;0;0;614.1062;-0.09772635;-2.889394;637.131;640.9427;0.08311949;-0.3573886;0;
620.7927;0;0;634.1038;1.241542;-5.498703;626.6208;629.2417;0.08303597;-0.1621275;0;
199.318;0;0;246.786;6.8;-3.88571;208.8884;213.2557;-0.1119495;-0.0969972;0;
202.5535;0;0;246.3506;10.27579;-6.226086;209.678;218.6636;-0.306739;-0.0319324;0;
18.13005;0;0;78.0001;6.246979;-1.129249;30.80709;39.28397;-0.1115288;0.03306704;0;
-590.02;0;0;-506.0972;5.90591;-1.463029;-571.6086;-565.2642;0.21342;-0.03193354;0;
-634.6544;0;0;-578.1772;14.0043;3.36109;-620.8217;-612.5471;0.1482382;-0.09686879;0;
-250.0222;0;0;-227.6472;16.13368;5.367201;-237.7651;-230.3109;-0.1117801;0.1630979;0;
-236.2778;0;0;-216.7988;9.352317;1.476798;-222.034;-219.3974;-0.2416025;0.4228034;0;
-7.967497;0;0;-11.99624;8.472263;3.283853;-0.1098371;2.898932;-0.1763924;0.09754186;0;
633.3431;0;0;606.5799;6.789787;-8.977079;633.3219;638.7639;0.08365422;0.03247651;0;
626.0851;0;0;635.7054;4.572162;-13.58976;630.8115;633.8117;-0.2412665;-0.03252348;0;
204.7924;0;0;247.1991;5.639295;-3.79684;214.8239;219.3204;-0.3709588;-0.4222949;0;
201.7131;0;0;237.3306;3.289104;-5.400494;208.8609;217.7882;-0.04574935;-0.4218705;0;
-0.6379511;0;0;52.31001;9.98458;0.566292;11.00041;18.60686;-0.1756381;-0.03164257;0;
-596.1505;0;0;-521.0793;12.98866;3.713799;-575.9031;-569.9285;-0.2404289;0.3581933;0;
-628.5974;0;0;-582.712;0.6507469;-8.614549;-611.6187;-603.9634;-0.17522;-0.03197069;0;
-269.8957;0;0;-254.2289;0.9848856;-9.878447;-257.8692;-251.9707;-0.04510925;-0.2268406;0;
-255.2567;0;0;-238.0439;-1.628072;-10.7393;-240.7435;-239.9734;0.1498381;0.09822406;0;
-5.563142;0;0;-7.170643;-3.56882;-13.40782;4.875016;4.832259;-0.2401165;-0.2267114;0;
627.3743;0;0;601.5931;13.24663;-4.820659;628.3068;629.9507;-0.1099406;-0.4213856;0;
615.7495;0;0;618.8546;17.11808;-3.007398;620.1792;619.8849;0.2150066;0.2287113;0;
203.4002;0;0;240.0479;21.58886;-7.492111;213.4477;213.2162;0.1498232;0.6182855;0;
206.5067;0;0;239.1195;26.38994;-7.149668;213.4831;217.2498;0.08470535;0.2928275;0;
10.02281;0;0;59.09462;21.13851;-5.802825;22.05217;26.62722;-0.04531444;-0.03230343;0;
-596.9322;0;0;-527.0452;21.78783;-5.328114;-579.6051;-576.0341;0.2795678;-0.3571077;0;
-634.813;0;0;-597.0427;18.48341;-4.719914;-623.4379;-618.4962;0.4741889;-0.3567488;0;
-251.9923;0;0;-243.3702;16.12031;-3.777532;-241.3157;-237.2535;0.01894105;-0.4213577;0;
-239.7451;0;0;-228.0083;15.50188;-4.376461;-225.3936;-224.6464;-0.1110127;-0.6158364;0;
-11.86863;0;0;-18.69675;13.20815;-3.233476;-2.84137;-1.782541;0.01903357;-0.3553482;0;
633.194;0;0;607.2574;9.979699;-3.565141;634.9034;637.273;-0.0459529;-0.2900238;0;
627.7477;0;0;636.0074;6.889189;-3.159662;632.6413;633.5717;-0.3057761;-0.6795364;0;
206.8282;0;0;251.3739;10.09745;3.809616;216.4645;218.6434;-0.3704362;-0.3540169;0;
206.3081;0;0;247.4357;9.551437;6.618949;213.6233;219.7355;-0.1101946;0.1011102;0;
1.578575;0;0;57.96968;5.790796;8.420838;12.50962;18.74064;0.0198508;-0.2238281;0;
-588.6263;0;0;-508.5538;4.980694;11.56045;-569.3979;-564.7349;-0.2400385;-0.3535379;0;
-616.0833;0;0;-563.39;0.8898528;9.271539;-598.9982;-593.5277;-0.1098626;0.2964908;0;
-261.9544;0;0;-239.7363;-1.455566;9.664121;-248.6971;-245.1062;-0.0447849;0.2312255;0;
-247.9481;0;0;-224.5654;0.2208359;14.74499;-232.0179;-233.0533;-0.0447399;-0.2237782;0;
2.175405;0;0;7.668593;-1.386976;16.13682;13.15459;12.93233;0.2151744;-0.09361871;0;
634.6678;0;0;617.5418;-1.251861;15.7187;635.3911;638.1675;-0.3047805;-0.2884267;0;
626.0966;0;0;638.7228;-2.05391;16.70753;630.5048;631.9041;-0.6942783;-0.2231695;0;
216.1107;0;0;264.3314;-5.468098;14.54741;226.8239;228.7215;-0.3037767;0.03692411;0;
211.2084;0;0;258.2563;-6.400609;14.1309;219.4745;225.1184;0.02136528;-0.2879497;0;
9.59744;0;0;70.46602;-9.944151;14.98748;21.85321;26.80429;0.5410826;-0.3526277;0;
-590.8604;0;0;-511.9371;-10.80482;14.10164;-573.4945;-571.1721;0.3456368;-0.02743669;0;
-632.1207;0;0;-581.6998;-12.3342;17.83839;-617.8332;-614.7635;-0.1744492;0.03755824;0;
-256.2366;0;0;-234.1647;-13.12609;18.69125;-242.4008;-239.8339;-0.04433922;0.1024878;0;
-239.6748;0;0;-215.6886;-9.562926;14.58663;-222.4796;-223.7259;0.02067267;0.4921889;0;
-12.11078;0;0;-7.451468;-9.352247;13.96912;0.13216;-1.612621;0.1505866;0.6216291;0;
629.7662;0;0;613.8687;-0.6353127;11.40974;632.5641;634.0695;0.2154026;0.2312004;0;
630.5078;0;0;647.0474;3.920653;9.053992;637.1759;637.9301;0.2801535;-0.09386867;0;
207.2117;0;0;252.7826;-2.714719;12.52789;219.995;221.0608;0.474774;-0.09377434;0;
207.4408;0;0;246.1568;-0.9033297;12.1134;216.4631;221.9007;0.1494603;0.2311566;0;
10.64364;0;0;67.43668;-3.78281;7.881425;22.46804;28.27491;0.08434276;0.1009897;0;
-595.4999;0;0;-512.7145;-6.056185;6.265915;-576.1911;-572.1392;0.27916;0.1008882;0;
-629.1343;0;0;-575.48;5.336755;6.393585;-612.8434;-607.4213;0.08397751;0.4256235;0;
-264.3727;0;0;-246.9416;6.269398;6.119229;-253.2206;-248.8034;0.01892579;-0.3544123;0;
-255.174;0;0;-237.8854;6.329471;1.826295;-242.2216;-242.4315;0.08387411;-0.6788929;0;
-5.230639;0;0;-8.449096;7.99805;0.7528551;3.648336;3.563573;-0.1111122;-0.02853729;0;
630.9548;0;0;601.8776;-1.187014;1.957669;630.7045;633.2435;-0.0460332;0.03645874;0;
622.3249;0;0;623.3867;-2.457643;1.620788;624.3861;625.4858;-0.1109543;-0.09351259;0;
215.8411;0;0;250.9472;-8.618092;5.839084;222.8977;224.8084;-0.3057448;0.03651607;0;
211.7511;0;0;245.0105;-13.16378;7.440685;217.6138;222.7709;0.2143011;0.2963488;0;
6.828762;0;0;57.17105;-0.3571819;8.303987;18.12029;22.39766;0.6688572;0.490953;0;
-590.4404;0;0;-519.9089;2.054075;10.37211;-573.9128;-570.5143;0.278381;0.4254923;0;
-625.8915;0;0;-585.2908;-1.699034;8.888067;-613.0662;-608.5467;-0.1117027;0.1002281;0;
-256.8853;0;0;-245.1234;0.9156179;10.28578;-244.4477;-241.9317;-0.1115905;0.1650947;0;
-243.4463;0;0;-229.6348;0.7136271;8.265955;-227.5229;-229.1324;0.01845634;0.2298962;0;
-10.75599;0;0;-15.26167;2.655293;7.319888;0.4662038;-0.7668314;-0.3713663;-0.1601389;0;
628.7458;0;0;603.8175;6.537391;12.53708;631.8359;632.9154;-0.5009278;-0.03004329;0;
631.0501;0;0;638.6305;8.205762;11.45276;637.1355;636.4648;0.2791837;0.03495425;0;
210.8145;0;0;256.8054;16.97143;18.00545;222.8907;222.8454;0.6687072;-0.4198523;0;
207.2293;0;0;250.1755;21.44235;19.86288;217.232;220.8724;0.2782312;-0.2894957;0;
14.74276;0;0;70.07706;16.86646;6.312617;27.67139;30.49603;0.2779516;0.2955013;0;
-584.7208;0;0;-507.0158;17.72016;2.823283;-563.3718;-562.1118;-0.1121317;0.2952043;0;
-623.6133;0;0;-575.5966;19.97953;-0.3946123;-603.4728;-600.34;-0.6967251;-0.2897984;0;
-256.6084;0;0;-239.9992;19.4236;-4.279226;-241.0483;-238.7931;-0.501123;-0.2245398;0;
-243.8569;0;0;-224.7655;22.01605;-4.542736;-226.7507;-228.4958;-0.3706848;-0.0294122;0;
-9.167169;0;0;-9.023033;22.195;-5.676881;3.986302;1.555814;-0.110443;-0.09434999;0;
624.0862;0;0;602.0539;17.08248;-8.350494;628.5433;627.6146;0.2145047;0.1006469;0;
626.8325;0;0;637.2434;15.39038;-9.279864;633.6589;631.4192;0.01938716;0.1655131;0;
214.4096;0;0;262.2288;13.23146;-2.438403;226.7264;224.8638;0.1493024;-0.02955528;0;
204.1992;0;0;250.2212;11.14206;-0.9623285;216.0039;218.7658;0.279087;-0.2244276;0;
6.968044;0;0;67.37408;11.33193;4.330168;23.07122;27.01725;0.01893723;-0.1592348;0;
-588.6146;0;0;-509.0289;10.18147;8.009756;-568.9669;-565.9619;-0.04604914;0.03582728;0;
-624.5048;0;0;-575.0465;12.51576;0.8346564;-608.7499;-603.624;0.08393182;-0.02917608;0;
-256.6244;0;0;-235.0768;13.84236;0.4990251;-240.7604;-237.0764;-0.1760219;-0.0941141;0;
-248.9953;0;0;-223.5962;7.399065;0.09662607;-230.461;-231.216;-0.6955838;0.1658498;0;
-10.86463;0;0;-3.169745;5.51562;-1.645027;2.903353;2.399036;-0.5649502;0.3605852;0;
630.4489;0;0;618.396;14.82083;-1.509408;637.5189;638.202;-0.1745784;0.2302882;0;
626.6296;0;0;646.3853;16.94939;-3.584363;636.8784;636.0615;-0.1094357;0.1001221;0;
209.8341;0;0;261.9911;14.11932;0.1702831;225.0076;225.6284;0.215511;-0.2897825;0;
203.5013;0;0;252.3576;16.78445;1.643615;216.1609;220.6541;0.3452291;-0.5493607;0;
9.331855;0;0;74.88063;5.781896;-7.86937;24.9147;29.3409;0.02004554;-0.2889394;0;
-583.8793;0;0;-496.5949;1.020664;-9.134138;-560.1288;-556.5191;0.08499274;0.101155;0;
-623.335;0;0;-565.1237;21.04668;-6.780557;-601.3574;-595.3151;0.1498747;0.1010534;0;
-254.2064;0;0;-226.8506;24.17434;-7.376591;-236.124;-230.8374;0.2796588;-0.02898284;0;
-241.6447;0;0;-213.3169;15.77731;-2.546529;-221.2691;-219.9858;0.4093125;-0.02895372;0;
-7.706853;0;0;-0.1470722;16.0289;-1.941124;7.775738;9.120234;0.08406446;-0.2238266;0;
632.1043;0;0;615.2313;11.19002;1.6108;638.326;640.981;-0.1758894;-0.09366706;0;
628.9704;0;0;644.2232;9.236393;2.546942;638.3093;639.0875;-0.3056473;0.1662964;0;
207.5499;0;0;259.7063;6.146629;0.535017;222.0018;224.0287;-0.5002422;-0.09374004;0;
195.4723;0;0;243.5783;2.925272;0.7354282;207.8483;213.996;-0.3698049;-0.2235805;0;
1.68574;0;0;62.04971;8.213618;-9.178662;18.60943;24.75099;0.1503054;0.1664482;0;
-583.2095;0;0;-507.9137;8.607507;-12.71941;-562.4922;-556.9815;0.3450564;0.2962156;0;
-618.8552;0;0;-579.0548;4.579394;-12.90758;-602.9064;-596.0269;0.2797424;-0.2238208;0;
-254.7911;0;0;-245.3279;4.642142;-14.97096;-238.5459;-234.1721;0.4743633;-0.3535306;0;
-246.1018;0;0;-234.0869;4.704826;-15.0229;-227.3118;-227.0028;0.4089193;-0.288208;0;
-12.53431;0;0;-18.08519;4.297957;-15.47669;0.489747;1.860371;0.2136064;-0.222951;0;
626.657;0;0;601.0593;8.379476;-11.3753;631.4221;634.478;0.08345708;0.03714235;0;
624.5281;0;0;631.7521;9.710226;-9.823261;632.5368;633.1533;0.01840589;0.1670397;0;
207.235;0;0;251.8704;8.897162;-4.655827;221.6699;223.0355;0.08335473;0.1019045;0;
203.7159;0;0;245.1206;10.42846;-1.034192;216.5746;222.4365;0.01830364;0.2967042;0;
12.91954;0;0;68.58794;5.194048;-4.114368;29.13861;35.24452;0.08325259;0.1664713;0;
-585.6051;0;0;-505.1926;3.179097;-2.770575;-561.8436;-557.2431;0.1481363;-0.1585326;0;
-628.4324;0;0;-577.0861;10.2085;-2.767792;-607.8182;-600.9109;0.2779221;0.03652869;0;
-254.4261;0;0;-237.9264;10.06452;-2.898976;-238.0805;-232.1172;0.1477082;-0.2233774;0;
-245.7996;0;0;-228.317;10.92507;1.122791;-226.6594;-225.6371;0.08259241;-0.418055;0;
-21.91508;0;0;-22.00373;11.91944;2.997185;-6.542166;-4.958714;0.2124441;0.3619732;0;
622.2831;0;0;603.329;6.07934;-1.22563;628.6451;632.4759;-0.04763873;0.5565115;0;
627.0302;0;0;643.7022;6.207929;-1.090432;636.0719;637.9623;-0.1125582;-0.02875375;0;
206.7361;0;0;258.6237;-1.970959;2.661586;221.4534;223.9041;-0.1124451;-0.2236269;0;
202.343;0;0;254.8031;-6.054815;3.32874;215.6087;222.2423;0.01760257;-0.0934675;0;
9.174131;0;0;80.32215;5.873987;8.081062;26.36206;33.73862;0.6022909;-0.02840624;0;
-588.1599;0;0;-500.779;6.471297;10.14941;-567.366;-561.9333;0.5367184;-0.2232797;0;
-628.6732;0;0;-573.489;8.206107;9.000504;-611.7733;-606.4086;-0.04852694;-0.4179574;0;
-266.2858;0;0;-242.2665;10.60973;9.460341;-248.6533;-244.6683;-0.2433802;-0.3525701;0;
-255.0238;0;0;-234.152;3.499127;7.910228;-234.0357;-234.6149;0.08170105;0.03758824;0;
-12.76419;0;0;-12.02826;2.959748;6.29469;3.142878;2.064497;0.01665161;-0.09238423;0;
623.5538;0;0;603.362;1.214486;6.288365;631.9487;632.2457;-0.1782671;-0.1572587;0;
623.1771;0;0;633.3654;-0.3943251;4.27268;634.9993;632.6099;0.08178135;0.03780131;0;
220.3156;0;0;264.4766;-0.8624434;2.526831;237.061;235.7359;0.01673183;-0.02720403;0;
208.1628;0;0;249.7806;-3.674616;2.122394;222.5799;225.9413;0.211617;-0.1571114;0;
0.05809043;0;0;56.75148;2.223574;-9.802334;18.14642;20.69236;0.4063064;-0.02701883;0;
-593.3312;0;0;-512.7068;1.618128;-14.54815;-567.515;-565.8461;-0.2437752;0.4927471;0;
-632.6525;0;0;-576.4719;-0.4596031;-6.227893;-608.4863;-604.4454;-0.3084976;0.4272846;0;
-259.5165;0;0;-235.3763;-0.05699965;-7.025431;-240.5595;-238.0219;-0.04831829;-0.09288347;0;
-246.0124;0;0;-221.7715;-12.58287;-3.200466;-226.6372;-228.225;-0.5030411;-0.1577575;0;
-22.06514;0;0;-15.58967;-15.98648;-0.1160356;-6.832344;-7.544023;-0.4375683;-0.2875336;0;
622.9453;0;0;605.4888;-17.77908;-8.220732;629.4172;631.0801;0.2125448;-0.4171794;0;
632.002;0;0;644.9228;-21.17649;-8.011523;641.9656;641.4404;0.3422659;0.1029785;0;
205.8933;0;0;253.9085;-14.12261;-5.324155;220.2822;221.7565;0.0820526;0.2977771;0;
194.0673;0;0;239.6604;-13.57256;-4.916908;205.3808;212.6007;-0.04796453;0.1025758;0;
7.653408;0;0;68.31808;-8.736151;0.1116303;24.57768;30.04123;-0.04791634;-0.1573966;0;
-587.6801;0;0;-509.7101;-4.239394;2.053901;-566.0876;-563.1283;0.01709915;-0.2871732;0;
-630.5052;0;0;-583.4731;-13.07737;3.659428;-614.0569;-608.4144;-0.1778201;-0.02701523;0;
-259.2455;0;0;-239.3719;-13.46539;5.531273;-243.1885;-238.3638;0.01726064;0.1029466;0;
-247.5532;0;0;-225.3259;-5.280191;5.257783;-228.5764;-228.5041;0.34208;-0.02709153;0;
-10.23615;0;0;-7.958604;-3.600922;5.922329;3.599197;3.858799;-0.04806776;0.03790305;0;
627.2037;0;0;609.6765;-0.9179869;6.251172;634.1536;636.287;-0.1779542;-0.09206973;0;
621.3262;0;0;636.55;3.236121;6.512822;632.267;632.6492;0.01712669;-0.09197722;0;
212.0947;0;0;262.7855;-6.546394;2.152509;228.7093;230.153;0.08207682;0.4278539;0;
204.3229;0;0;253.0887;-8.348477;-0.9307465;218.2346;223.9248;-0.1129077;0.3624567;0;
1.656874;0;0;64.49152;5.457663;7.308846;19.11532;24.8622;-0.1127942;0.1671905;0;
-590.1723;0;0;-506.0365;7.26084;8.708143;-563.9233;-559.1193;0.2771232;0.1670225;0;
-628.4973;0;0;-573.9312;10.46873;-1.079871;-605.0233;-598.225;-0.04799201;0.03691997;0;
-256.24;0;0;-234.15;13.27125;-2.351462;-237.0375;-231.2456;-0.3727805;0.1018502;0;
-245.3629;0;0;-219.4845;7.29704;-4.894329;-222.9938;-221.1432;-0.1125365;-0.2230888;0;
-25.47675;0;0;-15.67877;7.490778;-8.037608;-6.940675;-4.717147;0.01751121;-0.4827341;0;
622.6606;0;0;608.2109;1.320333;1.950681;632.4324;636.028;0.08246095;-0.1574123;0;
639.2138;0;0;654.5137;-1.896174;4.494072;651.2872;652.5053;0.1473454;0.03764792;0;
211.7236;0;0;263.927;3.464366;-3.749222;228.7198;230.9987;0.2771321;-0.02735727;0;
203.2025;0;0;252.9797;3.126092;-4.147353;219.1197;225.3943;0.2768536;0.03763758;0;
20.09026;0;0;82.4361;1.247917;-0.8610216;40.36427;46.44519;0.2116081;0.2325018;0;
-585.9378;0;0;-505.5387;0.1749362;-0.4582588;-562.061;-556.9857;-0.1784086;0.1673008;0;
-633.1375;0;0;-582.7417;6.00191;0.6809115;-613.72;-607.2755;-0.5680334;0.1021654;0;
-257.5648;0;0;-236.4549;8.406776;1.4839;-238.4167;-233.8527;-0.1776586;0.2969647;0;
-247.7483;0;0;-224.6606;-1.514657;-0.05807599;-225.371;-225.9965;-0.1125127;0.1017643;0;
-16.99026;0;0;-11.22957;-3.85766;-0.9957787;1.179163;0.1794847;-0.04743232;-0.483044;0;
620.0816;0;0;605.0344;1.036337;2.89011;629.9869;631.8618;0.4723541;-0.4825586;0;
626.0178;0;0;640.8457;0.03091753;3.490052;638.2869;638.0984;0.0820754;0.03766498;0;
224.4652;0;0;273.761;-1.376609;-1.403087;241.782;241.7187;-0.3078111;0.1025945;0;
211.3087;0;0;261.1796;-2.513326;-2.540386;226.4841;231.4184;0.01733488;-0.02744331;0;
4.012963;0;0;72.38691;-3.783598;-5.350995;23.42104;28.85004;0.1472521;0.297421;0;
-586.3818;0;0;-495.5879;-4.04724;-7.757004;-558.9973;-555.0105;-0.04779784;0.2971221;0;
-623.0864;0;0;-562.8683;-12.41592;-6.543517;-599.1026;-593.4332;-0.1127172;-0.2878825;0;
-259.7051;0;0;-231.0318;-15.95342;-7.876601;-240.618;-236.8284;0.01733079;-0.4175279;0;
-249.1993;0;0;-218.4933;-9.440651;-8.40455;-228.0699;-228.6569;0.01731338;-0.157239;0;
-20.62619;0;0;-8.441746;-9.564887;-8.864985;-3.953322;-3.727589;-0.04767136;-0.09211368;0;
615.1375;0;0;607.2573;-11.63236;-11.93717;623.2979;625.2725;-0.3074928;-0.2219558;0;
625.5764;0;0;649.8754;-11.55332;-13.06389;638.851;638.6996;-0.5670532;-0.3516675;0;
208.7195;0;0;267.2893;-12.81451;-13.11774;227.1656;228.8885;-0.3715814;-0.2213794;0;
200.2014;0;0;258.9623;-13.40387;-13.97534;215.5056;221.8495;-0.4361754;0.2336144;0;
15.46801;0;0;91.53613;-13.12296;-13.02354;35.50445;41.34219;-0.3707698;0.5582164;0;
-592.1796;0;0;-499.3214;-13.77936;-12.60855;-567.6031;-563.3954;0.01940682;0.4277208;0;
-640.6224;0;0;-582.715;-12.0242;-15.60999;-619.8187;-614.1785;0.149322;0.1024543;0;
-257.1087;0;0;-231.6806;-10.6056;-16.26414;-235.7637;-231.0661;0.2141393;0.1673187;0;
-248.7294;0;0;-218.0171;-13.74277;-13.43463;-224.4698;-223.8375;0.3438588;0.2321179;0;
-27.34065;0;0;-12.02647;-10.98327;-12.61734;-8.72761;-8.033408;0.278546;0.10195;0;
614.6141;0;0;604.8006;-17.33525;-13.81035;624.4629;627.7801;0.1483314;0.2317823;0;
624.6163;0;0;643.4232;-18.25486;-13.39458;636.2667;637.7065;0.08321501;-0.02832001;0;
217.1931;0;0;272.2129;-1.223585;-13.4481;233.0172;235.7049;-0.1117706;-0.2231936;0;
205.6681;0;0;258.8835;1.925476;-13.76951;219.6022;227.4721;-0.04669098;-0.158002;0;
0.7517974;0;0;67.03212;15.5212;-10.00463;19.23216;26.15714;0.2132253;-0.1578432;0;
-591.7012;0;0;-505.1227;23.94472;-8.922969;-565.6182;-560.137;0.08307637;0.3620541;0;
-627.2759;0;0;-571.2691;7.845733;-12.06208;-604.2802;-595.9308;0.01802555;0.4266577;0;
-261.1419;0;0;-240.2987;6.698774;-12.25091;-243.3541;-236.3875;-0.2418619;0.2962943;0;
-248.6981;0;0;-226.1892;9.170289;-13.64524;-228.9292;-227.3419;-0.3065862;0.3609639;0;
-17.93907;0;0;-12.56919;6.348036;-14.77012;-1.250973;0.3971893;0.1484932;0.1656992;0;
619.696;0;0;600.8226;5.403652;-11.33927;627.7466;631.642;-0.1115254;-0.09433668;0;
629.1307;0;0;641.5731;2.250391;-9.787267;640.1718;642.1267;-0.241348;-0.2241766;0;
212.5826;0;0;260.4947;3.520927;-15.06896;228.4227;231.3752;0.1486986;0.2308201;0;
205.1852;0;0;249.4884;3.918555;-15.25477;217.7609;225.5205;0.1485492;0.4904575;0;
19.57217;0;0;79.13567;-7.070096;-11.1536;36.44563;44.32236;0.2133672;0.1001607;0;
-586.7053;0;0;-506.2746;-9.272818;-10.53955;-564.414;-558.4193;0.1481855;0.1650274;0;
-634.5914;0;0;-581.0406;-4.44073;-5.706311;-616.3205;-610.0194;-0.1768001;0.4247309;0;
-248.46;0;0;-220.95;-4.503616;-4.360919;-230.0201;-225.7868;-0.04668777;0.2294021;0;
-237.7781;0;0;-209.9834;3.538861;-1.811308;-214.1718;-214.8153;0.08329383;0.09923692;0;
-23.77162;0;0;-20.4925;7.151651;0.4009492;-3.187531;-4.580035;0.01824279;-0.09576483;0;
616.9302;0;0;593.6569;7.211814;-7.503318;629.9349;630.1055;-0.04674289;0.03426609;0;
629.3663;0;0;636.1013;9.750163;-9.103247;644.0446;642.4659;-0.3715326;0.4890031;0;
216.2537;0;0;258.9014;9.204503;-9.362032;234.478;234.2127;-0.4361266;0.4235443;0;
207.0409;0;0;246.8347;9.060556;-11.4291;222.4358;226.731;-0.4356884;-0.03165263;0;
8.432635;0;0;65.4277;11.19491;-8.403502;28.6221;32.7256;-0.305316;-0.03162083;0;
-591.4618;0;0;-506.663;11.04994;-7.658245;-562.2347;-559.0723;-0.1750745;0.09834564;0;
-631.597;0;0;-573.62;6.216061;-12.13828;-605.1479;-600.3021;-0.5647026;-0.1616226;0;
-255.5261;0;0;-231.2779;4.535852;-13.39876;-233.6013;-230.3845;-0.4342005;0.03344188;0;
-241.1515;0;0;-216.8651;3.191148;-5.146522;-216.8748;-218.284;-0.0439602;0.09837563;0;
-14.02319;0;0;-7.502368;3.121568;-2.663104;5.981156;4.823305;-0.04391602;-0.22656;0;
622.2961;0;0;607.6335;-4.652077;-7.215146;633.2849;634.5644;-0.1738066;0.2284391;0;
625.169;0;0;642.8799;-8.532168;-6.939964;638.9578;638.6119;-0.3035666;0.09827489;0;
213.1851;0;0;265.7982;6.815374;-5.392384;231.083;232.2367;-0.04339223;-0.7463993;0;
209.785;0;0;260.0963;8.75091;-5.319982;224.8538;231.2537;0.2165207;-0.1609433;0;
14.98452;0;0;82.92388;6.867082;-3.50622;35.22309;41.30423;-0.04356619;0.2939899;0;
-588.6022;0;0;-501.9905;7.797211;-2.363986;-563.5739;-559.1854;-0.1734571;-0.03114226;0;
-635.6743;0;0;-580.6338;3.971959;-7.050294;-615.4187;-609.1607;0.1515539;0.2287584;0;
-258.9745;0;0;-231.2882;3.565827;-8.18192;-239.489;-234.4241;0.2813363;0.2285286;0;
-247.0327;0;0;-214.8764;-3.806123;-3.217084;-224.2559;-222.8818;0.1511189;-0.3564072;0;
-26.58267;0;0;-11.3252;-5.34254;-2.477039;-8.201533;-6.703878;-0.1089023;-0.2261144;0;
615.6212;0;0;609.749;-12.43712;-2.876448;626.1129;629.2332;0.02114183;0.1639169;0;
624.248;0;0;649.5535;-16.77888;-2.069762;637.8525;639.8453;0.1510553;0.6185236;0;
213.5769;0;0;274.0268;-2.025285;-2.201648;232.6025;236.155;-0.3688352;0.5529348;0;
213.7371;0;0;270.7529;-0.0144945;-1.395641;230.7446;237.5419;-0.3034973;-0.09729426;0;
10.43691;0;0;83.57482;6.616952;-2.733897;31.92506;38.34069;0.02164437;0.2276402;0;
-596.6434;0;0;-499.1538;13.57653;-2.999082;-566.4937;-560.9591;0.2165246;0.4872808;0;
-637.8979;0;0;-570.5536;-1.307568;-0.2497684;-610.2148;-603.4988;0.1513397;-0.09791486;0;
-265.9436;0;0;-233.3995;-2.846496;-0.1825345;-243.5981;-237.4511;-0.04371436;-0.2277512;0;
-252.2456;0;0;-216.7982;9.614945;1.693049;-227.3614;-225.2185;0.3461336;0.03234707;0;
-27.10518;0;0;-8.684849;11.21288;2.361177;-5.744185;-5.040281;0.2808185;0.09728191;0;
611.9758;0;0;603.0789;9.058154;-0.7892712;623.3204;624.8357;-0.1092677;0.03221682;0;
627.0405;0;0;646.5132;8.847982;-1.592273;641.4346;640.3872;0.02077674;0.2270865;0;
215.9293;0;0;271.8017;10.64775;-2.595417;235.7437;236.5089;-0.1741462;0.2918256;0;
200.4075;0;0;254.2872;10.83812;-3.865363;217.0786;223.3403;-0.2389385;0.09663039;0;
-0.4429743;0;0;67.12566;6.540327;-5.335104;19.7096;25.52769;0.216073;0.4863373;0;
-597.455;0;0;-514.8368;5.59575;-6.803368;-573.7619;-569.199;0.4107579;0.161012;0;
-642.5192;0;0;-591.7805;3.982537;-7.600327;-622.9104;-616.7904;0.1504758;-0.4238559;0;
-268.2489;0;0;-245.6721;3.442672;-9.401107;-248.9721;-244.3575;0.02038989;-0.2934953;0;
-252.0498;0;0;-227.0595;1.363108;-5.774704;-230.0439;-229.6817;0.2152714;-0.03333107;0;
-31.34488;0;0;-24.558;-0.04478156;-4.228294;-13.04667;-13.1222;0.4099571;-0.1632323;0;
616.7359;0;0;600.6524;8.328008;-14.40521;627.5819;628.9432;0.08470851;-0.4229376;0;
636.5434;0;0;651.7729;10.32937;-16.93608;650.2521;649.8005;-0.2402133;-0.3575453;0;
210.5551;0;0;263.0006;12.12668;-11.89547;229.4974;230.6079;-0.1750046;-0.03234933;0;
198.5994;0;0;249.0557;15.73182;-13.02223;214.2744;220.3188;-0.7595348;-0.09728417;0;
11.99359;0;0;76.76691;8.080197;-8.186493;31.77567;37.37675;-0.8887063;-0.3570558;0;
-592.777;0;0;-505.8299;7.201423;-5.833864;-563.3946;-560.3604;-0.1082053;-0.2917297;0;
-640.9693;0;0;-580.7213;11.81589;-13.26299;-613.9903;-609.3349;-0.04312919;0.09836753;0;
-265.3887;0;0;-236.6854;10.46387;-12.91474;-242.4348;-238.4088;-0.2379879;-0.09663335;0;
-252.5659;0;0;-222.7045;17.08479;-14.2413;-226.699;-226.4251;0.1520553;-0.421373;0;
-25.98837;0;0;-16.89653;18.87628;-15.49967;-5.269889;-4.121757;0.2168699;-0.4859169;0;
614.8406;0;0;597.3742;10.61829;-8.38415;625.9806;629.314;-0.1731521;-0.8102654;0;
621.0944;0;0;636.8163;9.804314;-7.839861;635.4716;636.8651;-0.4978148;-0.4846145;0;
210.5514;0;0;261.8021;4.83797;-3.813008;228.7246;231.6785;-0.3024126;0.1655459;0;
209.84;0;0;257.6035;1.818998;-1.933776;225.8087;232.9449;0.02272798;0.03544485;0;
10.4793;0;0;76.81044;4.763932;-6.419568;32.61627;39.18313;-0.1072295;-0.3543948;0;
-590.7915;0;0;-505.599;3.151555;-5.877254;-564.4289;-559.1805;0.08778023;-0.4839734;0;
-632.739;0;0;-579.9908;10.38206;-12.77047;-611.4004;-605.0953;0.5424634;-0.1586504;0;
-264.0382;0;0;-239.2665;14.8596;-14.767;-243.783;-238.2963;0.02217961;-0.09352365;0;
-246.3442;0;0;-217.287;2.18502;-13.01073;-223.4856;-221.815;-0.3026794;-0.2233644;0;
-20.77241;0;0;-8.548537;1.580588;-13.86831;-1.9973;-0.6407347;0.0874288;0.2316315;0;
615.3662;0;0;606.3385;8.276805;-8.897763;626.7512;629.5432;0.08734096;-0.02847064;0;
632.1142;0;0;656.2663;7.130389;-7.281354;645.6741;646.2769;0.1522205;-0.6781154;0;
215.1258;0;0;279.1086;21.12205;-4.460755;233.4822;235.2712;0.08710025;-0.2226627;0;
203.6653;0;0;267.1466;24.78452;-2.580873;219.6294;225.9769;0.2169474;-0.09250427;0;
14.68054;0;0;89.77966;19.73577;-0.5018085;34.25179;40.53042;0.4116314;-0.09241132;0;
-591.7794;0;0;-499.7018;22.86475;0.9723203;-563.5447;-558.6467;0.02141378;0.4274203;0;
-644.5954;0;0;-582.2205;5.560423;-0.4352983;-618.0132;-611.2461;-0.1735098;0.2320888;0;
-266.7623;0;0;-235.3095;0.7994137;0.569883;-244.7671;-239.0062;-0.1083681;-0.09298114;0;
-248.6283;0;0;-216.27;7.831208;-8.004383;-225.6556;-223.5862;-0.1732265;-0.2877897;0;
-24.30356;0;0;-11.9678;5.076673;-11.27838;-6.289016;-3.784394;0.02184956;-0.4174353;0;
617.8356;0;0;605.7338;12.37259;-5.30569;626.9615;630.4631;0.2167296;0.1676903;0;
625.5856;0;0;646.9791;12.22644;-6.506052;638.0756;639.8871;0.2165119;0.7522278;0;
206.9171;0;0;264.271;16.70213;-4.423044;224.0173;227.701;0.08635962;0.2967006;0;
206.2095;0;0;259.1954;19.36466;-4.150668;221.0436;227.6596;-0.04366184;-0.1583689;0;
14.72341;0;0;84.1478;5.346384;-4.816326;34.22776;40.33736;0.08631672;-0.09324244;0;
-589.8625;0;0;-502.7668;2.929138;-3.404845;-566.1923;-560.7761;0.2161647;-0.02818141;0;
-637.8079;0;0;-585.7197;-2.298718;-13.85052;-617.8472;-611.6242;0.2159475;-0.2880225;0;
-272.3504;0;0;-250.112;-6.382245;-17.3867;-252.4097;-247.0051;0.2157305;-0.4176677;0;
-254.3981;0;0;-228.7463;-3.629166;-9.398378;-231.9788;-229.3282;0.1505464;-0.3522807;0;
-20.57241;0;0;-13.1872;-5.032039;-9.455918;-3.110592;-0.3377596;0.08542776;-0.1570247;0;
617.8773;0;0;603.3287;-3.687812;-11.4559;626.4511;630.1581;0.08534192;-0.0918996;0;
631.2495;0;0;647.2001;-4.353692;-11.71233;641.3763;642.8308;0.1502235;0.03812744;0;
211.0136;0;0;262.6802;2.817978;-12.3034;226.6275;229.8921;0.4099419;0.2329912;0;
200.057;0;0;250.2974;5.628186;-12.96087;213.9685;222.4147;0.4744974;-0.02711234;0;
17.75999;0;0;82.6925;-1.477416;-13.1488;35.71803;44.34316;0.1491839;0.1028496;0;
-588.7655;0;0;-500.9723;-1.274861;-13.20257;-562.892;-555.0876;0.2140013;0.1027463;0;
-640.5851;0;0;-580.866;-5.024624;-16.40436;-618.2358;-608.1279;0.08385161;-0.2221937;0;
-257.3837;0;0;-231.0204;-6.292373;-16.78977;-239.742;-230.8312;-0.2410693;-0.09203576;0;
-243.7568;0;0;-214.7963;-8.094711;-20.52382;-222.822;-219.5423;-0.1108924;-0.221878;0;
-25.99619;0;0;-14.86833;-10.83227;-23.51744;-7.831075;-5.616645;-0.1757484;-0.221655;0;
618.5809;0;0;603.0236;0.5654709;-14.98709;627.7323;632.4433;-0.3055064;0.1034044;0;
629.641;0;0;645.4585;3.712734;-15.17298;641.8442;645.7383;0.3444739;-0.09160152;0;
209.4692;0;0;262.0648;-1.314838;-13.81808;227.2823;232.6093;0.5390298;0.1033926;0;
205.1983;0;0;253.9929;0.7635641;-11.66086;220.932;229.6894;-0.1111852;0.2332234;0;
13.27598;0;0;77.76365;-2.519733;-25.58123;33.86643;41.42813;-0.04610614;-0.09184771;0;
-582.8127;0;0;-501.1485;-3.387857;-28.50278;-557.9327;-552.3151;0.3437442;-0.1567228;0;
-626.3924;0;0;-576.0446;2.107903;-27.06749;-605.4104;-599.1738;0.1484968;-0.0266306;0;
-263.3827;0;0;-237.2608;1.235129;-28.64776;-241.2973;-236.004;0.2782823;0.1682982;0;
-248.313;0;0;-217.0324;8.467557;-26.00677;-223.4387;-221.2116;0.537872;-0.0917403;0;
-21.61479;0;0;-8.731434;11.27209;-25.91365;-3.199764;-0.7875496;0.2124949;-0.2215828;0;
614.7745;0;0;604.7814;-0.126093;-19.18944;624.6129;628.0222;-0.1125553;-0.1563928;0;
631.2733;0;0;652.2121;-0.7955515;-16.15605;644.7873;645.7569;-0.04747491;-0.3511377;0;
211.787;0;0;271.123;-4.81324;-15.73792;231.4094;233.3775;0.4073442;-0.4807195;0;
198.0185;0;0;256.108;-6.951858;-12.90895;215.4972;221.9611;0.2120329;-0.1553998;0;
17.28524;0;0;90.37133;-1.787309;-15.91008;38.18223;44.95195;-0.1130169;-0.09027632;0;
-584.0549;0;0;-488.3661;-1.919235;-15.62617;-554.8705;-549.8568;0.6667048;0.1047164;0;
-641.189;0;0;-574.4569;6.38809;-14.60572;-614.7826;-609.0867;0.3411981;0.4294479;0;
-260.2984;0;0;-226.9291;9.797922;-15.05993;-239.5407;-233.913;-0.1139161;0.2990817;0;
-244.2323;0;0;-209.8345;9.252213;-11.69577;-221.6214;-219.4976;0.0811004;-0.02605552;0;
-32.09335;0;0;-13.97202;11.78754;-10.14341;-13.81554;-11.75632;-0.5036871;-0.155964;0;
614.239;0;0;606.9799;10.1681;-13.14733;623.3156;627.0594;-0.4382137;0.2989641;0;
632.175;0;0;653.7837;11.29696;-12.59838;644.7407;646.0445;0.2119;0.4935657;0;
207.8153;0;0;267.1333;8.00308;-12.92051;224.6162;227.5428;0.08175242;-0.221571;0;
201.1722;0;0;255.8704;7.25908;-14.31417;215.1452;223.0039;-0.1132318;-0.7410871;0;
11.06552;0;0;76.32839;10.06483;-4.587503;29.33477;37.06066;-0.1780853;-0.2206037;0;
-592.2048;0;0;-510.1411;10.18843;-2.305596;-570.7056;-563.8621;-0.5027431;0.2993567;0;
-636.0875;0;0;-583.9036;11.58472;-6.857997;-619.4199;-610.834;-0.4372706;0.2990559;0;
-263.073;0;0;-238.2404;10.90349;-5.57843;-245.6101;-238.4697;-0.1119945;0.3637228;0;
-245.6298;0;0;-219.4478;20.13593;-15.41907;-224.124;-221.1137;0.01805271;0.1034879;0;
-16.12321;0;0;-10.76959;23.7994;-19.62338;-0.511044;2.933513;0.01803457;0.0384166;0;
620.8228;0;0;602.8078;9.709312;-10.89613;627.6737;632.6141;-0.2418529;0.2982474;0;
627.0081;0;0;643.3065;6.685447;-11.42104;636.9131;639.1623;-0.4365119;0.168013;0;
210.3997;0;0;266.3492;11.90364;-13.151;225.1048;227.9139;-0.3061386;0.2328115;0;
205.5031;0;0;254.8372;10.8873;-12.73601;216.6952;224.5615;0.01900568;0.3625123;0;
17.26614;0;0;77.10789;7.259041;-17.34491;32.13261;40.74065;0.4087906;0.2322133;0;
-587.1974;0;0;-503.2404;6.313742;-18.13116;-563.2879;-556.8749;0.5383146;0.3619147;0;
-641.5797;0;0;-586.0054;4.030222;-17.44323;-619.8807;-613.0369;0.01803493;0.361551;0;
-260.3139;0;0;-240.2776;2.552304;-17.55967;-243.6341;-237.7967;-0.4367546;0.2962204;0;
-242.2488;0;0;-220.8583;7.908374;-16.0684;-224.4613;-222.128;-0.1764464;0.2309554;0;
-30.61162;0;0;-25.60939;9.105877;-15.65036;-16.27782;-14.57151;-0.3062038;0.1007887;0;
617.2185;0;0;597.1658;5.614102;-14.42894;624.4165;627.7453;-0.8906022;0.2955894;0;
635.9011;0;0;645.3538;4.469386;-14.81634;645.778;647.979;-0.4349359;0.1653577;0;
208.5392;0;0;255.401;10.22567;-9.643889;222.4041;225.5399;0.2801419;-0.2246125;0;
202.2077;0;0;248.4602;11.75564;-7.892643;214.0597;221.6901;-0.04497629;0.03548259;0;
17.53476;0;0;78.79572;5.514534;-16.8603;34.55976;42.18251;-0.1748658;-0.02952042;0;
-584.4927;0;0;-505.115;6.514348;-18.65178;-562.1125;-555.9343;0.1501466;-0.02949076;0;
-638.9403;0;0;-589.6897;-0.525772;-20.64253;-619.7685;-611.6599;0.3448978;0.4253103;0;
-273.7315;0;0;-252.8911;-2.065485;-23.16701;-254.6414;-247.6654;0.5394533;0.1000462;0;
-254.7784;0;0;-231.2728;3.361598;-22.27308;-233.0838;-230.675;0.1491072;0.03497835;0;
-25.45002;0;0;-18.83456;1.415837;-23.52325;-8.89966;-6.743132;-0.1758794;0.2298452;0;
611.3804;0;0;599.7484;22.64788;-20.61947;620.5429;624.1965;0.01919938;-0.2251571;0;
623.6971;0;0;647.4965;30.05986;-18.8572;635.4116;638.062;-0.04578725;-0.09499621;0;
211.7772;0;0;271.2222;15.89712;-22.79012;228.165;231.9997;-0.1107086;0.1000013;0;
203.6309;0;0;256.2071;17.8899;-22.03053;218.8153;225.4572;0.149272;0.03493347;0;
11.52273;0;0;75.10306;10.16974;-18.19037;31.87681;37.32515;0.2790567;0.2298004;0;
-587.8126;0;0;-503.744;6.94434;-16.29669;-559.9203;-555.4144;-0.04606039;-0.09526724;0;
-638.946;0;0;-581.8233;15.71127;-13.73496;-614.5799;-608.0796;-0.1109814;0.03476318;0;
-269.7392;0;0;-243.7833;16.23135;-11.91275;-249.2707;-244.4636;-0.04590259;0.2296303;0;
-253.2263;0;0;-226.6094;17.28677;-8.752577;-230.467;-229.9126;-0.1108238;0.1644322;0;
-33.83204;0;0;-21.79702;18.87699;-7.939988;-14.03164;-12.91555;-0.3705818;0.359169;0;
609.2537;0;0;600.3497;21.06882;-4.649968;620.9758;624.4645;-0.3702095;0.2288734;0;
633.2542;0;0;653.5319;22.45417;-3.37262;646.7761;648.887;-0.04500077;0.2936108;0;
213.1412;0;0;269.0057;24.44134;-9.732488;231.5221;234.5679;-0.3048249;0.2283484;0;
202.4948;0;0;257.9283;25.15274;-10.79443;219.2955;226.4612;-0.4994206;-0.2916197;0;
16.13491;0;0;88.37924;25.39589;-14.80244;37.35395;44.38754;0.0208199;-0.09642471;0;
-591.6383;0;0;-502.1628;26.17368;-16.32818;-566.4426;-561.1027;-0.04416836;0.03360687;0;
-645.9537;0;0;-590.0513;19.44957;-16.1778;-625.5309;-618.8846;-0.3039933;-0.1613289;0;
-273.679;0;0;-244.6942;17.88979;-16.42948;-253.714;-247.9489;0.1510835;0.2286372;0;
-252.6019;0;0;-217.8991;16.80009;-10.58558;-229.6585;-227.8347;0.08596435;0.3583422;0;
-20.0274;0;0;-4.849679;14.97454;-8.230539;-2.916621;-1.219599;-0.1739914;0.2280474;0;
