Fp1;Fp2;O1;O2;POLY3;POLY4;A1;A2;Video;Audio;event;
478.7337;0;413.8551;219.4479;-8.344903;-10.26047;428.3779;415.1469;0.1887951;-0.3258762;0;12:44:57 Глаза открыты;
195.0825;0;149.1346;225.037;3.31778;-9.915248;145.1521;136.807;-0.266166;-0.3255487;0;
197.0105;0;146.5485;208.8814;3.381795;-7.828814;144.9438;139.4806;-0.3958332;-0.06535227;0;
-219.6032;0;-246.2764;-134.5934;0.2969384;-5.744598;-263.8089;-270.6409;-0.3304681;-0.1302539;0;
-657.8496;0;-671.0028;-539.8794;-0.4402942;-4.801065;-696.7011;-702.4019;-0.3951035;-0.3250251;0;
-436.9868;0;-471.616;-381.4788;-3.721406;-6.403831;-479.9222;-484.9925;-0.3297391;-0.1947638;0;
-183.425;0;-226.3901;-143.1526;-4.990464;-7.736934;-226.3797;-235.3179;-0.1345057;0.0003339039;0;
-152.2562;0;-193.7414;-114.1482;-9.941942;-7.126435;-194.1683;-206.0336;-0.06940326;-0.3245032;0;
305.2918;0;228.741;152.7074;-11.07103;-8.056913;254.9262;243.2602;-0.1343009;-0.3891444;0;
749.3242;0;647.6754;302.1662;-16.61961;-11.59891;694.7613;681.9202;-0.06919858;-0.0639167;0;
479.7065;0;413.3296;222.6524;-19.01381;-12.592;431.4452;418.1797;-0.004161705;0.001114869;0;
202.551;0;158.1049;229.6751;-12.56434;-17.60295;154.5257;146.0211;0.3206792;0.001113748;0;
198.1621;0;148.3259;210.0166;-13.15493;-20.73334;148.186;142.6885;0.2553896;-0.1288221;0;
-218.0779;0;-235.6303;-127.8372;-2.089649;-13.67942;-260.0703;-265.9371;-0.5894424;-0.19366;0;
-659.0745;0;-650.6223;-531.7557;1.797217;-13.46472;-696.2145;-700.3889;-0.6538175;-0.06353068;0;
-438.0855;0;-456.7531;-371.1768;-3.563224;-11.57579;-480.4981;-484.3558;-0.2633565;-0.1284342;0;
-175.7769;0;-212.1669;-124.5527;-1.549911;-7.880101;-218.2718;-226.6234;-0.06818984;0.001629548;0;
-154.1736;0;-186.9038;-101.3141;-10.99283;-20.06283;-194.252;-206.3433;-0.003153987;0.1315626;0;
297.5044;0;233.0105;155.1588;-13.6611;-21.78423;250.2199;238.3906;-0.06811816;-0.1934063;0;
751.5396;0;663.6223;302.1789;-9.360462;-11.5142;699.9922;688.1748;0.1918197;-0.2581793;0;
481.8571;0;427.8237;224.3518;-9.016265;-9.96202;435.0467;422.9288;0.2565942;-0.06301787;0;
199.8894;0;165.9627;231.3727;-7.935478;-6.402036;152.8137;145.0808;-0.06850028;0.002012792;0;
198.5017;0;158.5496;214.9608;-5.114465;-4.319133;150.0365;145.997;0.1264706;-0.3228259;0;
-217.4263;0;-228.7276;-119.2123;1.187313;-2.305305;-257.472;-262.9442;0.3212455;-0.2575342;0;
-662.9838;0;-654.1588;-528.6991;7.549133;-0.8294859;-697.1172;-702.6464;0.2559554;0.3274306;0;
-441.6161;0;-460.661;-372.2462;7.87634;-2.971984;-479.1509;-484.0498;0.3206655;0.3271016;0;
-178.6793;0;-209.5741;-124.684;10.07923;-3.102964;-216.4263;-224.9435;0.06047397;-0.1929658;0;
-150.0765;0;-175.6304;-96.82262;32.97653;-6.984856;-186.3488;-198.1683;-0.2644235;-0.4526412;0;
309.2185;0;249.3325;160.7078;40.914;-8.049442;264.7993;253.8037;-0.1342231;-0.2572844;0;
752.6223;0;667.4966;302.35;34.57722;-13.39987;703.1252;691.0163;-0.2640229;0.1977455;0;
475.4425;0;420.6997;223.5232;37.15445;-17.00348;431.3675;417.709;-0.328725;0.1325795;0;
201.7896;0;166.3421;232.9812;31.22262;-8.278737;157.6964;148.1121;0.3212787;-0.1274231;0;
197.4639;0;157.4293;209.6962;29.18151;-7.600589;150.8538;144.6525;0.5158579;-0.1922624;0;
-229.1452;0;-239.9042;-135.2787;24.59784;-8.798645;-268.3996;-274.5323;0.06056821;-0.1271019;0;
-662.3221;0;-651.0189;-533.4426;19.88408;-7.986009;-696.1024;-700.2298;0.1254747;-0.2569089;0;
-429.7107;0;-450.1529;-365.5532;22.74449;-8.379882;-467.5799;-471.5158;0.06038127;-0.3865854;0;
-174.0322;0;-211.3204;-125.9936;20.10966;-7.031925;-212.8629;-221.355;-0.3944508;0.003607078;0;
-146.9958;0;-177.1876;-98.88058;22.23291;-14.05782;-184.9129;-195.6454;-0.2641198;0.2634728;0;
309.6724;0;244.716;161.5879;23.2823;-16.32112;264.1098;254.5125;0.06098233;-0.06162862;0;
749.9523;0;658.0122;302.2922;16.82854;-9.070683;700.6248;688.6009;0.3857578;0.1333353;0;
474.087;0;413.786;221.9037;17.14643;-8.123808;429.994;417.0452;0.3853702;-0.06170068;0;
194.8757;0;155.2499;229.6768;12.44015;-8.785475;150.015;142.7638;-0.004821118;-0.2565407;0;
190.9318;0;146.4733;208.7064;9.078745;-7.236039;144.6169;140.3714;0.1251184;0.1335211;0;
-232.2349;0;-252.9732;-139.6408;22.66728;-9.908086;-270.3199;-275.5606;0.3198947;0.003452272;0;
-670.9059;0;-671.0712;-545.1716;23.58251;-10.43399;-704.5174;-707.7538;-0.07023077;0.1333835;0;
-432.6013;0;-457.4415;-370.0865;24.42947;-4.931031;-470.6142;-474.0348;-0.0701602;0.2631842;0;
-169.7985;0;-210.6057;-124.9627;27.28433;-4.055298;-209.0851;-217.3748;0.05984498;0.132985;0;
-151.3246;0;-190.3416;-107.7832;9.574401;-4.252172;-190.1344;-200.7896;0.1897195;0.2627861;0;
307.2845;0;231.7001;153.8186;4.742009;-3.377121;260.83;250.7478;0.3844309;0.06762;0;
753.2515;0;652.6931;303.3389;11.30133;-8.26336;702.5333;691.2119;0.1241753;0.2624541;0;
473.9471;0;407.3477;221.7;11.0889;-9.862647;428.5273;416.4676;0.05908317;0.3271577;0;
199.5461;0;153.1285;229.0359;-0.04067573;-8.31213;154.2968;146.5596;0.3188932;-0.1279424;0;
196.4095;0;146.6028;206.2546;-5.466619;-9.107573;150.2063;145.4128;0.2536054;-0.3227159;0;
-230.0111;0;-247.6589;-143.1521;11.82023;-8.696524;-267.7347;-273.0855;0.05844855;-0.1924569;0;
-662.0002;0;-654.3305;-540.1212;12.74636;-7.750025;-693.8763;-697.5976;-0.07154486;0.1325732;0;
-430.4511;0;-451.1498;-368.2271;11.79554;-11.29233;-466.0433;-469.7608;0.2533637;-0.06246208;0;
-181.3311;0;-218.6257;-131.2885;14.39566;-11.214;-216.5127;-224.5993;0.3180765;-0.06239932;0;
-150.102;0;-183.3611;-103.0457;-0.8904269;-7.585657;-183.4991;-194.4512;-0.2019818;0.2625001;0;
315.2525;0;247.7316;161.2375;-2.764566;-6.975311;273.3932;262.3272;0.1880252;0.0673343;0;
747.9681;0;657.1517;302.2545;-9.393221;-0.6720282;701.5281;688.7866;0.3827383;0.132234;0;
470.6056;0;414.4256;224.3648;-13.06748;1.740033;429.7095;416.8559;0.05751697;0.06713378;0;
197.7696;0;163.6975;231.0734;-5.888028;1.40337;157.1645;148.2593;-0.007508162;-0.3877051;0;
191.7613;0;156.3491;212.5379;-7.422353;3.277359;149.8852;144.2373;0.05746672;-0.2573808;0;
-226.5962;0;-233.2997;-123.257;12.54578;-2.754153;-260.4967;-265.5767;0.3172784;0.002747165;0;
-664.2734;0;-651.4175;-528.1795;20.83856;-4.827857;-693.0174;-697.3427;0.1870249;0.06771175;0;
-434.3462;0;-447.5526;-359.9831;5.948147;-3.014467;-466.9344;-471.8175;0.05690226;0.1326111;0;
-174.665;0;-202.5383;-114.4321;6.344312;-5.154891;-206.4084;-215.1597;0.1218124;-0.06242422;0;
-159.9968;0;-184.4063;-97.07578;15.04547;-4.546865;-189.8342;-200.8881;-0.07321201;0.002605843;0;
302.9313;0;245.9377;159.8926;18.91512;-5.614024;264.8781;254.5849;-0.008171096;0.2624726;0;
753.4628;0;671.1018;302.7226;3.557147;-10.69896;710.6377;698.5433;-0.008162886;0.06730683;0;
467.4117;0;417.0548;224.0828;-0.599613;-12.96551;429.9394;416.4828;-0.2030567;-0.06269548;0;
192.5174;0;162.2011;233.4153;12.32906;-13.62231;155.3327;146.1376;0.05701669;0.002334857;0;
184.8278;0;149.2321;205.3823;10.50801;-14.41242;146.7434;140.8058;0.1868941;0.3271692;0;
-243.2054;0;-250.9668;-135.2155;17.86484;-17.67998;-272.7558;-278.1876;-0.008195735;0.5867099;0;
-664.9364;0;-650.8884;-523.3845;18.24903;-17.79618;-689.3972;-693.0744;0.1867145;0.2612836;0;
-431.0105;0;-440.9022;-354.4432;6.843844;-17.30942;-458.8825;-462.8059;0.3164616;-0.06381564;0;
-182.7645;0;-206.0145;-118.4555;1.277262;-16.6893;-210.546;-218.9632;0.05627425;-0.1936862;0;
-152.7209;0;-175.4477;-94.16113;-1.603434;-10.77816;-180.6618;-191.7568;-0.463521;-0.3234263;0;
311.6992;0;251.639;164.9908;-3.209413;-8.55689;274.8533;264.769;-0.5280226;-0.453036;0;
737.7342;0;654.0587;302.6932;-34.68744;-3.390728;697.1772;685.9786;-0.2026554;-0.3226461;0;
453.1981;0;402.715;223.0539;-45.10241;-0.6411424;418.4914;406.0547;-0.3323864;-0.2573545;0;
185.8144;0;154.8723;230.1386;-35.54527;-0.5735152;151.6423;142.529;-0.3320524;-0.3220633;0;
180.2554;0;142.7227;206.4192;-40.93554;0.5657709;144.7433;138.7001;0.05808527;-0.4516743;0;
-241.7137;0;-254.9709;-134.0547;-17.78492;-3.18572;-269.319;-274.6066;0.3178963;-0.06141647;0;
-672.5667;0;-661.2604;-533.9689;-10.53338;-4.053297;-694.4596;-698.9297;0.3825442;0.3934166;0;
-433.1984;0;-445.1417;-358.2079;-16.48465;-9.340754;-459.0673;-464.2825;0.2522251;0.06818462;0;
-173.0186;0;-201.6916;-113.221;-11.24317;-12.41246;-198.9865;-208.0696;-0.007897677;-0.06181857;0;
-162.9747;0;-188.1831;-100.4261;-16.9253;-9.318896;-187.1674;-198.865;0.0570776;0.2630803;0;
299.1443;0;237.5421;158.2323;-15.83657;-9.644447;266.1054;254.7944;0.05702025;0.3277833;0;
746.0565;0;658.6541;304.0625;-16.75866;-12.58188;707.5535;694.2548;-0.07297173;0.002617182;0;
452.8288;0;399.7471;219.5493;-16.60712;-13.9089;419.2372;405.3896;0.186971;-0.1922875;0;
179.6984;0;144.9733;226.2627;-16.72513;-6.928821;145.5158;137.4292;0.3816851;0.1327425;0;
183.016;0;144.7651;205.9829;-17.44526;-5.113441;147.7434;143.1007;0.05646489;0.2625438;0;
-240.2052;0;-246.871;-136.2396;-5.97353;-6.916721;-266.5719;-272.2719;0.3162775;-0.1275241;0;
-661.0647;0;-646.9218;-525.2197;-2.350206;-4.833422;-681.6578;-685.8527;0.5758291;-0.1923633;0;
-424.644;0;-436.752;-348.9053;-0.3390883;-11.79467;-448.0899;-451.4686;-0.009455582;-0.1272027;0;
-184.6502;0;-208.8026;-120.0445;3.077504;-13.65822;-206.3859;-214.6337;-0.07441342;-0.1920422;0;
-162.788;0;-182.231;-101.5582;1.801614;-6.276615;-181.8158;-194.1158;0.1205634;-0.2568166;0;
304.5157;0;254.92;162.8485;2.938879;-5.667461;280.2597;268.4718;-0.2693618;-0.3864932;0;
732.8693;0;665.9571;302.0523;3.069649;-4.991938;708.7626;694.7377;-0.2041238;-0.3211375;0;
450.5869;0;420.3485;227.4737;3.870847;-3.781229;434.0007;418.4906;0.05595065;0.0689892;0;
189.5152;0;176.1737;238.6769;-2.697125;-5.184071;171.3214;160.9494;-0.07404026;-0.0610148;0;
180.7041;0;154.7573;207.0778;-5.709501;-4.642999;155.2822;148.4189;0.2508709;-0.2558555;0;
-245.7008;0;-248.508;-138.3942;2.200465;-6.379889;-270.4724;-277.1414;0.5754555;0.2641403;0;
-667.0544;0;-650.7435;-528.9338;1.930811;-7.177152;-690.2394;-694.5905;0.2500406;0.5237443;0;
-427.9416;0;-440.3826;-350.7416;1.928871;-4.423762;-454.8514;-458.6983;0.1198546;0.1983813;0;
-175.5757;0;-202.6218;-112.3213;1.859584;-3.950437;-203.0207;-210.4245;0.5095382;0.06824727;0;
-157.4083;0;-180.1794;-93.40543;-0.01829506;-6.223887;-186.1376;-195.0332;0.1192222;0.003211355;0;
308.2034;0;248.5362;164.9961;0.2501431;-6.753375;269.508;260.9962;-0.4656036;0.003208129;0;
751.1084;0;663.078;302.6985;-7.184848;-5.407052;706.5799;696.0776;-0.1402991;0.1331396;0;
462.4359;0;406.6028;224.496;-8.584147;-5.669551;421.4504;410.2715;0.1846786;0.2629405;0;
186.6097;0;150.8851;233.7032;-11.12112;-4.458161;145.5404;139.2453;0.05455832;0.2626763;0;
183.9859;0;142.8624;207.6688;-14.12405;-3.783852;141.2712;138.6056;-0.01046384;0.1324777;0;
-241.6726;0;-257.8298;-141.427;-3.593663;-7.263041;-280.2839;-282.3846;-0.140388;0.002409869;0;
-663.655;0;-666.6776;-535.3993;-2.652047;-7.590658;-701.2905;-701.0153;-0.0752796;-0.0625599;0;
-418.8609;0;-449.9288;-352.5154;-0.3058337;-8.453809;-460.7689;-459.9317;0.1196981;-0.06249703;0;
-173.6881;0;-211.2215;-115.9675;1.704206;-9.584023;-213.43;-216.7791;-0.1402916;-0.06243424;0;
-146.4022;0;-178.2757;-92.61263;-3.387722;-5.823472;-184.4176;-190.9491;-0.4649873;-0.1273388;0;
330.3179;0;259.1212;170.5357;-2.513662;-5.683654;282.2208;276.0706;-0.3345854;-0.06224355;0;
751.7115;0;654.5369;302.2356;-12.35775;-4.137336;697.6033;690.9595;-0.1393472;-0.1271483;0;
460.1648;0;395.8839;224.9081;-15.35944;-2.391623;410.3589;404.3464;-0.009272497;-0.2569553;0;
201.6447;0;154.4198;235.9265;-10.52124;-8.350578;151.2641;150.3801;-0.07423052;-0.06179506;0;
188.5111;0;137.648;201.769;-11.11388;-8.677102;137.1191;138.9846;0.2506808;-0.06173297;0;
-247.3968;0;-266.9745;-151.3814;-3.600622;-9.137264;-291.7407;-289.5647;0.4453309;-0.06167094;0;
-668.5614;0;-668.0045;-544.5941;-0.1807528;-10.80266;-708.4255;-703.0657;0.05507939;0.003358371;0;
-428.6974;0;-455.6272;-363.6375;-2.391374;-3.356818;-471.145;-465.4159;-0.2698126;0.1332897;0;
-178.8295;0;-217.4139;-125.2043;-1.785759;-2.214735;-219.9227;-218.3847;-0.2695416;0.06818841;0;
-155.1616;0;-187.8977;-100.0911;7.660507;-2.815356;-194.2145;-194.4272;-0.2043034;-0.1267821;0;
315.4453;0;246.4479;165.2512;11.20278;-1.272042;267.811;267.9734;-0.3990001;-0.0616874;0;
753.408;0;657.4935;302.7659;3.689438;-6.227379;699.3249;697.8004;-0.2686645;-0.06162542;0;
463.5463;0;399.962;224.0636;4.757458;-6.556036;414.2651;412.6797;0.1863768;-0.2564655;0;
192.2167;0;151.4973;233.1463;-5.428728;-8.893729;144.7341;148.3352;0.1212222;-0.0613058;0;
184.215;0;141.2251;205.176;-11.04935;-11.43014;137.2174;143.626;-0.008834266;0.1336578;0;
-250.0019;0;-269.0231;-148.2901;4.970305;-2.978932;-288.9563;-284.5532;-0.00882539;0.003588845;0;
-672.7881;0;-668.1771;-543.0051;5.433826;-1.971195;-707.5179;-702.3696;-0.1387512;0.328422;0;
-424.9863;0;-442.6187;-356.9278;4.222917;-4.514565;-463.5543;-457.7864;0.05629024;0.4580266;0;
-181.0567;0;-215.5379;-125.9351;6.094684;-3.572268;-218.399;-217.6969;0.2511357;-0.192107;0;
-160.8223;0;-190.2089;-107.1929;-2.820048;-9.730987;-195.5034;-197.1134;-0.203888;-0.0619793;0;
310.9147;0;249.1989;164.6532;-3.152007;-12.13247;270.209;269.975;-0.07374848;0.1979524;0;
731.9531;0;647.6232;302.9182;-9.37813;-5.958096;688.4771;685.9944;0.4460644;0.002851415;0;
448.2348;0;399.2844;226.9644;-12.85231;-4.545467;410.4247;406.8202;0.0558121;0.1977506;0;
198.9095;0;166.9998;238.6678;-0.9166757;-11.44002;160.95;162.534;-0.139146;0.4574212;0;
183.0925;0;146.5921;202.4461;0.7591848;-11.56249;144.2966;149.3147;0.05589583;0.5868963;0;
-258.1198;0;-265.2857;-148.3936;0.4236293;-9.809317;-287.3815;-283.6803;-0.2040297;0.5213392;0;
-676.8998;0;-667.8792;-535.9871;1.226511;-10.40231;-699.5729;-694.626;0.1859794;0.1959787;0;
-437.4647;0;-452.441;-357.0382;7.187125;-0.4786243;-463.1134;-456.0476;0.5755965;-0.1290549;0;
-195.5215;0;-216.7296;-128.794;10.46146;2.670054;-219.7077;-216.2097;0.3801161;-0.06395791;0;
-172.1492;0;-189.5879;-103.8645;-0.6011162;-0.4808263;-193.5625;-193.5038;0.1848322;0.2609431;0;
302.223;0;249.7569;166.9163;-1.939683;0.5913838;274.3969;274.8928;-0.01025556;0.0008114932;0;
738.9496;0;664.9846;302.7427;-4.349607;0.188892;707.3409;706.6495;-0.01024526;-0.1940913;0;
450.9765;0;410.5689;227.2888;-7.626791;0.7915486;424.7719;423.5189;-0.0752023;-0.323831;0;
184.4696;0;166.0291;238.2423;-0.7876;-4.768708;159.6031;163.099;-0.07512674;-0.4534403;0;
180.4736;0;159.3655;212.0159;-0.7868087;-6.840265;155.3823;162.4354;0.2497855;-0.06318063;0;
-257.7375;0;-257.0854;-134.523;1.826926;-5.35989;-274.1205;-267.5118;0.4444365;0.1317849;0;
-690.1985;0;-668.6201;-533.3748;4.570781;-8.50258;-701.0679;-692.6542;0.3790226;0.2615871;0;
-443.1913;0;-440.0003;-349.9933;-1.462032;1.017296;-458.0477;-448.2057;-0.07612965;0.3262917;0;
-195.058;0;-204.6138;-112.0735;-0.7236285;2.623864;-208.7126;-203.2533;-0.2059878;-0.3237096;0;
-173.0605;0;-181.1074;-91.53365;-2.732633;-6.756139;-184.2026;-181.9971;0.1190558;-0.453319;0;
307.3095;0;262.6641;171.801;-5.274507;-7.419179;288.1827;291.5103;0.1839036;-0.1280269;0;
736.16;0;669.1332;302.0003;7.054677;-14.44481;712.7421;714.817;0.2486861;0.1319712;0;
444.1917;0;412.8394;230.0454;8.186664;-16.77458;426.4194;426.4933;0.4433382;0.1968059;0;
184.1259;0;171.3582;243.9946;7.843645;-17.69548;166.4339;170.3183;0.3779255;-0.2581632;0;
164.5756;0;150.4465;206.0809;10.6488;-19.75417;146.2143;153.7804;0.052709;-0.3878385;0;
-277.3052;0;-256.5002;-141.9513;-6.509528;-10.69187;-287.0274;-279.9687;-0.337148;-0.1275795;0;
-688.9445;0;-644.2974;-524.304;-10.92362;-8.001812;-693.2222;-685.0461;-0.4667439;0.06745075;0;
-440.1895;0;-425.1349;-338.058;-5.420284;-6.855062;-446.6493;-437.8567;-0.1414382;0.002415641;0;
-200.8672;0;-201.5699;-107.8963;-7.357221;-4.369927;-205.384;-200.973;0.05360591;-0.1275215;0;
-174.1787;0;-170.2579;-84.36217;-2.794501;-2.222083;-177.0043;-175.5963;0.1834867;-0.257328;0;
306.5048;0;275.3142;177.7784;-0.648239;-0.8133303;295.4362;297.9048;0.05336767;0.002799912;0;
726.2981;0;671.151;301.5999;-1.384522;-1.48222;710.9928;712.7717;-0.531392;0.3276338;0;
432.1533;0;409.9826;229.8328;1.497257;-1.68168;422.4231;423.2632;-0.4658907;0.002467891;0;
174.5359;0;172.2524;243.7822;1.562126;-6.033881;166.0023;170.0275;0.1192835;-0.1274693;0;
161.5544;0;157.3992;209.5543;2.632283;-8.305116;152.5922;159.0496;-0.07573842;0.1974955;0;
-278.3244;0;-249.8668;-136.9197;9.796934;-10.37324;-278.0323;-272.5808;-0.4654664;0.1323297;0;
-693.5858;0;-642.9181;-522.2134;10.72509;-12.37218;-688.2341;-681.5388;-0.1401619;-0.387542;0;
-440.8906;0;-421.508;-333.2209;13.19256;-15.90985;-441.3538;-433.7282;0.3147503;-0.5820546;0;
-197.1949;0;-194.8232;-101.6273;12.84452;-18.77401;-197.6576;-194.5998;0.4443687;-0.061731;0;
-176.507;0;-169.3902;-83.09693;10.01759;-12.19094;-173.9708;-174.2269;0.1190855;-0.1266363;0;
298.1818;0;269.9343;176.3562;9.606363;-10.6382;292.782;293.2757;-0.3358056;-0.7112151;0;
721.3569;0;669.0248;301.8033;-6.1444;-15.11525;711.0899;710.5836;-0.1405661;-0.3856638;0;
425.4679;0;408.6706;227.5997;-10.75993;-14.29626;420.8959;419.9529;0.2493792;0.1344625;0;
164.5463;0;166.1942;240.9267;-15.1024;-14.61681;160.9784;164.2217;-0.3355775;0.3292294;0;
150.4505;0;146.9743;204.9526;-20.58055;-14.46816;146.3864;152.8124;-0.660077;0.3938659;0;
-288.1678;0;-258.5946;-144.2029;-8.167665;-9.162093;-284.9189;-278.7493;-0.07470768;0.1336008;0;
-692.6747;0;-641.2048;-521.3059;-7.221453;-6.94245;-685.0564;-678.1434;0.1202694;-0.0614355;0;
-442.1668;0;-420.5461;-332.5017;-2.056633;-7.873235;-437.3047;-430.0238;-0.2696555;0.263463;0;
-205.7162;0;-198.7349;-105.8439;2.366063;-6.525665;-200.2343;-195.8342;-0.07448251;0.1332635;0;
-176.0243;0;-166.3014;-79.31333;-3.329742;-4.710691;-169.4859;-167.3392;0.3153964;-0.2566744;0;
301.85;0;275.1439;180.5733;-1.384013;-3.701214;300.6981;302.6553;0.05521011;-0.0615145;0;
717.2752;0;667.8574;300.8313;-6.339115;0.5892906;712.3764;712.3951;0.2500567;0.263384;0;
420.3284;0;406.8172;229.1274;-8.342478;3.870862;421.1816;421.2003;0.3797401;0.003250005;0;
168.5948;0;174.4625;241.141;-2.640668;-1.558523;169.6346;173.9011;-0.1403802;-0.2566226;0;
161.304;0;164.6671;209.6019;-2.972807;-1.021215;161.7805;168.6664;-0.2701738;-0.1264301;0;
-285.6335;0;-255.4748;-133.4988;-1.295857;3.668616;-275.9121;-268.5958;-0.2699024;0.003631632;0;
-697.5143;0;-656.329;-513.9234;-0.08812992;4.066705;-682.9301;-674.0595;-0.2046638;0.19853;0;
-434.5703;0;-417.7266;-315.0067;-3.43792;12.16743;-424.6234;-414.8871;-0.1394908;0.2632979;0;
-194.5665;0;-181.3629;-82.30699;-3.367117;14.56647;-183.3178;-177.0271;-0.07438334;0.3280007;0;
-176.3176;0;-157.8799;-67.60664;-2.55945;13.01135;-162.3316;-159.483;-0.009341259;0.1977364;0;
305.8673;0;287.8672;184.3972;-1.82092;13.73509;311.9682;314.3142;-0.6590053;0.002635673;0;
727.5353;0;686.5024;300.1536;-2.689747;8.630704;728.9449;729.8519;-0.5933758;0.6523064;0;
429.2039;0;422.3826;233.5728;-2.753417;6.478578;435.2973;435.8909;0.05689387;0.7166184;0;
172.7763;0;185.8269;250.4545;2.138494;2.252266;178.8636;183.7045;-0.07309798;-0.06370982;0;
159.1095;0;170.4603;213.9086;3.476492;-1.701868;163.8788;171.5884;-0.2679266;-0.1935805;0;
-288.7628;0;-255.2471;-130.071;3.539371;0.6441224;-275.8774;-268.8627;-0.1377227;0.06648339;0;
-702.6395;0;-659.4749;-511.6235;3.804235;0.04062874;-684.2073;-676.2627;0.1872524;-0.1284854;0;
-440.0026;0;-416.559;-315.3328;5.943866;-6.85841;-425.2747;-417.4004;0.0571296;-0.258291;0;
-206.6151;0;-186.3809;-90.44135;6.80855;-8.258161;-191.1523;-187.7837;-0.07286249;-0.1280968;0;
-191.4775;0;-168.7024;-82.5419;0.6387907;-6.240375;-174.531;-173.852;0.2520474;0.06693394;0;
308.9634;0;293.9846;178.5349;-0.7683707;-6.903934;317.5846;318.6378;-0.3329119;0.2617687;0;
734.2516;0;697.986;300.9189;-3.111147;-1.605467;739.1784;738.294;-0.3325774;0.001636312;0;
427.5426;0;427.4203;233.0255;-5.653616;-1.335922;437.2746;435.5165;0.2524629;-0.2582347;0;
174.6774;0;192.7961;251.0946;-2.299033;4.090794;184.2746;186.4538;-0.007660186;0.1318288;0;
153.9497;0;170.0512;210.0503;-3.234728;7.636779;163.0376;167.9632;-0.2025545;0.2616311;0;
-296.4162;0;-251.0956;-131.6141;-1.556539;-7.240739;-279.0916;-274.2959;0.05751838;-0.1934032;0;
-701.6021;0;-640.5224;-505.4189;-0.6169695;-9.912781;-678.985;-672.1326;0.3173299;-0.3231436;0;
-447.0872;0;-411.5561;-316.9431;-4.434743;-9.232991;-427.8661;-421.1456;-0.00782561;-0.06294952;0;
-207.9454;0;-183.0072;-87.86456;-3.961772;-12.10386;-188.6188;-187.1523;-0.2027198;0.1969831;0;
-183.2488;0;-156.5865;-67.97372;-7.70786;-8.407757;-163.9416;-165.9124;0.187288;0.2617525;0;
296.0695;0;285.9734;183.4682;-9.040261;-9.471036;306.9241;304.7679;0.1870998;-0.1283146;0;
715.9359;0;685.3602;299.9128;-4.811619;-6.112494;723.4686;719.6279;-0.2678596;-0.06321827;0;
412.6186;0;417.8057;228.2722;-5.20795;-4.632728;424.8914;420.9296;-0.2675905;0.5215513;0;
154.0212;0;174.5079;242.2233;2.901608;-9.651671;165.4697;166.6343;-0.2023542;0.1312232;0;
146.9325;0;161.6515;209.871;6.984529;-9.708956;157.1825;161.5943;-0.1371836;0.001156676;0;
-299.116;0;-257.8626;-137.2905;4.365543;-10.56998;-281.2552;-277.41;0.4476604;0.5208943;0;
-711.9828;0;-655.8409;-518.9606;11.05896;-10.22444;-689.7671;-684.2391;0.5121779;0.3904362;0;
-449.3365;0;-417.1765;-320.5386;-3.888978;-12.96035;-430.454;-425.5563;0.05689184;0.0002398044;0;
-204.6953;0;-180.8134;-85.45956;-5.358939;-13.88509;-184.6448;-184.7495;-0.07310001;0.06520691;0;
-176.816;0;-150.5844;-63.13486;17.01899;-7.507878;-155.3489;-157.9522;-0.2029612;0.2600434;0;
303.8076;0;292.5943;188.3647;18.7432;-7.031453;317.3821;315.3437;-0.2677246;0.0648801;0;
709.8606;0;676.0449;299.4945;44.31112;-0.2593559;719.1736;716.3876;0.05738107;-0.1950545;0;
405.3;0;406.0634;230.1033;54.17958;3.090051;419.2889;416.3182;0.05732342;-0.1298911;0;
161.6401;0;180.3312;248.4877;36.30792;-2.673464;175.6773;176.7701;-0.00770152;-0.3246627;0;
141.4877;0;156.6618;203.448;36.00399;-1.264136;155.136;159.8509;-0.2025958;-0.4542711;0;
-317.5488;0;-280.7758;-149.3292;21.90165;-6.621378;-295.0436;-289.7089;-0.007490213;-0.32388;0;
-705.5345;0;-656.5547;-508.3736;13.1721;-7.619469;-677.8671;-671.0385;0.1874193;-0.3235545;0;
-440.8958;0;-409.8311;-309.4625;12.15449;-6.138188;-417.8788;-410.8072;-0.007671006;-0.3881968;0;
-215.2534;0;-190.0296;-92.32303;6.716292;-7.806594;-192.9468;-189.4429;0.1222714;0.001997349;0;
-178.5555;0;-153.2321;-63.61964;-4.141447;3.923019;-155.4592;-154.7699;-0.007786157;0.4567668;0;
309.3163;0;298.5074;191.6285;-8.691637;6.866204;323.8937;325.2069;-0.5924844;0.3263731;0;
713.802;0;681.4523;297.9449;-4.463345;5.385681;723.6171;723.6797;-0.07215034;0.001208439;0;
404.1151;0;405.9058;227.181;-5.128446;7.791655;418.9803;417.9808;0.3177262;-0.1287275;0;
150.024;0;169.554;242.195;6.464633;2.35833;164.1247;167.8114;-0.007429759;-0.1285981;0;
144.7509;0;158.9514;206.7194;10.00811;2.021046;156.2137;163.2075;0.05754505;0.1314005;0;
-303.8567;0;-258.8109;-139.9392;11.80574;-1.530958;-283.7222;-277.2977;-0.07244746;0.0663011;0;
-711.9086;0;-645.1691;-514.048;12.93295;-4.610635;-686.4221;-678.0049;-0.07237466;-0.5834389;0;
-447.8257;0;-407.9522;-314.6314;8.700399;3.632776;-426.2378;-417.3294;0.1226001;-0.7127874;0;
-212.3063;0;-185.4664;-87.42931;4.806891;4.767714;-189.2409;-185.214;0.1874442;-0.3872344;0;
-181.7333;0;-152.8588;-64.72784;3.461914;0.1412231;-157.3167;-155.6677;-0.1375808;-0.321878;0;
307.5785;0;297.7558;189.6469;4.462814;-0.3277994;323.8496;326.3091;-0.2024099;-0.06168523;0;
710.3168;0;678.1403;298.8388;-36.13162;0.7442569;722.8859;722.9067;0.1226302;0.1982461;0;
404.3191;0;408.3441;230.6977;-49.69297;-0.06028608;422.4977;420.8942;0.1874743;-0.1267898;0;
163.0963;0;183.4842;248.7691;-26.60091;1.011501;180.5071;183.4654;-0.2025181;-0.06169505;0;
142.4428;0;160.124;203.167;-29.05243;1.144451;158.0869;164.5405;-0.1373473;0.2632037;0;
-318.1564;0;-265.3232;-148.0482;-13.75162;-2.540638;-293.1577;-286.7106;0.05769274;0.2629392;0;
-708.8901;0;-639.7432;-510.1549;-5.968266;-2.404119;-679.6687;-672.0411;0.3824715;0.06777295;0;
-439.1256;0;-402.5318;-308.5558;-10.51662;-6.956421;-415.6806;-408.3731;0.7718912;-0.1921645;0;
-210.7989;0;-184.8616;-86.91956;-4.545183;-8.088141;-186.3156;-182.8884;0.5112463;-0.3219061;0;
-175.2923;0;-145.0707;-60.78281;-8.02324;-3.860212;-148.085;-147.6597;0.1209285;-0.38655;0;
315.5746;0;309.5341;191.9013;-6.407588;-3.856333;335.3209;335.6208;-0.07409503;-0.2562269;0;
715.244;0;688.2825;298.03;-2.851176;3.314594;730.4727;729.5229;-0.2689226;-0.06106742;0;
405.868;0;414.7906;232.1385;-2.447146;5.253646;425.7665;424.3804;-0.203685;0.00396128;0;
157.8971;0;184.8017;247.7098;1.64115;7.525787;177.6507;180.9511;0.05638898;0.2638267;0;
153.4906;0;175.4331;214.8523;2.511133;10.33139;171.6626;177.5209;0.186267;0.003692205;0;
-297.3746;0;-242.0959;-126.7545;3.64671;0.675707;-270.0379;-265.6223;-0.2037242;-0.1912135;0;
-712.492;0;-635.4048;-507.748;4.37998;-1.468304;-680.1228;-674.5872;0.05634986;0.003880628;0;
-447.3465;0;-401.9459;-309.6497;-0.8493341;0.2746058;-420.0074;-414.2899;0.4460973;0.06884407;0;
-209.8287;0;-179.8409;-81.32813;-4.197383;-0.6634311;-181.8923;-180.0536;-0.009122344;0.4585789;0;
-183.2561;0;-152.0491;-62.88065;1.701332;-3.475926;-154.4732;-154.6354;-0.2689825;0.4581182;0;
311.5544;0;303.9995;190.2428;1.030038;-4.410194;331.063;331.5257;-0.5285816;-0.06208089;0;
715.788;0;688.0634;298.5596;-7.076298;0.6178352;731.1541;730.0546;-0.6579852;0.06791617;0;
400.1021;0;409.1993;232.4802;-8.140915;2.894634;421.3248;419.6642;-0.07261798;-0.06208675;0;
157.5718;0;184.1511;252.0491;-20.18917;3.159657;178.6482;181.6119;0.3822264;-0.4518284;0;
141.7339;0;163.7887;205.1943;-25.72859;4.763951;160.915;166.9367;0.511777;-0.3214397;0;
-317.6777;0;-269.0959;-144.4612;-14.91812;10.58656;-291.082;-285.1913;0.3813281;-0.06124739;0;
-710.4109;0;-648.0099;-505.6969;-15.30527;12.58541;-678.9694;-671.2731;0.1860429;-0.06118584;0;
-447.5164;0;-410.3529;-308.9749;-11.33778;15.51989;-418.7302;-411.4788;0.2508233;-0.1910591;0;
-223.679;0;-191.0506;-91.58606;-8.446001;18.38456;-193.8598;-190.4263;0.2505713;-0.1258997;0;
-181.4129;0;-145.444;-60.88442;-12.5907;11.19904;-151.1239;-149.8177;0.1203848;0.1990635;0;
315.7071;0;312.2222;193.9237;-10.76939;10.85287;337.9073;338.5874;-0.00967083;0.1988635;0;
709.0045;0;683.2843;296.8645;-16.51934;9.904202;727.6216;725.9273;-0.009661114;-0.1261731;0;
399.9471;0;408.2356;232.5359;-18.84727;8.621696;423.0433;420.9133;-0.07461875;-0.1910136;0;
159.7283;0;184.6251;250.0433;-7.909991;13.43568;182.1141;184.7339;-0.3344131;-0.1258544;0;
143.9506;0;165.7615;210.8117;-5.290075;13.62313;166.2515;171.5548;0.1856616;-0.06076055;0;
-314.9009;0;-262.8147;-136.6631;-13.05429;19.10192;-284.5641;-279.2036;0.3803771;0.004267843;0;
-715.1332;0;-648.9189;-508.7137;-14.1129;21.42701;-682.0157;-674.4117;0.05515818;0.1991656;0;
-440.6772;0;-403.2026;-301.1191;-7.735708;19.66392;-412.1532;-404.2445;0.05510275;0.3938675;0;
-202.9787;0;-174.787;-74.18047;-6.991001;21.31874;-173.9836;-170.1433;-0.0748873;0.1336024;0;
-176.6004;0;-145.8134;-56.48979;-7.854632;16.13975;-146.9473;-145.6096;-0.1397794;0.06850077;0;
311.5818;0;306.8557;193.3164;-7.310877;15.25276;333.1466;334.6079;-0.1396389;0.06843194;0;
713.0043;0;687.9182;297.5697;-11.25565;15.03648;730.5495;730.3226;-0.2694333;0.003395838;0;
396.2592;0;405.1812;229.2424;-12.85193;12.74407;418.0971;418.1203;-0.1392279;0.2632618;0;
150.3594;0;176.3889;248.065;-8.351034;19.96518;171.988;176.7588;-0.07412066;0.2629973;0;
138.1519;0;160.5945;207.8358;-6.266538;20.8159;159.3215;166.8361;-0.009078848;0.06783098;0;
-321.1311;0;-273.5987;-142.0723;-15.77109;17.24501;-291.3622;-284.4173;0.05589762;-0.2570739;0;
-708.9883;0;-650.1344;-500.6242;-17.16176;17.09372;-674.3143;-666.127;-0.07409323;-0.3217829;0;
-438.5365;0;-402.5428;-297.2856;-8.97284;14.33024;-408.3326;-400.216;-0.3338881;0.4581485;0;
-223.4538;0;-192.6186;-89.96598;-8.361588;13.7801;-193.4051;-189.3571;-0.2685853;0.7825249;0;
-184.2488;0;-153.1948;-64.32592;-0.3816076;6.934116;-154.043;-152.8726;-0.07341342;0.3919345;0;
319.6206;0;313.2248;196.1078;3.034051;2.640363;340.6757;341.7199;-0.07333965;-0.06323067;0;
707.9166;0;683.2239;296.7351;0.753827;12.55094;724.6403;724.434;-0.008298617;-0.1281345;0;
390.1772;0;401.1164;227.8464;2.695453;13.14118;411.7565;411.613;0.1216444;0.06689629;0;
158.0891;0;183.0727;246.9827;-3.268127;7.970407;179.0845;182.7518;-0.2033145;0.1317964;0;
143.6874;0;166.9593;204.3809;-4.80606;8.096364;164.6618;169.3872;-0.1381429;-0.06323804;0;
-324.6591;0;-271.3008;-146.7106;-3.528434;2.461785;-294.6479;-290.302;0.6416039;-0.1281418;0;
-720.4464;0;-658.0836;-511.6922;-4.596615;0.3828404;-686.03;-679.0647;0.38109;0.1318563;0;
-451.1074;0;-414.8568;-308.9047;-2.381194;2.458927;-421.0984;-413.6405;-0.009097016;0.2616585;0;
-221.082;0;-188.6784;-85.83128;-1.239725;1.317746;-191.4156;-187.9006;0.3807162;0.06649354;0;
-181.942;0;-147.0097;-57.7591;-2.176484;4.330532;-150.8685;-150.418;0.2503989;-0.1284753;0;
314.7413;0;313.8439;194.6096;-1.37099;5.732822;338.8495;339.2995;-0.1396567;-0.06337886;0;
709.7263;0;689.7145;296.9875;2.113988;0.9713956;729.9373;729.2;-0.07454903;0.2615215;0;
389.4238;0;402.5405;227.1615;2.98252;0.5685219;413.8623;412.501;0.05546055;0.4561608;0;
148.0287;0;176.3745;245.5489;8.338158;3.381234;170.5686;173.5815;-0.1394972;0.3907351;0;
134.0744;0;157.5191;205.8221;10.80803;3.444819;155.717;161.4131;-0.139357;-0.1293963;0;
-327.266;0;-278.1078;-145.5208;6.978773;4.312014;-296.1499;-291.3966;0.250587;-0.2592009;0;
-715.242;0;-648.5795;-505.631;7.776043;3.838801;-679.9717;-673.4116;0.3153026;-0.06403846;0;
-442.9723;0;-399.1153;-299.039;4.820493;5.107619;-411.673;-406.119;0.1850511;-0.3888108;0;
-218.3274;0;-185.5714;-83.15937;4.548206;4.834555;-185.6228;-185.3842;0.1198978;-0.1935181;0;
-177.9407;0;-144.1557;-57.08888;1.529526;0.9448095;-144.5818;-146.0926;-0.01015734;0.1964804;0;
320.0504;0;317.3822;196.9034;-1.888263;-0.1948497;344.4427;342.9335;-0.3999512;0.1313156;0;
702.8487;0;680.4432;295.9681;13.18418;-6.490928;723.0312;720.7114;-0.334582;0.196151;0;
383.9274;0;395.7148;228.4545;16.38612;-9.498515;408.8997;407.4568;0.1205256;0.2609213;0;
150.9086;0;178.4886;246.9031;7.259974;-7.479483;175.1062;177.5377;-0.2693996;0.06575706;0;
134.5776;0;161.5677;203.6766;7.320028;-8.476712;158.4385;163.1165;-0.4640309;-0.0642437;0;
-324.2021;0;-265.4426;-142.2918;3.294185;-5.58805;-291.5571;-286.8213;0.05617411;0.06575554;0;
-712.8058;0;-637.8011;-502.0304;1.281143;-3.037084;-675.8833;-668.9659;0.1860524;0.1306568;0;
-444.1618;0;-396.5936;-298.8154;3.758102;-6.717971;-410.8995;-403.8017;-0.268906;-0.1943112;0;
-214.893;0;-177.68;-77.00146;4.22284;-5.304702;-181.7266;-178.6339;-0.3985705;-0.1291486;0;
-176.1964;0;-139.3331;-51.18702;-0.8052446;0.3270728;-143.5007;-142.9722;0.05660141;0.1958179;0;
320.0438;0;315.9531;197.5519;-2.143606;2.001318;343.8362;344.6139;-0.008422806;0.1956211;0;
707.902;0;683.6381;296.1163;4.155188;11.37667;728.1098;727.3876;-0.07338168;0.3253593;0;
382.9163;0;395.2833;225.1043;3.480451;15.71901;408.1637;407.5046;0.1865614;0.5849017;0;
143.7765;0;171.7483;243.5562;14.86381;11.1485;167.8117;172.4631;-0.07349541;-0.06535944;0;
130.8884;0;154.8966;204.3935;20.14113;11.74014;154.4622;161.1704;-0.1383889;-0.2601958;0;
-330.7611;0;-277.042;-147.6975;1.83419;12.53214;-298.0906;-293.1383;-0.008315164;0.1948371;0;
-716.922;0;-647.0775;-507.3057;-1.047065;12.65351;-680.9111;-675.0891;-0.008306809;-0.0002607546;0;
-439.7156;0;-396.9902;-295.8395;3.173546;5.942629;-409.363;-403.2971;0.3815056;-0.3250972;0;
-216.3858;0;-184.0731;-79.08857;1.830211;2.386685;-184.8143;-181.9404;0.1862202;-0.2598032;0;
-178.6872;0;-145.4075;-57.14509;1.226135;7.54185;-145.5858;-144.9636;-0.2687383;-0.3894768;0;
325.6764;0;321.3791;196.4724;1.291276;5.859699;349.5617;349.746;-0.2035009;-0.2591508;0;
706.72;0;684.8108;296.1623;1.759469;6.992521;725.8337;724.1437;-0.07336175;0.2608483;0;
379.549;0;394.6432;226.2746;1.958772;8.25817;403.9532;402.265;-0.1382554;0.3905209;0;
149.5955;0;180.604;244.8503;9.257821;-2.40017;174.6624;176.9738;-0.3979858;0.0003244632;0;
131.3293;0;158.2462;200.6264;12.06156;-4.474229;155.8088;160.3668;-0.2026839;-0.1296105;0;
-332.2572;0;-278.6308;-148.2124;9.772264;-0.9197596;-299.9937;-295.4403;0.5771279;-0.1944477;0;
-709.9209;0;-640.1689;-500.1365;10.16361;-1.186767;-673.6293;-667.2064;0.576548;-0.1292849;0;
-441.9044;0;-395.8357;-296.9234;11.69461;1.359777;-409.8972;-402.7936;-0.07370478;0.0007796585;0;
-224.7568;0;-189.354;-85.35624;11.81659;2.02824;-192.1571;-188.0591;-0.1385981;0.3256156;0;
-175.8055;0;-139.6262;-53.03667;8.187389;6.848851;-142.239;-140.7688;0.05644323;0.3902557;0;
328.4928;0;327.4044;200.8265;7.6433;9.119267;353.7797;354.4987;-0.4633522;0.06502691;0;
707.4096;0;687.4568;294.7649;0.9378144;6.69884;729.4227;728.142;-0.332952;-0.1299405;0;
382.3618;0;398.3485;226.378;-2.21096;7.227973;408.6007;407.5087;0.5119581;-0.1298099;0;
144.8468;0;174.6855;246.3279;3.149896;6.082;169.4351;173.4042;0.6413782;0.1951573;0;
129.8962;0;154.3326;204.9135;2.075005;5.673991;153.8351;160.0491;-0.008939575;0.3898632;0;
-328.8788;0;-277.3555;-145.6163;5.555544;3.190043;-296.2808;-291.5723;-0.463702;0.1945694;0;
-712.5428;0;-646.2663;-503.6649;6.219547;2.115111;-676.4793;-669.7766;-0.1383993;-0.1304628;0;
-436.5902;0;-394.4931;-293.5767;3.936122;2.179969;-405.373;-398.2397;-0.2032276;-0.5851031;0;
-214.263;0;-181.4536;-77.64006;4.199611;1.039069;-182.2651;-179.8242;-0.1380561;-0.6494825;0;
-177.8784;0;-144.8521;-54.32373;-3.104651;5.860673;-144.9756;-144.5986;0.3818214;-0.3889605;0;
320.9872;0;317.1238;198.2914;-5.780849;7.596341;346.0483;346.4874;-0.138301;0.001234324;0;
699.6616;0;677.3115;295.8555;-5.909738;3.23494;721.6366;719.9514;-0.3330641;0.3260698;0;
373.6221;0;387.2763;224.2816;-8.047254;2.360911;400.3227;398.7641;0.3819113;0.0009054473;0;
147.4227;0;174.7438;243.9212;-6.163157;6.980239;172.972;175.5379;0.1216582;-0.5188342;0;
134.5935;0;158.139;200.9476;-5.48738;7.174174;158.8052;163.43;-0.3982027;-0.3234108;0;
-334.1187;0;-275.6769;-152.5142;-9.701425;5.358426;-301.8729;-297.1902;0.1219361;0.1966529;0;
-711.9055;0;-636.0936;-501.7479;-10.36126;5.487008;-675.5066;-668.205;0.4466503;0.06652057;0;
-437.2653;0;-391.3896;-291.849;-3.921465;0.2569479;-404.0889;-397.0446;0.3162668;-0.1284483;0;
-224.9325;0;-191.0344;-85.65921;-2.242585;-1.082969;-190.4151;-188.3753;0.121047;-0.06335188;0;
-172.3578;0;-139.3058;-56.58771;0.5063342;-2.354434;-138.4998;-138.5859;-0.333846;-0.2581902;0;
338.7461;0;333.534;200.1526;4.055799;-4.093625;362.5751;363.2386;-0.5284126;0.001938544;0;
704.5967;0;682.0236;294.6539;-5.125304;0.7331374;725.4033;724.5044;-0.397947;0.001936596;0;
374.1794;0;388.9227;226.0797;-7.598401;1.067315;400.8371;399.6893;-0.2026451;-0.5827714;0;
146.0429;0;175.1392;245.2178;5.33633;4.884148;171.7368;174.838;-0.1374741;-0.1923818;0;
128.6548;0;153.6614;202.2428;7.474422;7.960455;153.3859;158.8578;-0.07236864;0.652387;0;
-334.2418;0;-277.3389;-148.8465;0.5016627;2.660927;-301.1648;-295.9483;0.3824755;0.3918621;0;
-714.4647;0;-642.6265;-504.0183;-0.3031247;4.064773;-676.8607;-669.9003;0.2521565;0.001664261;0;
-437.9479;0;-394.4802;-293.4925;-1.91041;3.658791;-404.2548;-396.5518;-0.4627376;0.06662993;0;
-216.3066;0;-183.0649;-79.74235;-4.118318;4.324944;-182.8347;-179.1374;-0.3973053;0.1315303;0;
-176.1718;0;-142.3388;-52.80072;-4.181529;10.08101;-142.5461;-141.4138;-0.2020041;0.06643081;0;
330.5006;0;327.9429;200.4376;-6.320781;11.81244;355.9716;357.4776;-0.3967032;-0.2584727;0;
709.1655;0;688.4945;294.8136;-7.386157;18.6327;731.3;730.6807;-0.2663699;0.001656441;0;
373.8712;0;388.0783;225.3022;-8.651532;21.56111;401.1059;399.8624;-0.1361675;0.3264915;0;
141.8619;0;171.672;246.2527;-14.1352;22.4772;168.6944;171.825;-0.006096028;0.001326717;0;
126.2896;0;151.6969;200.2782;-16.59924;24.397;152.8453;158.9088;-0.07105725;0.1962274;0;
-341.9145;0;-292.7946;-154.4323;-16.51521;20.82251;-306.39;-300.7699;-0.1359532;0.1960303;0;
-716.6324;0;-649.7584;-500.2907;-17.77141;20.60064;-675.7089;-668.7201;0.1890201;-0.1290034;0;
-440.4883;0;-390.1731;-288.0195;-15.07424;15.62333;-403.1665;-395.9349;-0.1360065;-0.06390648;0;
-223.8418;0;-185.4463;-80.022;-12.6482;13.19637;-188.744;-185.6426;-0.3307719;-0.1288096;0;
-168.3322;0;-137.8463;-49.39444;-20.60609;14.79058;-136.7679;-136.2933;0.05936453;0.2611239;0;
343.08;0;331.9936;202.4036;-21.58976;13.23523;363.8055;364.0922;0.05930489;-0.1289425;0;
712.4244;0;681.859;293.3419;-11.78881;14.89638;728.319;726.2941;-0.07068939;-0.3886824;0;
384.2482;0;390.3825;228.2048;-11.10737;13.80969;404.7495;402.6642;-0.1355857;0.521251;0;
157.226;0;177.0973;248.84;1.295019;18.35065;176.145;178.6844;0.1893872;0.2608579;0;
131.0811;0;148.9959;198.4277;8.594735;20.14063;149.2314;153.8923;0.1242296;-0.1292083;0;
-342.6251;0;-287.9968;-161.216;-10.63764;10.74302;-315.56;-310.9038;-0.2007319;0.1307909;0;
-710.908;0;-640.9048;-508.192;-12.90412;8.990673;-681.2464;-674.2836;-0.2005302;-0.06424256;0;
-422.0261;0;-387.3255;-287.2297;-5.255347;7.173222;-399.2658;-391.7478;-0.005426712;0.0007893344;0;
-209.2088;0;-187.9113;-80.98212;-7.125101;4.419713;-187.0336;-183.8959;-0.0703886;0.06575588;0;
-173.3914;0;-149.7416;-57.47503;-0.3527871;6.290795;-149.8018;-149.2909;-0.2652199;-0.1292122;0;
338.2757;0;323.3586;200.703;1.12046;4.743866;354.0956;355.4179;-0.005084038;-0.1290824;0;
715.9333;0;681.1662;294.9538;-1.559983;7.351434;727.0521;726.874;0.1248557;-0.06398533;0;
379.5076;0;381.9443;226.3793;1.523043;8.616601;394.4884;394.4353;-0.07017173;0.06601364;0;
148.3048;0;167.0434;247.8284;-12.54466;1.37403;163.0831;167.153;0.3846702;0.1309147;0;
131.9764;0;149.072;201.0403;-16.1484;0.3679057;147.6144;153.117;0.7091203;0.1957505;0;
-335.5462;0;-282.9232;-156.1073;-1.531115;2.176075;-310.7411;-305.8687;0.2536364;0.2605211;0;
-704.6484;0;-634.3372;-502.3388;-0.390501;1.838974;-675.4329;-668.9412;-0.2663572;-0.06457738;0;
-424.6432;0;-386.0118;-287.6292;7.11198;5.655031;-398.4556;-392.4702;-0.2011222;-0.3893492;0;
-217.6329;0;-189.7849;-83.31778;12.12868;7.72582;-189.9098;-188.2408;0.188884;-0.2590233;0;
-168.3764;0;-137.9327;-51.12521;5.618778;6.311416;-139.8691;-140.4506;0.5135309;0.001106335;0;
344.66;0;335.3431;204.4227;7.220723;7.711715;364.7679;365.249;0.3181129;0.06607257;0;
711.5666;0;682.2691;292.7978;4.400428;9.981264;728.3434;727.0749;0.05792386;0.001038833;0;
384.3907;0;392.2915;229.6602;2.185204;10.84201;407.2101;404.2562;0.05786566;0.3258745;0;
156.8062;0;180.9408;251.1685;9.484026;13.77825;179.4153;180.8371;-0.007159829;0.3255471;0;
128.038;0;149.8371;198.7549;9.474496;14.03233;149.5624;154.5435;0.05781471;0.06535058;0;
-344.2283;0;-288.031;-159.6398;5.982352;18.50597;-314.7296;-309.4411;-0.007210727;0.1302523;0;
-716.5076;0;-640.6891;-507.492;4.703543;21.43462;-683.103;-675.8209;-0.1371382;-0.129748;0;
-431.4931;0;-385.6108;-286.8427;2.823783;9.021486;-402.1825;-394.4704;0.05790166;-0.2595523;0;
-211.4199;0;-179.9515;-73.0368;1.949313;7.137021;-180.8894;-178.245;0.3826802;-0.06438947;0;
-170.0407;0;-139.416;-47.5387;-4.482031;8.670336;-138.5414;-139.2729;0.3822957;0.06560991;0;
340.1863;0;331.6749;203.0706;-6.554608;6.183377;363.0333;362.9272;0.2519768;0.1305113;0;
712.1573;0;685.2263;293.8209;-6.413324;15.35358;731.4207;729.8154;-0.07311305;-0.2594239;0;
369.1763;0;379.6285;222.4364;-8.01447;16.40988;393.3553;391.2519;-0.2029743;-0.3241305;0;
141.732;0;165.6044;243.3897;-1.308612;16.92926;163.7628;165.9718;0.05709905;0.00103186;0;
128.1588;0;148.1967;198.8549;0.7688074;18.38575;148.8556;154.1234;0.05704168;0.06599817;0;
-344.42;0;-289.6697;-161.289;-1.240721;10.86543;-314.4361;-309.486;0.186919;0.1958665;0;
-712.2014;0;-640.0773;-506.8281;-0.4361672;8.510109;-678.3121;-671.9302;0.1867312;0.0007676998;0;
-427.8783;0;-385.9991;-286.3045;1.23921;7.697885;-398.7707;-391.2708;-0.4631298;-0.1291678;0;
-219.5529;0;-189.2099;-80.49509;1.304338;5.814628;-189.4126;-186.5428;-0.3327298;0.0008967168;0;
-164.9846;0;-134.7346;-50.11694;1.838891;1.455017;-134.6872;-134.6314;0.0574086;-0.3889082;0;
352.7336;0;344.5349;205.3675;2.372907;-0.3549846;374.9421;375.685;-0.1375511;-0.5834194;0;
706.4512;0;681.5192;292.8046;-4.528354;-0.4885937;726.2635;724.8818;-0.2023802;-0.1930292;0;
370.4099;0;381.4224;227.1682;-6.533535;-0.6220686;394.7001;393.0074;-0.0722422;-0.2578026;0;
154.5835;0;178.6409;249.9909;-4.852031;0.9191638;177.2876;180.2817;0.1227324;-0.2575436;0;
123.8185;0;145.9777;194.7049;-5.249298;1.052206;146.0625;152.4269;0.05764175;0.3923887;0;
-353.3161;0;-294.8849;-165.9971;-4.64081;9.557737;-322.4113;-315.0538;-0.1373182;0.2620597;0;
-708.5948;0;-630.9821;-498.663;-4.167633;12.29443;-673.3483;-664.6239;-0.2021476;-0.5178117;0;
-418.4034;0;-372.6651;-273.0875;-0.2786792;10.40656;-387.7524;-380.5985;-0.007042415;-0.5172914;0;
-213.0859;0;-181.8863;-74.3504;1.530262;11.33386;-181.9036;-180.0042;0.057932;0.002967078;0;
-174.3287;0;-140.8491;-51.16231;3.068966;7.504569;-141.9283;-141.9049;-0.2669629;0.3278008;0;
341.8371;0;337.8643;203.761;4.673472;6.15737;365.7717;367.1694;-0.2017273;0.1975368;0;
713.9315;0;690.0977;293.0113;6.678509;1.328534;734.3437;733.9284;-0.1365573;0.06740358;0;
372.073;0;385.4945;224.3138;8.948974;-2.088931;397.8996;396.6726;-0.07145274;0.1972705;0;
142.4394;0;171.7144;246.2647;1.973757;0.5255028;167.9901;171.3871;0.05855374;-0.06279705;0;
124.9925;0;151.3645;200.9149;-0.1043314;0.1900601;150.455;157.5967;-0.2013745;0.002233388;0;
-348.895;0;-289.566;-158.3565;5.85762;-2.958207;-315.462;-308.7023;0.1236646;0.06719849;0;
-713.7358;0;-640.0363;-501.962;5.248522;-2.553337;-677.4629;-669.9604;0.5133444;-0.06280372;0;
-417.6046;0;-375.1509;-273.8221;8.257359;-2.550771;-385.4911;-378.0586;0.05805718;0.1971288;0;
-209.6644;0;-176.3113;-67.40058;10.72731;-2.548208;-176.1463;-172.9067;-0.006968497;0.3918327;0;
-166.9126;0;-133.0308;-45.09404;-0.9377691;5.358094;-133.803;-132.4407;0.1879405;0.196537;0;
348.1838;0;341.0522;206.4499;-3.616144;7.228233;371.4525;373.5631;-0.2020524;-0.1934646;0;
704.2798;0;677.6651;292.0743;2.884224;11.84267;723.8395;723.699;-0.136882;-0.3232048;0;
368.2407;0;377.6346;226.1263;2.010669;15.64868;392.9031;391.8883;0.1231249;0.06692395;0;
148.356;0;172.4831;249.887;4.353174;5.116875;171.6194;174.8534;0.2529359;-0.1930127;0;
120.7208;0;142.4498;196.0379;4.415173;3.571126;143.2736;149.4404;0.4475837;-0.8424921;0;
-349.2893;0;-292.6622;-160.1676;6.956332;6.380821;-316.8267;-310.2912;0.3171993;-0.4518415;0;
-706.2588;0;-632.7595;-494.0263;10.23187;5.570615;-669.7057;-661.1779;0.1219786;-0.06158349;0;
-420.8797;0;-378.5012;-273.6404;-4.715237;6.569761;-389.2985;-381.6537;-0.008078665;-0.2564236;0;
-214.9976;0;-184.5307;-74.15312;-7.323444;7.299972;-182.6984;-180.0589;-0.1380052;-0.1262313;0;
-166.8681;0;-137.3689;-48.46649;-1.286889;6.22091;-134.539;-133.7761;-0.3977359;0.2636996;0;
347.2912;0;338.8424;204.8299;-3.094257;6.080694;370.6548;372.3539;-0.527271;0.3933693;0;
706.1992;0;680.8298;292.0177;7.759843;13.24151;726.8531;726.3642;-0.3968065;0.2630394;0;
368.409;0;379.9841;226.1947;9.895499;15.70658;393.7274;393.4263;-0.1365384;0.06787304;0;
142.7146;0;171.0196;248.2687;10.55514;14.01622;166.4458;171.0801;-0.006466521;0.1327722;0;
120.4573;0;146.61;198.794;14.29558;15.27481;143.2277;149.419;-0.1363947;0.2625735;0;
-347.9908;0;-289.5682;-157.9141;1.018351;14.65662;-316.1854;-310.4376;-0.006322973;0.1973423;0;
-712.5203;0;-641.6001;-499.2712;-0.5902623;14.90982;-675.9991;-668.0083;0.1236181;-0.1276927;0;
-419.1389;0;-381.5858;-271.5713;-2.263633;14.22501;-387.3397;-380.2314;-0.1363755;0.002370269;0;
-208.1986;0;-179.1789;-68.83765;-6.012402;13.94279;-176.5562;-174.64;-0.006303801;0.1972699;0;
-177.6921;0;-146.2029;-54.2133;5.045701;14.39766;-146.2065;-145.9164;0.05866987;0.06713701;0;
340.5385;0;331.1417;200.3382;5.174353;14.31621;363.2469;364.8486;-0.3961605;0.3919063;0;
717.1943;0;689.5037;293.2151;9.05392;15.9764;737.5061;737.1697;-0.3957624;0.3265451;0;
378.2062;0;389.3363;229.4524;11.59042;16.69716;404.0573;403.9086;-0.005560691;0.06634765;0;
157.7493;0;182.5489;254.5217;2.1343;17.21624;182.5749;187.2989;-0.07052244;0.261183;0;
127.9807;0;149.8193;195.9827;1.127778;18.00262;152.2816;158.9374;-0.1354189;0.3908553;0;
-357.8413;0;-301.8542;-168.4061;-4.701481;17.91755;-325.5063;-318.9197;0.2545212;0.2605278;0;
-707.5557;0;-637.0698;-496.322;-7.911937;17.96652;-672.5046;-664.113;0.2542655;-0.3894074;0;
-411.9305;0;-371.5003;-266.626;-6.095326;20.29287;-381.5374;-373.0917;-0.07082675;-0.2590814;0;
-214.4906;0;-184.6583;-71.0188;-7.428372;21.47818;-183.2534;-178.0647;0.0591791;0.130983;0;
-164.8625;0;-136.8092;-45.96;-3.870935;16.49998;-134.0315;-131.4716;-0.0058477;0.000916682;0;
355.2293;0;344.5864;207.7087;-2.326804;14.94279;377.0964;379.2789;-0.3306785;0.1958178;0;
709.4442;0;682.5076;291.3329;-1.252739;19.0806;729.1653;728.9718;-0.005509557;0.3255557;0;
371.151;0;380.036;226.6975;0.6909029;18.86048;396.0997;395.4691;0.3843;0.3901959;0;
147.0155;0;168.9475;249.3957;2.76729;18.70756;169.6278;174.62;0.5138485;-1.883621E-07;0;
117.2577;0;137.2936;196.484;4.371123;19.22463;138.6604;146.646;0.3184302;-0.4547716;0;
-354.2482;0;-303.3104;-165.5315;6.376463;15.85628;-323.8091;-316.5186;0.1232082;0.1303915;0;
-706.9647;0;-647.8948;-500.1344;8.51351;15.77337;-672.7457;-664.7128;0.1230844;0.1952278;0;
-409.4036;0;-378.3165;-265.562;1.405009;14.88674;-379.1544;-371.442;-0.006973921;-0.1298051;0;
-207.3436;0;-178.4116;-68.20678;-1.476791;14.73782;-175.4382;-171.669;-0.1369016;0.0002600134;0;
-170.1538;0;-140.1265;-50.08482;9.978896;15.86172;-138.5928;-137.5136;0.25304;0.1951618;0;
349.1312;0;338.1489;206.2117;12.31339;15.04199;371.1028;371.9935;0.3177531;0.5847697;0;
709.1617;0;680.9492;292.1487;1.181611;23.13156;727.8629;726.254;-0.00740289;0.4542475;0;
364.9968;0;374.731;223.9518;-1.164101;24.98384;389.6137;387.4442;0.1225392;0.1939217;0;
145.1779;0;169.8323;248.2769;1.583735;19.86816;169.2078;171.8506;-0.3323553;0.06379213;0;
121.0441;0;142.4878;195.7412;-0.6950324;18.91043;144.2378;149.3141;-0.656858;0.1286954;0;
-359.8359;0;-315.2379;-172.5204;2.453498;14.60465;-327.7325;-322.8487;-0.006524614;0.1285661;0;
-713.4839;0;-663.4958;-506.8665;2.451032;11.10698;-678.1644;-671.4739;0.1234166;-0.2613672;0;
-413.6673;0;-384.9064;-271.2878;-1.503545;10.29202;-383.5682;-377.0718;-0.3314788;-0.06620252;0;
-213.4771;0;-185.3073;-75.23862;0.03918291;8.473144;-183.1583;-180.4166;-0.396113;0.3886354;0;
-167.0983;0;-139.5815;-50.86274;-11.6825;-0.6448048;-136.8725;-136.0075;-0.200813;0.3232776;0;
354.5575;0;342.0667;207.2462;-14.48478;-3.926198;375.7575;376.684;-0.3955133;0.4528874;0;
703.4007;0;675.9301;290.9957;-4.28882;-2.582717;722.1431;720.9448;-0.07027913;0.192563;0;
365.6758;0;375.6515;228.7345;-4.150789;-4.254573;391.3959;389.4491;0.5794649;0.06243479;0;
153.7897;0;177.5609;254.1792;7.307585;2.514734;179.1091;181.4746;0.3839806;0.1923068;0;
112.0311;0;134.1542;189.7061;11.65352;4.85661;135.8883;141.8121;0.1237254;0.06217883;0;
-370.7764;0;-321.0019;-177.4251;7.958118;2.708276;-339.5094;-332.7169;0.1885685;0.2570184;0;
-708.9836;0;-645.5785;-498.4603;9.691434;3.375384;-674.2498;-666.0273;0.1234116;0.3217275;0;
-412.5449;0;-371.8796;-266.4508;3.720825;6.587173;-381.1568;-373.6298;-0.006647045;0.1914695;0;
-217.0409;0;-185.287;-76.4035;1.975775;7.518194;-185.7468;-181.4758;0.05832697;0.1263098;0;
-170.1588;0;-141.1229;-48.65314;-2.313118;2.487041;-139.7707;-137.3155;-0.1366336;-0.1986538;0;
354.4361;0;342.0885;208.454;-5.593324;0.2742276;376.6727;378.4383;-0.4613331;0.2563172;0;
711.7751;0;680.3871;290.953;-7.195294;0.8767985;730.866;730.7557;-0.2659675;0.4509616;0;
368.6071;0;373.2325;226.2555;-11.07283;-0.66469;392.5513;392.1913;0.1890711;-0.06923024;0;
148.9095;0;168.7101;249.8287;-4.229201;-5.68762;172.2674;176.4679;0.5137179;-0.06916067;0;
117.5255;0;136.1193;194.4804;-4.224952;-7.892342;140.2978;147.3677;0.578169;0.0608435;0;
-364.4753;0;-316.3526;-173.5926;-3.417399;-10.22869;-334.1048;-327.6667;0.382686;0.1907171;0;
-715.8698;0;-656.2387;-507.3753;0.6054986;-12.49583;-681.9066;-673.9133;-0.07246987;0.3204601;0;
-414.8639;0;-382.2167;-268.7352;-16.61009;-8.531285;-384.6205;-376.0105;-0.007429707;0.3851055;0;
-208.6755;0;-182.3704;-68.19085;-19.40644;-7.652057;-177.338;-173.172;0.3174145;0.3197512;0;
-162.0516;0;-134.9609;-45.32129;-6.928358;-9.452785;-130.3709;-129.0825;0.05722616;0.2544625;0;
356.8504;0;344.3713;208.0969;-5.381155;-8.237595;379.3165;381.0408;0.122136;0.5140762;0;
702.3805;0;673.8595;290.5962;2.595831;-7.760559;721.1384;721.6741;0.1869806;-0.1361138;0;
358.5347;0;367.6485;227.086;7.080225;-6.346119;382.9584;383.4935;-0.008109285;-0.4608137;0;
150.0916;0;173.439;251.1581;10.69043;-2.58882;173.9285;178.8983;0.05686621;0.05938806;0;
113.7714;0;136.1584;188.5621;15.56981;0.0261154;137.0222;144.6107;-0.008158276;-0.0706063;0;
-374.6599;0;-323.1851;-182.8783;10.5967;0.6289356;-342.8744;-336.1055;0.05681726;-0.2654374;0;
-715.2371;0;-652.757;-506.969;10.6534;1.967962;-680.1726;-672.0363;0.1866949;-0.135236;0;
-412.2953;0;-375.6151;-268.8291;16.00133;7.324375;-382.3261;-373.6357;-0.2032968;-0.2650348;0;
-214.7301;0;-186.8949;-76.53046;16.85591;8.99159;-184.2913;-180.2947;-0.1381252;-0.3297358;0;
-166.9758;0;-139.8556;-47.46814;11.61406;9.317469;-136.1302;-134.574;0.05691564;-0.004567786;0;
358.8653;0;348.477;210.4499;9.458934;9.576038;380.8718;382.8637;-0.2030109;0.1253715;0;
709.0785;0;682.2089;290.0109;11.52651;7.489945;728.0019;727.4307;-0.0079049;0.1902129;0;
357.7297;0;367.8686;224.4398;9.437848;6.678746;381.8815;381.4982;0.05707038;0.2549891;0;
139.6047;0;163.0392;248.5146;10.70116;0.1748132;162.358;167.5972;-0.07292164;0.1247982;0;
111.9783;0;133.7026;191.7308;10.2219;-3.24137;134.2089;141.6293;0.4468904;-0.2001639;0;
-373.1404;0;-314.5815;-181.5868;3.647541;-0.1570202;-342.9987;-336.1479;0.771278;-0.2649302;0;
-722.902;0;-647.9727;-513.425;1.902564;-0.2238454;-689.4172;-680.8867;0.185797;0.3200421;0;
-414.5178;0;-373.3343;-267.7823;-0.4438726;-6.251962;-384.9397;-376.98;-0.07425908;0.3846879;0;
-208.5171;0;-180.3685;-65.23991;-1.24771;-7.585339;-178.4065;-174.6402;0.5105216;-0.2653721;0;
-157.833;0;-130.3373;-42.49826;-1.916041;-1.549375;-127.8151;-124.9271;0.574976;-0.07020339;0;
366.812;0;355.1122;208.9806;-1.713045;-0.3421257;388.3664;391.6263;0.1845942;0.3196712;0;
703.7739;0;676.3438;290.1047;2.240791;4.212935;722.683;722.6287;-0.01049332;0.05948063;0;
358.0526;0;366.0073;227.2821;3.109195;7.825659;381.4405;380.7616;0.05448456;-0.2004485;0;
153.0457;0;174.1108;252.9158;14.02441;4.937651;175.2232;178.9178;0.3792665;-0.00534507;0;
106.6652;0;129.2708;185.5079;18.69839;7.076144;130.4445;136.1344;0.05404873;0.7742684;0;
-380.1349;0;-321.3201;-186.3667;15.19698;7.069034;-347.7588;-341.7622;-0.2058749;0.7734904;0;
-710.0244;0;-636.4012;-502.5204;17.9274;7.597672;-675.3694;-667.4424;-0.1407007;-0.006894894;0;
-413.7095;0;-372.0193;-267.8832;12.68545;13.61838;-382.8376;-375.1684;-0.01062468;-0.2667573;0;
-216.2679;0;-186.3012;-73.52406;12.06949;15.1453;-184.4899;-181.2637;0.3142227;-0.07158727;0;
-153.6444;0;-123.8953;-36.59371;11.85629;15.79991;-122.0233;-121.424;-0.2707991;-0.1364827;0;
372.3706;0;362.2974;213.255;9.165062;15.65007;394.7771;396.2503;-0.6603311;-0.3962149;0;
713.3249;0;683.959;288.3154;19.33726;17.84466;732.5854;731.6834;-0.3348309;-0.006012739;0;
362.659;0;368.1801;225.8069;20.99277;17.5588;386.3979;384.6223;-0.009657691;0.123928;0;
145.8409;0;165.9117;249.1307;17.68914;11.57992;168.0567;172.0924;0.1202867;-0.2010332;0;
113.3357;0;131.5746;192.2214;19.41268;9.625779;135.8415;143.059;-0.07473619;-0.525668;0;
-376.0948;0;-321.7048;-183.2831;9.54754;1.846331;-344.8035;-338.2179;-0.3994978;-0.4601724;0;
-724.1042;0;-652.4026;-515.1196;6.188068;-1.973551;-689.9084;-681.7677;-0.4640637;0.1249961;0;
-406.9107;0;-369.8264;-261.6666;11.67518;-1.502687;-378.2465;-369.6142;-0.5285648;-0.005064242;0;
-199.7933;0;-175.8645;-58.2558;9.117856;-2.907819;-170.9079;-166.1574;-0.07326228;-0.2649285;0;
-160.1748;0;-135.2707;-39.89397;16.14129;-1.632221;-130.0067;-128.1969;0.251648;0.06017439;0;
363.4105;0;349.6216;210.3329;18.80439;-1.027735;385.7398;387.2978;-0.2033762;0.255016;0;
706.935;0;677.4178;289.644;4.987744;5.001639;725.3063;725.2386;-0.2031718;0.3846944;0;
357.7123;0;366.3307;226.5721;3.576212;8.61357;380.7503;380.9326;-0.07303303;0.5142425;0;
149.5824;0;172.3724;252.019;1.831307;6.796498;172.035;176.9646;-0.137927;0.2538565;0;
104.8295;0;125.4727;184.8619;-0.9171996;7.593342;127.447;134.3707;-0.00785371;-0.3311047;0;
-386.8413;0;-332.2983;-191.5098;9.466199;12.94423;-355.7508;-349.8335;0.1220889;-0.2008373;0;
-714.85;0;-645.7442;-506.9712;11.93493;12.9982;-681.1046;-673.5691;0.2519009;0.1891685;0;
-409.4099;0;-371.4829;-262.4594;10.04693;13.05212;-380.446;-372.8556;0.1217131;0.1240111;0;
-217.0325;0;-188.4514;-72.29114;11.64443;12.63711;-187.1607;-183.8258;-0.008343902;-0.2659175;0;
-156.3448;0;-127.9174;-39.67236;12.50338;1.840527;-126.4406;-124.7332;0.5763705;-0.5904871;0;
368.6735;0;356.6551;214.4898;12.62552;-2.381247;390.2393;392.4447;0.3808894;-0.005187656;0;
698.5745;0;670.014;288.4869;15.55959;-7.201503;717.0577;716.7621;-0.1392321;0.3846216;0;
352.5461;0;359.9963;225.3537;16.54833;-11.48105;375.0713;374.9634;0.3806466;-0.2654383;0;
146.5453;0;166.5441;249.2401;11.24042;-13.54587;167.8609;172.5632;0.3802641;-0.3951063;0;
112.7274;0;131.5818;191.2687;10.82699;-16.61347;133.8967;140.5933;-0.07488938;-0.2647746;0;
-376.7024;0;-323.6342;-182.6107;5.056306;-10.43447;-347.0587;-341.0559;0.05512055;-0.1345738;0;
-719.0266;0;-651.3941;-509.3878;1.567625;-8.883376;-685.4147;-678.1061;-0.1398369;0.2553655;0;
-405.5863;0;-368.6938;-259.6888;10.60838;-9.008416;-375.9437;-368.8299;-0.3345984;0.1251742;0;
-201.4687;0;-175.3579;-59.46584;10.99986;-6.454135;-171.0437;-168.1225;-0.009425465;-0.134821;0;
-153.915;0;-128.2053;-34.1063;13.5344;-8.256067;-123.7706;-123.1011;-0.1393507;-0.004750827;0;
366.6655;0;354.0562;214.1157;17.47292;-7.645047;388.1591;388.5154;-0.204178;0.3200907;0;
706.9384;0;677.0379;288.2382;6.403302;-2.613767;725.5992;723.1442;0.1208639;0.2548017;0;
358.3404;0;363.5774;223.2936;5.592584;-0.8026017;381.2928;379.0901;0.05577508;-0.3301604;0;
147.2738;0;167.1231;247.9317;12.88798;-1.404642;168.8288;172.0006;-0.2041503;-0.2648613;0;
109.3323;0;129.474;186.276;14.08048;0.1373772;130.6158;135.3461;-0.1389779;0.2551436;0;
-379.5319;0;-324.8028;-185.287;17.34886;-3.211786;-350.2113;-346.5477;0.1210312;0.3198545;0;
-712.2956;0;-645.8149;-502.3789;17.86729;-4.213302;-679.5687;-673.9098;-0.2039272;0.2545658;0;
-405.2339;0;-373.3027;-259.6833;26.55688;0.8145292;-377.1001;-371.9466;-0.3986243;-0.005559376;0;
-207.8007;0;-186.3339;-65.89467;29.67803;0.7467279;-179.8201;-178.9197;-0.2033217;-0.2654231;0;
-147.3097;0;-123.9904;-33.21985;22.61561;4.228968;-119.2948;-119.4572;-0.1381501;-0.2001891;0;
372.4521;0;358.1419;215.8134;23.53089;6.301189;393.1301;393.2177;-0.07304392;-0.1350206;0;
697.2269;0;668.3759;287.6853;9.909587;-1.341074;716.5723;713.2865;0.1219315;0.3198864;0;
351.4498;0;360.3589;224.6153;3.201824;-2.143522;375.8981;372.7406;0.3816783;0.4494997;0;
150.0103;0;171.2166;248.315;16.99636;-2.476283;172.1227;174.4656;0.1863928;0.3191134;0;
111.9411;0;130.1277;188.2206;16.51077;-4.282212;133.5315;138.2459;-0.07366385;0.5786621;0;
-379.9867;0;-335.2692;-183.2194;11.53768;2.152209;-349.36;-344.9627;0.2512469;0.3831786;0;
-716.623;0;-661.9554;-505.2483;10.78916;3.556688;-683.3409;-676.6992;0.5108638;-0.1369451;0;
-406.2461;0;-372.6854;-257.6149;7.630483;1.208833;-377.3077;-370.6102;0.05557908;0.05809448;0;
-207.5625;0;-179.9076;-61.32955;6.28267;2.011414;-177.2165;-174.8985;-0.2693135;0.1879708;0;
-154.8179;0;-131.8134;-36.53036;4.467695;1.540512;-125.9391;-126.0598;0.2506959;-0.2020221;0;
372.3228;0;355.3867;213.1933;3.391479;1.605947;391.0526;391.4319;-0.2043274;-0.07188445;0;
706.468;0;674.5565;288.3163;0.3739616;2.140075;722.7427;721.4974;-0.5939261;0.3829592;0;
354.3098;0;360.5362;223.3091;-1.568797;2.070942;375.7531;374.3841;0.05634403;-0.1371644;0;
154.1792;0;173.7052;248.2596;3.791414;2.537741;174.2891;177.1693;-0.008679922;-0.4618632;0;
115.5437;0;134.8001;186.9158;5.395195;2.602175;136.1956;141.4467;-0.2685406;0.1882743;0;
-385.4457;0;-329.4146;-188.0836;3.045249;2.666543;-356.5062;-350.6357;-0.07336871;0.3829871;0;
-713.8931;0;-644.8624;-502.7364;4.918199;2.931795;-682.359;-674.1205;-0.07329499;0.2526676;0;
-400.3955;0;-365.4171;-254.2309;3.238318;1.388364;-372.0165;-363.7863;-0.07322134;0.3823484;0;
-213.2745;0;-188.2637;-66.0074;3.167715;0.8511052;-183.6747;-179.4508;-0.008180428;0.1220948;0;
-152.1533;0;-127.6674;-34.83171;10.60025;2.993582;-122.4583;-121.3621;0.1217625;0.05700481;0;
381.0441;0;365.0882;218.0762;11.46025;3.59342;401.2765;402.2467;0.2515748;0.3817843;0;
701.5624;0;671.1299;287.0723;18.21389;1.111563;717.6516;717.2465;0.1863547;0.2514659;0;
347.7225;0;353.5523;223.5656;22.4825;0.4406169;369.3552;368.7631;-0.07370193;0.05631124;0;
146.9738;0;163.5424;248.5158;9.933977;3.253335;168.2725;171.9288;0.1862415;0.121222;0;
104.41;0;119.5876;183.0489;8.651197;3.384032;125;130.8392;0.2510217;-0.008834491;0;
-385.4487;0;-333.6173;-190.0726;7.638126;3.514598;-356.9459;-350.4879;0.1208348;0.05614173;0;
-712.0845;0;-645.7501;-504.5359;3.678337;4.180896;-680.7368;-671.974;0.5105174;-0.008882025;0;
-403.7737;0;-371.6761;-260.2765;16.06587;0.1578407;-376.3929;-368.6384;0.3800698;0.05609424;0;
-207.3415;0;-187.2077;-67.79911;18.4616;-0.8470619;-178.8013;-175.3025;0.2497532;0.2509399;0;
-149.787;0;-128.9863;-33.24832;8.328997;1.096294;-121.2755;-119.9041;0.2495022;-0.07414895;0;
379.0977;0;361.5843;216.5345;7.181552;0.9612269;399.2098;400.08;-0.1405525;-0.3989111;0;
709.8004;0;677.4995;287.1564;5.968887;1.764056;727.2686;725.7642;-0.2053786;-0.138641;0;
350.5175;0;355.9175;222.5252;2.747709;2.365008;373.4028;372.1497;-0.1402049;-0.203469;0;
149.0788;0;166.0927;246.6019;9.107961;3.032461;170.6293;174.5625;-0.01012936;-0.2682319;0;
116.1955;0;131.6305;188.0709;9.969464;4.235107;136.9747;142.8404;0.3147175;0.05687434;0;
-381.796;0;-331.8314;-187.1796;-1.226336;1.015793;-352.3545;-347.3068;-0.01043541;0.2517192;0;
-711.3091;0;-649.5256;-503.5199;-3.904422;-0.7267843;-678.149;-670.6077;-0.1403596;0.3164336;0;
-395.8151;0;-364.1411;-250.9532;-2.560352;6.574964;-367.6858;-359.7772;0.3145528;-0.008721033;0;
-202.4518;0;-179.3679;-59.98436;-3.830577;7.037238;-174.6632;-171.2603;0.3792041;0.1861898;0;
-142.466;0;-121.779;-29.81422;-2.286486;2.810242;-114.2055;-113.2423;0.3138557;0.5108394;0;
383.8502;0;365.6609;218.4035;-1.279811;1.936762;403.2742;404.2989;0.1836057;0.2504567;0;
703.8035;0;671.702;286.4622;-3.622073;-3.691628;719.3349;718.1722;-0.1414155;0.05530303;0;
351.8354;0;355.873;225.5174;-4.288995;-6.032322;372.8484;371.437;-0.4011428;-0.1396546;0;
155.0181;0;171.6703;250.9654;3.619544;-10.38003;175.6352;179.4101;-0.5306744;-0.2694489;0;
111.5091;0;128.0197;183.9342;5.156149;-13.38371;131.7932;138.188;-0.2053045;-0.2042108;0;
-385.7905;0;-331.8154;-190.2501;6.491115;-9.753304;-356.9686;-350.9551;0.1197385;-0.268973;0;
-706.9288;0;-637.2658;-495.9052;9.297631;-9.207642;-675.0749;-667.1309;0.4444549;-0.2687027;0;
-400.9969;0;-365.949;-253.4035;-1.295258;-9.935202;-373.9226;-366.2364;0.184139;-0.3983674;0;
-216.7488;0;-194.4174;-72.92699;-3.035269;-8.652543;-188.9521;-185.3342;-0.2058501;-0.2030651;0;
-146.7536;0;-126.4436;-30.99976;-0.7550435;-6.5675;-118.9849;-117.3695;0.0542261;-0.07292638;0;
390.4364;0;368.06;220.7798;-2.360899;-5.757106;408.682;410.6081;0.119139;-0.3976898;0;
710.1332;0;672.2245;285.338;2.999132;2.286387;725.362;724.7249;-0.01091544;-0.4622575;0;
349.7255;0;351.0227;223.5197;3.666679;6.1691;370.5611;369.4249;-0.07587182;-0.007021679;0;
152.1607;0;166.7625;247.3455;4.533651;-2.008895;171.7885;176.4006;-0.2057303;0.5776914;0;
116.0259;0;130.1757;187.6268;5.332403;-3.01162;136.2587;142.99;-0.1405562;0.187307;0;
-383.5896;0;-331.0983;-185.9365;6.26505;-1.401004;-352.8824;-348.4692;-0.335317;-0.007783297;0;
-710.9769;0;-643.2335;-501.341;8.669652;-3.609911;-676.2402;-670.2696;-0.3349801;0.1221592;0;
-398.3568;0;-364.7894;-252.2747;-3.395499;-1.797866;-368.4026;-361.1887;0.3150299;-0.2677676;0;
-206.9901;0;-184.6382;-63.1162;-6.67364;-3.001753;-176.6286;-173.17;0.3147134;0.05733817;0;
-143.2515;0;-120.7971;-28.38271;1.102597;-8.156178;-113.2329;-111.4645;0.2494298;0.3171499;0;
385.5017;0;367.6413;219.2713;-0.3050301;-10.02351;406.2448;408.2614;0.3141465;-0.008005456;0;
705.141;0;670.8693;285.5801;5.656147;-14.83608;723.0522;722.0057;-0.2059079;0.1219373;0;
353.1715;0;355.7282;227.0724;6.722191;-17.09859;375.6249;375.2042;-0.2706683;0.1867821;0;
156.228;0;171.5257;252.6438;6.581715;-18.95681;176.6598;182.4864;-0.400331;-0.07327496;0;
108.8447;0;123.8772;183.9868;10.12507;-21.08122;129.3185;136.7634;-0.2050267;-0.07320133;0;
-394.824;0;-346.0111;-196.9442;-8.572971;-16.30437;-365.5003;-358.3752;0.3798853;0.251709;0;
-716.6403;0;-658.8185;-507.3402;-13.52085;-15.81911;-684.535;-675.1682;0.3145363;0.05655399;0;
-404.6392;0;-377.7975;-259.0175;-0.7812391;-13.92769;-377.6261;-369.0183;0.1842856;-0.3333069;0;
-216.7019;0;-196.7587;-73.85017;-0.846827;-12.0383;-189.591;-185.9894;0.05416572;-0.2680046;0;
-142.3339;0;-124.6596;-31.35978;2.502927;-14.90634;-115.8749;-115.1505;-0.3356928;0.05710136;0;
395.2889;0;373.9651;220.7325;4.510144;-14.22154;413.2256;414.5115;-0.01051874;0.1220113;0;
706.6725;0;672.6265;285.2282;4.906777;-15.14501;722.3423;722.1277;0.5092306;-0.202948;0;
345.0814;0;347.1139;224.2221;6.509437;-14.92884;365.4205;365.2686;0.3787842;0.18706;0;
151.8941;0;165.2939;248.2971;4.359443;-14.84686;171.0259;175.9341;-0.01140045;0.6416435;0;
115.0099;0;128.0839;186.641;4.28869;-14.89892;134.4349;141.3996;-0.2712584;0.4460967;0;
-389.4147;0;-345.9316;-192.7934;2.140926;-10.66415;-361.3261;-354.4308;0.05385091;0.5106158;0;
-716.7336;0;-662.4872;-508.0661;0.7986284;-9.380758;-685.2375;-675.4132;0.2486988;0.185266;0;
-398.6105;0;-368.6564;-253.8706;2.405416;-6.826103;-372.1435;-362.5165;-0.2063225;-0.2696916;0;
-210.9291;0;-188.8137;-68.02133;3.341004;-4.67579;-184.3638;-180.0562;-0.07618047;0.05541615;0;
-150.9972;0;-131.7776;-33.65773;-1.953638;-8.154082;-123.6465;-122.0294;0.1837654;0.05536047;0;
389.5079;0;370.3525;220.0611;-2.62126;-8.748735;408.2105;409.8259;-0.2062232;-0.1395972;0;
710.2676;0;676.4514;285.5569;4.547693;-5.256955;725.5781;724.8181;-0.2709834;0.3802818;0;
343.6753;0;346.8745;222.3641;6.150714;-5.117706;363.5931;363.3336;-0.2057437;0.3149324;0;
149.0526;0;161.1191;247.4405;10.69986;-6.787138;166.3267;170.9401;-0.2705044;-0.07518813;0;
110.2348;0;118.4786;180.8502;12.83256;-6.847301;127.3041;133.5995;-0.07533053;0.5095935;0;
-392.3734;0;-345.9696;-197.7663;13.95777;-11.66307;-364.4517;-358.5999;-0.0102875;0.5740488;0;
-712.6304;0;-650.5312;-506.7247;15.14919;-14.06261;-681.2385;-673.706;0.1846249;-0.07620143;0;
-405.0686;0;-375.7028;-262.9628;9.1731;-8.957903;-378.5183;-371.8055;0.05450467;0.05380982;0;
-223.6901;0;-204.3488;-81.60211;6.082424;-8.613987;-194.9801;-193.3339;-0.01051744;-0.01121159;0;
-144.8798;0;-127.1197;-33.48176;7.952322;-11.35163;-116.6359;-117.1778;0.1843951;-0.2710697;0;
394.8695;0;371.3826;222.2983;7.006327;-11.20626;412.2155;412.6736;0.1192425;-0.1408626;0;
698.2576;0;660.7388;284.5435;-1.775599;-12.19974;712.4002;711.1713;0.05415537;0.1191483;0;
343.1716;0;343.359;226.849;-2.778193;-12.45542;362.6723;361.5695;-0.2057684;-0.07587347;0;
156.2331;0;169.1639;250.9214;-8.669899;-10.83531;174.4648;178.1107;-0.01065963;0.05413745;0;
108.4125;0;122.205;182.4535;-11.6753;-10.35554;126.8758;133.0793;0.2492204;0.4438871;0;
-397.3797;0;-347.994;-199.2256;4.412337;-10.68005;-370.0644;-364.1795;-0.2058014;0.1186044;0;
-718.3813;0;-657.7385;-511.6807;7.756806;-11.00424;-688.095;-681.4664;-0.07565989;0.1834526;0;
-398.32;0;-372.2208;-254.608;13.57616;-9.117658;-372.8742;-367.1893;-0.01061652;0.4431376;0;
-212.0757;0;-195.9977;-69.38268;18.78743;-9.577376;-186.0308;-184.0372;-0.1405405;0.3127576;0;
-148.9568;0;-133.3321;-34.26808;15.01751;-8.964907;-123.3128;-123.1328;-0.3353013;0.3774107;0;
395.1695;0;371.3607;221.013;16.81108;-8.620984;411.1675;411.4722;-0.8547032;0.05219477;0;
709.7391;0;672.6484;285.3835;11.77035;-15.31049;723.4722;722.5897;-0.399073;0.05214233;0;
338.4622;0;339.2023;219.7546;9.280275;-16.9027;358.0535;358.1714;-0.008867925;0.1820246;0;
143.47;0;154.7665;244.896;11.34706;-18.69413;161.23;165.8456;-0.203761;0.2468091;0;
108.8431;0;117.5672;183.993;9.728064;-20.4169;125.7733;132.1333;-0.07362162;0.3115284;0;
-393.1389;0;-347.2549;-198.3748;9.048703;-18.31992;-368.2299;-361.9387;-0.138515;-0.01362133;0;
-714.5197;0;-654.9387;-510.1437;9.441752;-18.83737;-687.012;-678.8531;-0.1383758;0.0513597;0;
-399.897;0;-374.796;-257.1955;4.274702;-13.52692;-376.7273;-369.3262;-0.4630735;0.2462101;0;
-219.6481;0;-204.7547;-78.58918;3.39975;-11.16904;-196.0643;-192.7936;-0.7874449;0.0510607;0;
-145.3396;0;-133.8345;-37.53082;8.352827;-13.1002;-122.6541;-120.9484;-0.3968496;-0.07892529;0;
396.9089;0;368.0477;222.1264;8.076015;-11.07768;411.888;413.9043;-0.3314835;-0.01387864;0;
694.4229;0;654.6587;284.7466;18.78517;-13.61177;708.075;708.3402;-0.1362484;0.3759394;0;
334.4682;0;332.5374;221.9294;22.91948;-13.39715;352.8542;353.2441;0.2536925;0.5054963;0;
151.1616;0;161.1643;247.1936;13.71942;-10.30259;168.0924;173.4169;-0.1363664;0.1151843;0;
98.53605;0;108.5912;176.2933;13.16977;-10.22526;115.5123;123.0803;-0.006294705;-0.01486611;0;
-402.5611;0;-357.5961;-205.3796;11.6163;-4.119659;-377.1686;-370.6078;0.3835157;-0.2097532;0;
-710.689;0;-657.1486;-509.083;9.461173;-1.771239;-683.448;-675.8942;0.3831303;0.05032694;0;
-396.0702;0;-377.1287;-255.3862;8.782081;-4.917535;-374.0415;-366.8076;0.4477127;0.3751131;0;
-211.265;0;-197.7772;-70.84724;7.031944;-3.773884;-187.3218;-183.0312;0.5122302;0.1148668;0;
-144.9609;0;-131.6741;-29.67172;5.885803;-7.052256;-120.6045;-117.6301;0.1868788;0.3096534;0;
394.7885;0;365.7083;221.9191;5.009233;-7.982809;410.125;412.0344;-0.2031131;0.3743096;0;
710.9202;0;668.8757;284.9769;3.32926;-2.549292;723.6176;722.9014;-0.008006953;0.1790315;0;
337.893;0;335.6833;219.1609;2.187815;-0.8052964;355.8875;355.4844;0.1219358;0.3087863;0;
137.4041;0;148.5024;243.1785;6.405175;-3.818597;154.9432;159.6629;0.05684591;0.4384107;0;
107.2811;0;117.6811;186.2127;7.403117;-3.881743;124.3653;131.4541;-0.008178548;0.4379702;0;
-391.8258;0;-345.8292;-192.9714;7.395679;0.9448063;-366.5755;-359.931;-0.07313767;-0.01724131;0;
-711.8336;0;-654.8262;-501.7472;9.59905;1.01084;-683.5476;-674.9733;0.0568705;0.2426454;0;
-390.2796;0;-366.8127;-244.747;4.298119;8.980549;-367.1445;-358.5788;0.1217807;0.4373036;0;
-211.0398;0;-192.2817;-64.34159;4.226451;13.72719;-185.9914;-182.182;0.1866257;-0.0179072;0;
-139.2388;0;-119.4375;-25.29654;7.168966;-1.759293;-113.7158;-111.6593;0.2514055;0.2419802;0;
406.1895;0;383.7422;225.7902;6.492177;-3.431976;422.2541;425.0582;-0.2036185;0.3067044;0;
700.1959;0;665.902;283.2843;15.26054;0.7912748;713.933;713.9856;-0.3983159;-0.01844053;0;
332.3644;0;335.5237;222.3426;17.18759;-0.6161618;350.8978;350.7629;-0.267981;-0.213324;0;
149.5597;0;160.0246;247.4815;13.88779;8.025011;165.9505;171.6253;-0.2027444;-0.083175;0;
100.9338;0;109.2018;176.7058;13.40532;10.22738;117.4955;125.3511;-0.267508;0.3067127;0;
-400.2908;0;-363.4205;-201.7816;11.04733;10.75297;-375.1875;-368.9015;-0.1373046;0.04653508;0;
-703.2985;0;-658.9691;-498.8045;10.36664;13.01946;-676.0966;-668.5675;-0.2671013;-0.3433157;0;
-387.5627;0;-366.0163;-243.1815;-1.432773;10.32719;-365.1357;-356.8021;-0.3318003;-0.2130361;0;
-210.1998;0;-192.0483;-64.58932;-6.722619;10.51776;-185.7962;-181.9688;-0.07159748;-0.6026261;0;
-142.46;0;-128.1998;-26.54351;1.053668;9.502447;-118.2059;-117.6307;-0.2014602;-0.4071185;0;
397.9741;0;371.6778;223.0452;1.387402;8.689104;411.9589;412.9084;-0.5260945;0.242964;0;
704.7947;0;667.0306;283.7905;-4.038999;7.541785;715.8295;715.0289;-0.2656965;-0.01714953;0;
333.6478;0;335.5267;218.413;-4.437082;5.792651;350.606;350.5558;0.1243745;0.3077044;0;
145.7193;0;157.7163;242.8687;1.796667;6.657609;161.4736;166.4834;0.4490862;0.2424279;0;
109.9033;0;121.0761;183.217;3.335103;4.775397;125.0795;132.4581;0.5785697;-0.4074891;0;
-395.0783;0;-349.4965;-198.7127;7.81973;7.048018;-371.2342;-363.4258;0.0582496;-0.08224297;0;
-710.71;0;-657.1155;-507.4828;10.69226;6.906971;-683.704;-674.2167;-0.006776266;0.4375784;0;
-392.5929;0;-369.7244;-252.2259;5.390232;0.6037567;-370.4241;-362.0708;0.3830346;0.3721714;0;
-211.4768;0;-194.9406;-72.8125;4.24574;-0.2006452;-187.831;-184.7959;0.05781301;0.04696071;0;
-141.0496;0;-126.4665;-31.4476;7.255584;-6.764649;-116.6779;-115.52;-0.3970165;-0.01805382;0;
400.1952;0;375.0335;223.5184;7.114571;-8.767218;415.2345;417.8281;-0.07178084;-0.01803568;0;
699.8922;0;662.2621;283.7634;2.08358;-6.280162;712.2303;712.5724;0.05822597;0.04694979;0;
334.2474;0;335.0733;222.8837;1.680321;-6.675749;352.6325;352.7244;-0.1367346;0.1768373;0;
153.4398;0;165.6966;248.8966;-6.694111;1.703703;171.0568;176.3959;0.1882395;0.04672492;0;
100.1873;0;111.3698;174.1214;-11.64485;4.783084;117.9115;124.5572;0.2530177;-0.2781587;0;
-410.3443;0;-366.9392;-211.9221;5.313406;6.251903;-383.5799;-378.4402;-0.07207321;-0.1479446;0;
-707.47;0;-658.4863;-503.8748;8.455899;8.32197;-678.9833;-671.0377;0.1878686;0.1770408;0;
-389.6685;0;-370.2192;-246.9349;1.548527;9.385335;-366.3329;-357.5832;0.1227125;-0.08300645;0;
-216.2389;0;-200.4323;-75.14798;3.489354;9.844785;-190.9278;-187.3093;-0.007345519;-0.4077598;0;
-138.4356;0;-127.6424;-28.72077;-0.5326402;6.619834;-113.7121;-113.1582;-0.07230548;-0.1474807;0;
406.8669;0;375.7953;226.055;-1.00062;5.675421;420.5711;422.124;-0.007265485;-0.01739779;0;
708.8686;0;667.1461;283.2365;3.152596;-2.635921;719.2482;718.9879;-0.007258185;-0.2122823;0;
335.2188;0;331.769;218.6718;3.75264;-6.4513;351.0852;350.4503;-0.07221823;0.04780033;0;
140.3547;0;147.9653;242.8773;6.093394;-5.038176;154.3936;158.8818;0.05778902;0.3076217;0;
102.7326;0;106.9622;183.0382;6.689508;-6.707687;116.5699;123.9271;0.05773095;-0.2124262;0;
-399.056;0;-367.157;-202.7644;9.563174;-5.830169;-376.0497;-368.9497;0.05767294;-0.1472454;0;
-713.6217;0;-672.1971;-513.0296;10.35785;-5.958276;-687.9524;-679.6726;0.1225823;-0.08213008;0;
-391.004;0;-375.8578;-252.2075;9.475809;-1.464555;-370.233;-362.8985;-0.07244287;-0.4718516;0;
-207.4531;0;-199.1312;-70.17043;10.00215;0.8813192;-186.1408;-182.5619;-0.007402732;-0.4064102;0;
-134.0315;0;-127.4046;-26.68424;2.35629;-1.731901;-112.5532;-109.7274;-0.2022973;-0.5359365;0;
410.2672;0;377.5946;226.5278;0.01037421;-1.395246;423.2282;426.4259;-0.3969961;-0.4054633;0;
703.0201;0;655.8876;282.7094;-0.9949902;1.754354;712.7822;712.6033;-0.006793121;0.04971553;0;
330.5005;0;319.0851;220.394;-3.80703;2.556386;344.1259;343.8848;-0.07175364;0.1146329;0;
148.7596;0;149.4745;245.5972;2.493435;0.9462273;160.4973;165.7536;-0.721355;0.1794851;0;
96.94865;0;97.16307;172.2622;3.62903;1.414157;108.6744;116.5492;-0.5257281;0.1793047;0;
-409.7066;0;-378.8828;-214.0293;0.8123441;-1.869428;-389.8717;-381.63;0.2544082;0.3090593;0;
-702.9598;0;-661.235;-506.8545;1.950604;-2.33643;-680.896;-670.976;0.6439566;0.1138467;0;
-382.7891;0;-368.5923;-248.3499;0.8095679;-0.7934747;-366.2446;-357.0842;0.3184729;-0.2760718;0;
-214.3639;0;-205.991;-78.93536;1.545689;-0.3237968;-196.8991;-191.6833;0.1232509;-0.015925;0;
-139.9983;0;-133.1331;-33.5663;1.476787;2.690639;-122.7384;-118.5274;0.2530617;0.178993;0;
405.3058;0;371.622;225.1499;0.6719956;3.625696;413.1156;419.009;0.3177748;0.04887849;0;
697.8763;0;653.1694;283.2069;10.58431;9.918326;703.4294;707.8176;-0.007381228;-0.01613797;0;
328.4854;0;322.6165;221.1409;14.39206;12.72164;338.9055;343.5392;-0.2672432;-0.08108909;0;
147.5586;0;152.1903;246.4058;5.200575;8.957817;155.7818;166.2204;0.05786206;0.1138944;0;
102.5579;0;107.1849;179.4418;4.392043;8.81485;110.4605;123.2624;0.1877386;0.2437147;0;
-405.165;0;-367.8716;-206.4821;8.272395;8.939959;-388.2124;-376.2979;0.1225826;0.3734045;0;
-707.5432;0;-661.4791;-503.9375;7.72822;8.060198;-686.4847;-673.0829;0.2523941;0.1131599;0;
-382.3079;0;-363.7138;-238.8766;8.122596;4.636091;-364.5189;-352.0052;0.1871732;-0.4066926;0;
-210.5099;0;-197.1194;-66.91044;7.310152;2.755911;-191.5519;-184.0482;0.2519524;-0.0814472;0;
-140.0837;0;-129.3928;-27.48799;7.972392;-0.5958831;-120.52;-116.3972;0.1867319;0.1135367;0;
410.4055;0;381.1057;226.0372;8.433871;-3.609394;422.5782;426.5719;-0.3331944;-0.08147945;0;
707.7809;0;668.8904;282.3442;1.995035;-0.9935552;718.3171;721.6823;-0.397827;-0.01643023;0;
335.5065;0;335.5105;224.4019;0.9213039;-1.863335;350.5924;354.8286;-0.07259052;0.113521;0;
151.824;0;160.5737;249.4138;1.32252;-1.593531;164.8333;173.4381;-0.007550235;0.1783742;0;
103.1334;0;112.1241;180.1978;1.052771;-0.3862371;117.3165;127.162;-0.2024447;0.3081297;0;
-406.4642;0;-365.4361;-203.0407;4.266894;-6.414191;-383.1749;-374.4637;-0.07230657;0.3727874;0;
-707.4043;0;-659.3585;-498.688;5.334333;-6.809643;-682.1394;-671.6879;0.3175701;-0.01739121;0;
-382.1066;0;-361.0955;-236.3185;10.01802;-3.788569;-360.9901;-351.4236;0.122349;-0.2772431;0;
-209.934;0;-194.004;-65.04202;12.08406;-2.913984;-186.9022;-182.0304;-0.00770861;-0.1470298;0;
-129.8882;0;-116.0357;-20.49902;13.41109;1.174781;-107.1294;-103.8867;-0.4624723;0.1129873;0;
428.899;0;403.0076;230.8327;14.53669;3.049;442.2646;445.2542;-0.5269749;0.1128737;0;
714.6992;0;677.4645;281.3253;15.1253;7.265862;726.3022;726.0404;0.2531627;0.1777277;0;
335.8586;0;337.5168;224.8834;16.51662;9.602841;352.8224;351.7487;0.0580063;0.1125818;0;
154.5496;0;166.5759;250.332;6.184895;8.119568;169.6222;173.0474;-0.2668887;-0.01746607;0;
94.92417;0;106.4387;173.8063;2.628706;8.044426;110.1066;115.7772;0.05821618;0.04751882;0;
-421.1618;0;-378.8619;-217.5467;8.720657;7.433619;-397.374;-392.0839;0.5778964;0.1774058;0;
-717.4645;0;-671.0217;-512.1174;8.109659;6.086491;-690.4521;-683.4183;0.4473811;0.1772275;0;
-382.9114;0;-363.9389;-237.8655;9.23961;0.5878966;-359.237;-353.8969;-0.0728072;-0.1477873;0;
-201.8674;0;-183.5387;-56.59245;10.77154;-3.230599;-177.03;-177.005;0.05720064;-0.3425408;0;
-126.8897;0;-111.0781;-16.36828;7.679261;-3.897182;-102.452;-104.3636;-0.007824174;-0.01735992;0;
427.4592;0;401.1511;228.8999;7.738894;-6.438618;442.0648;441.4045;-0.2027183;0.2425269;0;
719.9449;0;681.9191;281.6433;11.08002;-11.2548;732.0996;729.9407;0.05735472;0.5021526;0;
338.1006;0;338.6562;226.0756;11.13624;-13.72174;356.8022;354.4581;0.2521991;0.3717133;0;
150.8549;0;161.9045;252.2726;17.42071;-14.44476;168.1634;170.4443;0.316913;0.1764378;0;
95.04375;0;105.2078;177.619;20.81946;-15.30102;111.3979;116.1752;0.1866599;0.3061952;0;
-419.9179;0;-379.6543;-215.2995;11.35407;-14.48185;-395.5218;-391.1866;0.05653769;0.2409202;0;
-711.7241;0;-667.6279;-507.3113;10.67307;-13.59652;-685.541;-679.5234;-0.008486463;0.5005475;0;
-380.4251;0;-364.8589;-237.8742;12.13622;-13.51588;-358.9534;-353.2542;0.0564894;0.3701099;0;
-209.5036;0;-195.6396;-65.9715;10.78388;-13.1004;-186.3668;-185.3585;0.3812694;-0.2149681;0;
-128.0215;0;-116.1704;-18.92883;16.80126;-6.054274;-106.0948;-106.5867;0.1210169;-0.2797195;0;
423.7049;0;393.6276;231.6517;17.32024;-2.766027;435.677;436.3725;-0.1389741;-0.01956904;0;
708.3234;0;666.0325;280.4568;18.44191;-6.782224;717.9722;716.6679;0.05606759;0.1753527;0;
337.3603;0;332.593;224.9528;19.56148;-5.703682;351.4971;351.0063;-0.07392343;0.1102091;0;
155.7374;0;161.6571;251.151;15.99185;-5.162087;167.6736;173.2427;-0.2687512;-0.149771;0;
91.36321;0;96.02757;169.6894;16.84644;-4.888968;103.7247;110.8499;0.1213229;-0.3445225;0;
-424.5318;0;-396.5089;-225.5325;9.462124;-2.003912;-402.6875;-396.444;0.1861683;-0.08430699;0;
-711.8356;0;-679.0933;-513.536;7.442884;-0.595257;-687.702;-678.6536;-0.2038228;-0.01925493;0;
-382.598;0;-369.7535;-245.5295;12.86139;-2.671008;-363.6735;-354.4468;-0.3335527;-0.3440723;0;
-213.6733;0;-203.5903;-76.92987;12.24525;-3.070222;-193.8932;-189.236;-0.3332175;0.1760122;0;
-135.3728;0;-129.5479;-29.18903;19.66769;2.8941;-116.3622;-114.3335;-0.07301331;0.30577;0;
415.7987;0;380.8258;227.9611;21.65766;4.4318;425.7947;427.6341;-0.1379073;-0.214276;0;
702.674;0;656.7418;281.6424;22.64027;2.417981;710.1612;710.7493;-0.5275728;0.5005801;0;
327.0939;0;320.0008;220.7024;24.62726;2.6165;338.634;339.9087;-0.2022059;0.5000771;0;
145.3564;0;147.2035;246.0303;17.56894;0.5374;155.1358;159.97;-0.007100744;-0.3450008;0;
93.11155;0;95.33155;174.0691;16.21211;-1.137713;103.4434;109.7094;-0.1370283;0.04514989;0;
-424.0346;0;-391.707;-225.8423;9.363321;0.002139725;-404.7177;-398.7703;0.05801142;0.3049739;0;
-721.4588;0;-685.7279;-524.4652;3.594113;-1.136572;-701.1618;-692.8466;0.1229205;0.1097654;0;
-381.5294;0;-370.6344;-244.7661;13.50349;-3.412728;-366.875;-358.693;-0.1370724;0.04468779;0;
-206.9211;0;-196.2869;-69.29568;13.82471;-3.945162;-189.3454;-186.9188;-0.1369347;-0.02032446;0;
-133.1877;0;-126.7496;-29.80837;5.772869;-10.43842;-116.0669;-116.1414;0.1880396;0.04466331;0;
420.7928;0;386.7448;227.4048;6.571351;-12.8392;428.0888;429.0763;0.057916;-0.02034891;0;
700.9789;0;658.4694;281.8988;-1.204784;-7.936663;707.6429;707.0052;-0.2669789;0.3694756;0;
325.463;0;318.8531;222.1454;-3.347027;-7.25898;338.1172;337.5427;-0.331678;0.4340717;0;
154.909;0;157.5511;249.9082;6.569322;-8.926138;165.4267;169.7877;-0.3313447;-0.2810052;0;
89.34873;0;92.86277;167.3859;7.232306;-9.453032;100.2306;107.3983;0.188727;-0.3456902;0;
-434.6027;0;-399.2957;-231.9566;15.39671;-3.080277;-413.8617;-406.9511;0.318472;0.1094285;0;
-713.3382;0;-666.5099;-511.8952;17.79312;-1.804629;-690.1818;-681.529;0.05828264;-0.08558346;0;
-383.287;0;-362.5552;-239.7674;20.05241;-5.084857;-365.5886;-356.7571;-0.07171061;-0.4103342;0;
-220.7958;0;-208.2058;-76.1711;23.71596;-5.682594;-202.2407;-197.6034;-0.006671211;-0.2799872;0;
-129.6197;0;-122.1023;-24.05822;4.736814;-8.690994;-112.2701;-110.4486;-0.07163185;-0.2147385;0;
424.2947;0;389.201;231.9623;-0.7603023;-9.820971;431.8818;434.2012;-0.1365272;0.4351507;0;
696.6687;0;650.8032;280.2048;3.593742;-16.50927;702.4366;703.5043;-0.006455348;0.6945828;0;
326.4669;0;320.44;224.5136;0.04015777;-19.37283;337.5388;339.0428;0.3183878;0.3690482;0;
157.0364;0;159.8236;249.2755;2.384642;-17.54495;166.5979;172.0359;0.3180679;0.2387427;0;
100.7818;0;105.8151;177.6859;3.185553;-18.93384;111.708;119.077;-0.2669577;-0.1513013;0;
-417.8088;0;-372.1136;-212.5466;-0.6350648;-13.89121;-397.5858;-389.537;-0.7214609;-0.08618191;0;
-712.6156;0;-657.4086;-507.6846;1.039537;-11.80091;-691.6633;-681.3112;-0.6557686;0.04383937;0;
-377.2553;0;-354.9622;-230.1887;0.9047701;-13.39652;-360.9466;-351.667;-0.330273;-0.2810414;0;
-207.6488;0;-191.4376;-57.91887;1.238654;-12.04352;-188.1082;-183.7729;0.3846996;-0.2157917;0;
-139.2244;0;-127.8396;-24.19009;14.634;-10.35685;-120.5155;-117.9337;0.3193457;0.3691313;0;
418.0104;0;386.5929;227.5827;18.57141;-9.006781;426.0184;429.0349;-0.5255506;0.2388257;0;
706.0704;0;665.0018;281.2019;20.09299;-9.265662;712.3212;712.6486;-0.5899898;-0.08625102;0;
329.175;0;325.254;224.8226;23.08691;-9.055404;340.6045;341.4937;0.1252437;0.04377033;0;
156.0561;0;160.7597;251.5831;18.37466;-9.247253;165.6;171.7982;0.1251179;0.2386284;0;
89.49521;0;96.75528;168.9342;18.0214;-10.51064;100.2789;107.9076;-0.5246813;0.3683233;0;
-432.4574;0;-389.8474;-224.7252;11.37284;-7.217913;-412.4392;-405.7552;-0.6540887;0.2380185;0;
-710.6328;0;-660.8817;-505.2333;7.140878;-7.21066;-688.3859;-680.022;-0.06872543;-0.1520247;0;
-381.209;0;-362.3674;-235.486;11.8901;-11.9592;-363.6696;-356.0637;0.2561803;-0.2168393;0;
-217.8454;0;-204.8323;-71.51917;11.07387;-12.95181;-199.3865;-196.0361;0.6457269;-0.02171938;0;
-127.8591;0;-118.9196;-22.22205;5.034524;-17.56049;-110.6057;-108.9453;0.5801108;0.04326978;0;
424.4918;0;392.2556;232.11;3.154431;-19.61932;433.3571;433.8913;-0.1351129;0.2381283;0;
693.7422;0;652.4179;280.2274;5.629508;-18.79581;701.4741;699.3217;-0.3298791;0.1079544;0;
318.2335;0;315.7438;222.1624;5.087988;-19.71469;330.8927;330.6165;-0.199613;-0.2819582;0;
145.9377;0;151.0716;247.239;10.30681;-15.87697;156.7101;161.869;-0.2643797;-0.08677281;0;
93.69225;0;97.32178;175.0892;13.57899;-14.32041;104.2664;110.2947;0.06072262;0.04324906;0;
-421.8928;0;-383.9716;-219.7009;6.398046;-13.63619;-403.2083;-398.4355;0.4504656;-0.4115658;0;
-713.4471;0;-667.3182;-510.7712;7.128551;-11.81407;-691.9703;-685.4532;0.1251763;-0.3461849;0;
-369.9025;0;-353.5551;-226.9629;7.724601;-9.524783;-351.8831;-346.0597;0.0600832;-0.02100035;0;
-198.5543;0;-186.4086;-54.5714;6.175622;-7.17081;-179.3036;-178.2337;-0.06991186;-0.02097925;0;
-129.8267;0;-121.129;-20.0339;18.49428;-7.632485;-111.9697;-112.1502;-0.06984161;0.1739439;0;
425.7745;0;391.4226;230.4229;20.82022;-5.883382;434.5556;434.3753;0.1251306;-0.02113295;0;
701.9576;0;657.2704;280.4785;18.52212;-6.212385;708.606;705.3025;-0.1998318;-0.4109158;0;
316.5082;0;310.6589;219.4148;20.51227;-5.603296;328.2099;325.3469;-0.004729032;-0.02069882;0;
146.5879;0;151.739;246.6805;9.038428;-0.975966;157.2159;159.1659;0.2551451;-0.1506127;0;
83.78463;0;85.68216;164.7862;6.015236;0.0967416;95.40138;98.53634;0.05998669;-0.3453634;0;
-434.9139;0;-406.0943;-231.2429;7.549433;6.593867;-414.6257;-410.9316;0.4497305;-0.02017966;0;
-704.1538;0;-662.7445;-506.622;5.934258;10.53911;-682.1368;-676.0103;0.3843112;0.04480796;0;
-374.674;0;-359.2933;-238.6224;9.478268;2.62478;-357.6142;-352.6182;-0.200781;-0.02020441;0;
-217.2515;0;-210.7568;-80.14971;11.54485;2.354211;-199.7716;-198.2788;0.05929011;-0.4099882;0;
-124.0175;0;-119.9031;-25.97137;7.112619;6.504666;-107.4296;-107.75;0.05923054;-0.5395108;0;
426.9553;0;392.5849;231.113;5.497882;6.699079;434.9682;434.9605;-0.2656657;0.04573729;0;
689.8939;0;645.688;279.6688;20.49653;9.371543;695.7748;695.2674;0.05943796;0.3055607;0;
321.1982;0;312.7062;224.3529;22.88684;10.56782;332.0707;332.0635;0.3192476;0.04538431;0;
150.7109;0;151.1606;248.99;20.92146;9.016593;160.1983;163.252;0.1889921;0.04533871;0;
86.59165;0;87.66553;171.2787;22.7091;8.605636;96.38178;100.9318;0.05886756;0.1102605;0;
-429.6734;0;-395.6796;-229.2546;10.56249;11.20932;-410.8351;-406.4772;0.3186778;-0.08475232;0;
-714.5358;0;-670.7061;-517.6917;8.944286;11.33203;-692.9053;-686.2404;0.1234555;0.2401696;0;
-369.1161;0;-354.6907;-228.9414;-2.987419;9.913998;-351.5054;-345.1595;-0.5913092;0.1749609;0;
-197.5187;0;-187.918;-58.10957;-9.614874;10.10498;-177.8018;-176.7721;-0.3958131;-0.1500516;0;
-129.9791;0;-121.7623;-21.25718;5.532686;4.200455;-110.9067;-110.94;0.1243234;-0.01996618;0;
423.3109;0;391.1648;230.9499;6.397783;2.186868;433.4937;433.7103;0.1891658;0.1749559;0;
703.557;0;662.76;280.2555;10.74463;5.935593;712.2927;709.1358;-0.00592632;0.4346495;0;
325.6647;0;325.0135;223.6897;15.0881;6.197561;340.3261;338.4842;-0.135855;0.3692454;0;
158.4213;0;168.0157;251.1385;10.25016;5.588487;172.6308;175.9131;-0.2006859;-0.02092967;0;
95.73109;0;104.7536;173.2377;10.90945;5.716837;110.6759;115.6416;-0.2654516;-0.08587598;0;
-429.5386;0;-384.2309;-217.9899;13.04194;8.725204;-406.3005;-401.0899;-0.2002175;0.04414499;0;
-702.657;0;-646.088;-492.5702;12.42562;9.453248;-677.006;-669.6142;-0.005114301;0.04410063;0;
-369.8054;0;-344.9649;-218.1504;12.61421;11.52022;-347.9908;-340.544;0.1248255;-0.08587836;0;
-217.4477;0;-199.4412;-61.8222;12.46781;13.25008;-193.0938;-190.5895;0.3196021;0.1740773;0;
-124.7133;0;-111.5349;-14.15901;2.877092;7.744409;-100.946;-101.3802;0.3842483;0.3688044;0;
435.3181;0;405.9421;235.917;-1.077914;7.133781;449.0665;448.0705;0.05902552;0.2384992;0;
697.2488;0;659.4691;277.8463;1.401416;5.987903;708.9844;705.5532;-0.3308378;0.1083248;0;
326.9215;0;327.0982;228.5292;-1.48038;3.972399;343.3929;341.2769;-0.2655381;0.2381507;0;
162.4256;0;171.0353;254.4115;0.3971172;9.728817;176.8189;179.3902;0.3194348;0.3028787;0;
90.48592;0;102.2104;170.5104;-0.005423418;10.45585;105.2397;109.3076;0.1242118;0.1726397;0;
-429.6561;0;-383.5856;-218.1532;-5.966289;8.636808;-405.8592;-402.7324;-0.265717;0.3024009;0;
-705.2731;0;-658.0621;-496.5439;-8.037374;9.565891;-679.0014;-674.8782;0.2542887;0.107195;0;
-369.9826;0;-354.8654;-222.6824;-6.153289;7.211999;-347.9227;-343.9911;0.3839679;-0.1527821;0;
-203.0071;0;-189.092;-57.35412;-5.47752;7.807599;-179.2203;-179.7903;-0.006221995;-0.02269385;0;
-123.6554;0;-112.0031;-12.50651;-14.5817;6.460095;-101.1418;-103.5229;-0.2011178;0.4321004;0;
429.2535;0;400.2895;233.8197;-17.17901;5.91774;442.3117;440.1204;-0.4607851;0.3666988;0;
706.9324;0;667.8776;278.6247;-8.722633;11.20332;718.6656;713.5405;0.05941668;-0.2183757;0;
328.5993;0;327.6272;225.3713;-7.642142;11.25905;345.6306;340.4482;0.449161;-0.348091;0;
154.2316;0;163.8176;251.3817;-5.021518;18.2807;169.7466;169.192;-0.3308984;-0.2827739;0;
91.1708;0;100.6847;174.1053;-1.801292;21.41053;106.8575;108.4275;-0.4605006;-0.3474571;0;
-429.5341;0;-382.6111;-219.4969;-6.020017;12.41355;-405.8672;-403.8615;-0.07023382;-0.2171733;0;
-705.7135;0;-647.7807;-500.0102;-5.478105;11.73125;-680.0713;-676.3185;-0.005195909;0.1078817;0;
-368.1737;0;-345.6563;-223.0842;-0.9172726;8.638242;-347.4298;-344.4305;0.05977665;0.3676426;0;
-208.9461;0;-196.7587;-64.62712;0.2217489;6.084333;-187.4735;-188.9124;0.3195859;0.2373385;0;
-121.5925;0;-113.3528;-17.64826;1.025809;9.159312;-101.5782;-104.8272;-0.005571873;-0.2176713;0;
436.999;0;404.8132;235.1799;1.493293;8.614245;447.8728;444.6895;-0.135501;-0.4123546;0;
696.7416;0;654.5307;278.1094;3.166732;8.538607;705.9178;700.8636;0.1894719;-0.02213626;0;
320.7302;0;315.1058;225.9185;4.235277;8.663993;334.0826;330.2828;-0.005620505;0.3027227;0;
160.9256;0;164.3023;251.616;-0.1232354;8.588305;172.328;173.1548;-0.2654842;0.2374512;0;
91.92348;0;96.67117;169.6543;-0.7253479;8.110794;104.8762;107.826;-0.2652175;0.1722452;0;
-430.6563;0;-390.6811;-225.5052;-0.6582462;10.17912;-408.4713;-405.9616;0.05988574;0.3020069;0;
-701.3372;0;-654.4058;-505.4503;-1.394519;9.967938;-677.0506;-673.544;0.3846623;0.4316381;0;
-366.9877;0;-351.3377;-229.9556;1.75569;7.814591;-346.661;-343.97;0.3842758;0.366237;0;
-207.2616;0;-197.3744;-69.92986;2.690955;7.069927;-186.1432;-187.6403;0.1240203;0.2359344;0;
-118.7227;0;-114.78;-18.19807;5.032776;2.909881;-99.12482;-101.8698;-0.2659084;0.3006646;0;
438.3041;0;400.1391;236.0049;8.041829;2.103284;449.3866;447.2691;-0.3306085;0.3003625;0;
698.3578;0;651.9852;278.0591;1.134872;-2.922427;707.8674;703.1284;0.124495;-0.219678;0;
313.2868;0;305.1916;220.371;-0.8760001;-4.795013;326.7224;322.4878;0.4492067;-0.6742287;0;
152.4277;0;152.2117;247.0735;12.98998;-0.9053068;163.2261;164.6804;0.383788;-0.02387781;0;
93.17921;0;94.77504;170.6136;15.58987;-1.775175;104.8414;108.9804;0.1885003;0.3659503;0;
-435.024;0;-395.1989;-230.044;10.21557;8.206821;-414.4405;-409.8684;-0.006591141;-0.1541562;0;
-705.4507;0;-658.107;-505.8616;10.5401;11.54772;-683.7635;-677.1345;0.05838282;-0.02406663;0;
-365.9122;0;-352.3491;-224.6819;4.768735;6.110623;-349.3067;-343.6839;-0.006643182;0.1708596;0;
-213.9332;0;-205.3812;-71.22067;1.41504;6.439398;-195.9077;-194.7258;-0.2015385;-0.1541488;0;
-121.7645;0;-116.1571;-18.80042;4.361356;3.083781;-105.3187;-105.6997;-0.201336;0.1708428;0;
436.3274;0;400.6999;236.2778;3.217898;0.8033845;443.2614;443.443;-0.1361664;0.3655732;0;
690.4485;0;647.0482;277.3321;-2.076622;2.209219;695.8138;694.9333;-0.2659642;-0.02459823;0;
316.6298;0;311.3789;225.3294;-3.615752;2.876706;327.2996;327.3569;0.05913971;-0.08954085;0;
159.0157;0;159.4548;251.0275;-4.750219;-8.780849;167.9881;172.2308;0.578819;-0.1544182;0;
91.32741;0;95.01436;170.9404;-5.549729;-11.98721;102.0399;107.6526;0.2534007;-0.3491651;0;
-433.1258;0;-388.0883;-223.2208;-4.137633;-0.7222728;-412.4291;-406.822;-0.33156;-0.4137816;0;
-703.6794;0;-651.5033;-499.9199;-4.60199;0.9530263;-681.3793;-673.4665;-0.2662595;-0.08852911;0;
-370.1396;0;-351.1243;-225.5552;2.971095;4.23411;-352.5471;-345.9541;0.05884476;0.2363966;0;
-213.2214;0;-199.9723;-67.09559;6.049569;6.37331;-193.6476;-192.0586;0.05878563;-0.2186124;0;
-115.806;0;-107.4428;-13.18023;-0.05207875;10.18481;-97.56368;-97.4756;-0.3310775;-0.4132947;0;
442.155;0;410.5299;236.2701;0.3501152;12.18406;451.9457;451.7213;-0.4606795;-0.08804274;0;
694.5836;0;653.9948;276.8247;-2.731695;9.157591;703.365;701.2043;-0.1353799;-0.1529216;0;
314.8887;0;310.7599;224.885;-5.943155;9.818218;327.6592;327.1874;0.05965815;-0.08780062;0;
158.7131;0;163.3341;250.7085;4.779109;-0.5737575;169.5968;173.998;-0.1353038;-0.0877124;0;
100.0206;0;106.6359;175.057;7.319903;-4.324103;112.0802;117.8513;-0.2001352;-0.02265692;0;
-427.6273;0;-382.6629;-219.6706;-7.088417;-1.439614;-406.2095;-401.9435;0.4497393;0.1073005;0;
-706.2448;0;-651.7054;-500.2462;-10.0954;-3.246585;-682.0375;-676.4639;0.774124;0.2371274;0;
-364.769;0;-345.3918;-219.6344;-5.396211;0.03871898;-345.4585;-340.5152;-0.1361965;0.1719218;0;
-202.2964;0;-193.9957;-58.11978;-6.127723;1.110407;-182.9429;-182.6897;-0.4608964;-0.08812033;0;
-115.6991;0;-112.3417;-11.64721;-8.063949;2.649899;-97.17708;-98.7982;0.05930548;-0.08803178;0;
445.5101;0;409.0717;235.8651;-9.597064;4.656602;455.6427;454.8353;-0.005721455;-0.217878;0;
702.9329;0;658.1602;276.67;-3.224408;3.714162;710.619;708.688;0.124219;0.1071776;0;
315.421;0;308.112;223.5435;-1.077714;3.71043;327.1599;325.6056;0.3189962;0.496874;0;
157.4333;0;157.7529;249.7431;-7.037502;6.720933;167.911;169.9815;0.1237736;0.1065707;0;
90.55864;0;92.81441;168.7203;-6.159775;6.111334;102.3377;106.0927;0.1236493;0.1714309;0;
-436.7049;0;-402.9047;-226.1883;-11.51222;5.234415;-415.38;-412.1284;0.6432637;0.1712587;0;
-699.009;0;-661.9944;-498.8864;-14.78221;4.358377;-676.0814;-670.959;0.9674541;-0.2187175;0;
-361.5384;0;-351.7974;-221.4618;-1.772908;-3.080863;-343.9436;-338.3267;0.5117106;-0.08856301;0;
-207.1276;0;-200.7071;-62.44408;-0.2308853;-5.556136;-188.1761;-186.3755;-0.07350963;0.106428;0;
-108.1566;0;-107.8645;-9.97018;-3.111041;-10.23924;-91.28568;-90.92358;-0.2033705;-0.08858096;0;
451.8582;0;411.7327;236.7908;-2.103538;-12.70719;459.0295;460.0784;-0.2031661;0.1713774;0;
697.4055;0;650.3239;276.4078;-8.530809;-11.95774;704.6321;702.7438;0.1218747;0.1062379;0;
316.9581;0;307.405;225.593;-9.795035;-13.01733;329.2374;327.7259;0.3816217;-0.3486403;0;
162.717;0;162.7312;250.9785;-12.7993;-6.105248;172.86;176.6599;0.1213688;0.1714488;0;
91.65162;0;94.16453;169.0173;-15.06362;-4.223591;103.5336;109.2661;0.1862142;0.2362439;0;
-437.2996;0;-405.3041;-228.3903;-11.02999;0.3353701;-415.9344;-411.1446;0.4458965;-0.4136669;0;
-699.2283;0;-662.5173;-499.337;-10.34933;4.152938;-676.0106;-670.4135;0.3155138;-0.2183493;0;
-354.5737;0;-341.2003;-213.4787;-11.3433;-2.080525;-336.0643;-330.4104;0.05532736;0.3016089;0;
-200.6696;0;-187.9968;-55.65593;-11.26553;-2.279384;-180.4297;-178.9044;-0.2695649;0.3013058;0;
-114.5736;0;-108.7851;-9.185836;-4.756504;-1.138383;-95.79086;-96.64089;-0.5291634;0.1710684;0;
443.7609;0;406.5652;237.1371;-2.809341;-2.008018;453.1545;452.3053;-0.3337297;0.04096179;0;
702.06;0;657.6553;276.1916;-4.079316;-2.273932;710.6945;706.9726;-0.1384924;-0.02404671;0;
317.5475;0;312.0428;222.7533;-2.936141;-2.874371;330.9834;327.2028;-0.1383532;-0.08898988;0;
153.9355;0;157.057;249.266;-7.220099;-3.809244;164.5468;166.4547;-0.3331162;-0.3487698;0;
91.37466;0;97.49159;171.1172;-8.0835;-3.939383;103.2872;108.1291;-0.5276835;-0.2184847;0;
-436.2645;0;-397.1078;-224.7933;-10.21883;-4.940168;-414.6188;-409.1571;0.05755278;0.1715389;0;
-704.0038;0;-662.2628;-496.4308;-12.28564;-5.06917;-680.4434;-672.9257;0.447299;-0.02353551;0;
-361.2809;0;-348.5672;-215.323;-7.38318;-3.32252;-342.6166;-336.2934;-0.07288918;-0.1534465;0;
-206.3705;0;-195.1689;-58.37296;-6.170312;-3.386165;-186.9754;-184.9688;-0.07281594;-0.02335768;0;
-107.9625;0;-101.0825;-6.652777;-11.52275;0.03324516;-90.27357;-89.33097;-0.2676448;-0.02333421;0;
452.9891;0;418.1956;238.918;-13.25248;0.5690752;461.9146;462.9812;-0.4622779;0.3664933;0;
695.4743;0;654.4065;275.222;-6.205591;1.439282;703.7037;702.1456;0.1228927;0.2361904;0;
314.6541;0;312.1082;225.0956;-6.132983;2.978321;327.7477;327.0657;0.1877365;-0.153851;0;
163.0389;0;168.0543;250.3566;-6.997477;-4.995397;173.5583;177.2497;-0.3971582;0.1061729;0;
89.91177;0;95.85913;166.2721;-6.923097;-6.129087;101.545;105.3577;-0.5266938;0.1710336;0;
-436.1642;0;-407.6716;-225.1358;-16.09317;-6.457843;-415.1724;-412.3005;0.05854151;-0.153975;0;
-696.2825;0;-669.0054;-491.2132;-19.4259;-7.589942;-673.5001;-668.6947;0.2533847;-0.08885291;0;
-357.5652;0;-348.8063;-210.7354;-20.20969;-2.625701;-339.1786;-335.5024;0.1231954;-0.08876363;0;
-204.5327;0;-191.6597;-56.66344;-21.7306;-1.752406;-184.4779;-186.49;0.188039;-0.0237071;0;
-122.6182;0;-114.3808;-12.0664;-25.72725;4.210713;-103.3332;-107.5297;-0.1369867;0.1712188;0;
444.0327;0;408.3464;234.6342;-26.50568;7.622612;454.053;451.0476;-0.2018164;0.3659487;0;
710.5148;0;666.1188;276.4398;-23.79973;5.203567;719.0258;713.6497;0.3181252;0.4305484;0;
312.5631;0;308.0042;222.564;-23.37368;7.006878;326.7502;321.067;0.6426421;0.3651484;0;
150.268;0;152.1479;249.1394;-12.09706;4.186554;162.8791;161.9492;0.1222577;0.4297489;0;
94.70732;0;94.39895;171.3655;-7.128411;2.775706;108.0554;108.126;-0.5275385;0.03951298;0;
-437.9326;0;-408.3183;-231.5417;-11.4755;7.595688;-415.6025;-417.1562;-0.2021717;-0.4802654;0;
-705.8577;0;-671.3381;-507.1079;-10.99448;7.186158;-682.6755;-681.1041;0.1228681;-0.2848808;0;
-358.8226;0;-349.7623;-218.3683;-3.213904;5.437381;-341.1609;-339.0288;-0.07215738;-0.1546599;0;
-203.4149;0;-195.988;-59.97836;-0.330287;4.963037;-183.2722;-186.1399;-0.007117527;-0.5443085;0;
-107.4462;0;-105.5864;-11.94221;-13.59184;-0.6014112;-88.32323;-93.3119;-0.2020124;-0.2189249;0;
452.1306;0;413.5713;237.7568;-16.79337;-3.079053;461.6141;456.6929;-0.3967114;0.0411644;0;
690.2438;0;645.3515;275.6237;-15.70477;-3.008976;698.3436;691.6782;-0.2014108;0.04112304;0;
307.9921;0;299.689;223.1855;-19.37366;-4.680526;320.9562;315.4845;0.1236283;0.04108172;0;
158.8824;0;157.5217;250.0726;-15.33473;-5.077721;170.5842;169.6156;0.2534387;-0.08889425;0;
81.19921;0;81.21418;160.054;-16.32467;-5.675465;94.32599;94.73274;0.3181514;-0.1537723;0;
-444.743;0;-412.1195;-237.2197;-17.58107;-4.598036;-423.696;-423.4146;0.3827991;0.171219;0;
-695.0451;0;-656.6448;-498.7873;-17.02754;-3.052808;-673.457;-670.8645;0.2524798;0.4309163;0;
-358.1407;0;-349.7639;-224.1739;-24.2441;-7.604458;-341.6967;-339.794;0.1222914;0.3005486;0;
-206.6069;0;-203.0485;-71.40031;-25.82733;-8.534578;-188.3053;-190.8398;0.4470052;0.1703119;0;
-111.8218;0;-111.7653;-12.10834;-23.3895;-0.4213117;-93.53861;-97.63226;0.4465561;0.04020612;0;
448.8838;0;408.3981;237.4034;-22.89749;0.9857532;458.7153;455.1255;0.1212707;-0.4146057;0;
700.9308;0;652.6772;275.4581;-23.94621;2.05649;709.1283;704.1678;0.05618147;-0.3492217;0;
306.8617;0;297.0749;219.7717;-24.45801;3.460943;319.6737;315.4053;-0.07380967;0.1059006;0;
147.8831;0;144.9152;245.0381;-11.17154;-1.901047;158.9331;159.1043;-0.2036702;0.4306309;0;
94.01157;0;93.10806;171.2663;-4.461537;-4.042469;106.0499;107.9076;0.1863385;0.3002635;0;
-434.3799;0;-401.4245;-228.8298;-17.11671;-2.029041;-413.2957;-412.1895;0.4460206;-0.08984228;0;
-704.4324;0;-672.947;-505.5231;-16.89844;-2.69671;-680.7457;-678.3913;0.1857031;-0.1547194;0;
-364.3952;0;-362.2391;-223.7191;-5.964093;-9.660103;-345.6048;-343.2527;0.05558184;-0.0246292;0;
-215.4162;0;-209.0769;-72.75756;-3.747297;-11.72687;-195.8951;-196.4814;-0.009441352;0.2352649;0;
-118.2485;0;-115.2264;-18.83652;2.820551;-12.98764;-98.49716;-100.6446;0.05553548;0.1700612;0;
452.2086;0;413.1863;237.0538;7.439418;-14.91709;464.0066;461.1117;-0.269357;-0.3498484;0;
695.944;0;650.6516;275.4837;1.537444;-10.14644;706.2933;700.9651;-0.4639884;-0.5443989;0;
313.6241;0;304.6089;226.3564;1.80432;-9.801328;328.0859;323.7625;0.05621654;-0.02411319;0;
169.3813;0;168.4961;253.3028;6.356858;-5.504694;181.6422;182.1332;0.05616006;0.3657151;0;
90.06335;0;91.67783;165.0925;6.953683;-2.350965;104.4984;106.4882;0.1860383;0.04051091;0;
-443.0717;0;-409.7873;-228.2507;6.343483;-9.046774;-419.4059;-418.1677;0.6406227;0.1054376;0;
-689.0027;0;-644.9446;-484.455;5.868595;-8.836735;-664.486;-661.1252;0.250175;0.6900377;0;
-354.4781;0;-334.7646;-207.9819;6.532283;-8.69389;-334.6713;-331.8136;-0.07491307;0.2995403;0;
-211.1314;0;-198.684;-62.0962;6.324649;-9.756881;-189.4079;-192.3001;0.05509689;-0.2204994;0;
-102.7236;0;-96.53561;-4.500221;3.236835;-3.852701;-82.20882;-87.15965;-0.07489315;-0.02537585;0;
463.2202;0;428.485;239.9439;1.961761;-2.576154;473.9068;470.3977;-0.2047526;0.1045843;0;
701.8221;0;660.1253;273.6858;1.289228;-3.176412;710.3115;705.744;0.05532252;0.2993813;0;
308.6267;0;306.0772;225.3724;-0.1185866;-1.163855;321.4179;318.2293;-0.009700414;0.2341131;0;
154.9562;0;158.1563;250.6956;-0.0511185;-6.186283;165.2983;166.2983;-0.5294294;0.1689105;0;
95.89256;0;97.84014;170.9836;-1.055445;-6.782913;106.1618;108.9099;-0.5938647;-0.1560959;0;
-439.8096;0;-404.0684;-229.7368;-1.121734;-1.484568;-420.3053;-417.4974;-0.07352932;-0.3508411;0;
-707.6078;0;-668.9666;-501.8691;-1.522748;-1.014196;-685.312;-681.0078;0.2513813;0.4291196;0;
-359.6339;0;-352.2033;-215.6959;-3.396252;2.402953;-342.1706;-337.8082;0.05622666;0.7535251;0;
-205.9745;0;-199.1761;-58.93285;-3.727632;3.740075;-187.9041;-187.794;-0.07376452;0.2979966;0;
-105.8178;0;-102.7743;-5.275574;-7.809723;2.865661;-89.45219;-92.21572;0.05624428;0.1677624;0;
461.7533;0;422.0027;239.5442;-10.08003;3.197574;469.107;466.2838;0.1211551;0.2975286;0;
696.9208;0;650.9634;273.6612;-2.902604;0.113268;703.8299;699.7601;-0.008901311;0.03736021;0;
306.7913;0;299.9229;224.4733;-0.5551625;-1.561419;319.2531;315.8746;-0.07385971;0.10229;0;
160.6189;0;160.3166;251.0468;-8.458835;-3.569216;171.6938;172.1293;-0.07378549;0.4270239;0;
86.68208;0;89.19114;164.4629;-8.584057;-6.31193;98.30814;101.117;0.05622333;0.3616275;0;
-443.2012;0;-401.7143;-231.7532;-6.230907;-5.702741;-423.2785;-419.7853;0.05616684;0.1663622;0;
-695.7537;0;-646.0626;-493.826;-6.961581;-6.969687;-673.3523;-668.8007;-0.1387916;-0.09367439;0;
-365.9076;0;-348.7501;-221.7788;1.686579;-10.84757;-347.4642;-343.8542;-0.2036195;-0.2884823;0;
-219.2384;0;-209.407;-74.87971;3.492569;-11.5065;-200.1264;-200.7054;0.05645445;-0.4181271;0;
-105.825;0;-102.6251;-11.89859;2.35096;-14.84396;-88.35641;-90.9963;-0.2034716;-0.6775763;0;
465.3068;0;426.2122;238.425;3.755117;-15.63284;474.4495;471.4375;-0.7230059;-0.2870915;0;
699.971;0;655.6059;274.1674;-2.947437;-10.86147;707.8552;702.0351;-0.3974427;-0.09190096;0;
306.5276;0;300.6877;223.917;-4.082575;-8.975035;318.6517;313.0874;0.1226953;-0.4166453;0;
157.0446;0;157.8323;249.2417;-8.43273;-5.148111;167.0326;166.159;0.2525068;-0.09138998;0;
89.35823;0;90.20758;167.3448;-11.50474;-1.726931;100.5231;100.8373;-0.007616336;0.03863654;0;
-443.5887;0;-412.2556;-238.2446;-6.938828;0.6192072;-423.7519;-424.1252;-0.07257602;-0.2212716;0;
-702.825;0;-662.9026;-510.5557;-8.338375;2.896005;-681.259;-679.4455;0.05743158;0.2986894;0;
-357.9792;0;-346.0829;-224.4362;-2.63657;6.711;-340.5578;-339.121;-0.07256081;0.623226;0;
-209.2566;0;-206.6176;-73.53646;-0.8926082;7.775984;-190.2285;-192.7912;0.1224141;0.2327957;0;
-111.4704;0;-114.3313;-17.24083;-4.843826;8.571843;-94.83525;-97.64518;-0.007643559;0.1026272;0;
460.5416;0;416.5168;238.2106;-3.231369;8.898145;466.9152;464.9202;-0.4624073;-0.1573454;0;
698.6465;0;646.4825;274.328;-10.39444;1.722274;704.0142;699.2725;-0.1371059;-0.2221546;0;
308.2653;0;294.572;224.015;-11.52307;-0.4898929;318.3752;314.3255;0.2528359;-0.09199668;0;
162.0289;0;155.7831;250.1516;-9.368041;-5.111101;169.5675;170.8941;-0.007287535;-0.02693691;0;
81.71892;0;79.16499;157.1969;-10.76515;-8.521973;90.999;93.82357;0.1226545;0.2329595;0;
-449.846;0;-413.5419;-245.6961;0.565175;-6.704993;-431.4549;-428.9455;0.6422699;0.03782342;0;
-691.7097;0;-648.0084;-502.1328;3.91351;-8.238741;-671.7753;-667.5818;0.3817552;-0.1571166;0;
-357.6198;0;-346.5709;-222.0812;-1.381708;-4.47954;-341.5785;-339.1383;-0.07339974;0.2328453;0;
-216.7686;0;-214.0391;-77.05585;-1.715113;-3.470295;-199.1192;-201.9288;0.2515107;0.5574481;0;
-103.3577;0;-108.502;-11.82367;3.176731;-3.868706;-86.47562;-91.46882;0.1862907;0.2970186;0;
466.21;0;422.1529;240.4989;4.847502;-2.659126;475.2664;470.8405;-0.3986026;0.1018181;0;
696.7504;0;650.8635;272.8658;-6.610596;-5.402754;705.5479;699.7521;-0.5931041;0.1666831;0;
308.9948;0;303.9461;226.3649;-9.015827;-6.201121;323.0934;318.6152;-0.007802083;0.1665157;0;
161.3209;0;162.2742;251.3123;-9.34156;-3.716521;173.4063;174.1175;0.3170425;0.101381;0;
84.75975;0;85.46219;163.8536;-11.74307;-3.109941;96.70802;98.85531;0.1218219;0.4261158;0;
-448.4949;0;-409.8748;-236.3599;-6.238916;-6.054065;-429.1249;-426.9173;0.2516342;0.3607203;0;
-700.105;0;-654.4023;-501.8014;-5.897854;-5.244186;-679.6301;-675.0509;0.5112507;0.03552116;0;
-356.5114;0;-345.1498;-215.6283;-0.6006426;-7.114439;-339.9301;-336.1051;0.4457696;0.03548547;0;
-207.4155;0;-202.6245;-61.92627;3.151005;-6.772376;-188.7893;-188.7788;0.1854523;-0.02951753;0;
-104.6336;0;-103.1583;-6.079588;-3.148801;-1.139127;-87.71284;-88.63934;0.1202987;0.03547947;0;
465.2476;0;426.1169;240.1777;-2.542424;0.4026255;472.5312;471.6681;-0.3345936;-0.09449086;0;
702.9104;0;654.1989;273.1072;-2.673591;7.837204;710.0618;707.3255;-0.5941268;-0.2892979;0;
309.8388;0;299.4695;224.3572;-4.948081;10.84344;322.6052;320.309;0.05614363;0.2307315;0;
159.478;0;156.2404;250.556;5.773184;11.7703;168.3584;170.1249;0.1860219;0.5553364;0;
87.35387;0;83.80724;163.2854;8.044559;13.43293;94.7262;97.7403;0.2508023;0.3598763;0;
-444.2792;0;-407.9673;-236.3029;0.06587288;9.668509;-428.1062;-425.6574;0.8352564;0.2945474;0;
-693.7697;0;-649.6857;-493.8733;0.7363681;9.32388;-674.8018;-669.9816;0.3796457;0.09934939;0;
-355.055;0;-345.9977;-211.0815;-8.039258;1.544735;-339.542;-335.6637;-0.3353765;0.03428221;0;
-212.5197;0;-209.4685;-68.06616;-11.51478;-2.140756;-195.1482;-195.9589;-0.1401375;0.09921513;0;
-101.0496;0;-103.6236;-9.90197;-1.522876;1.143437;-86.0069;-87.94122;0.3147747;-0.2257213;0;
471.7641;0;428.2132;240.1073;-0.3149206;0.07056078;476.3594;475.1142;0.1845237;-0.3554292;0;
702.0491;0;653.8568;272.5371;-1.45368;2.682824;705.6403;702.085;-0.3354004;-0.2901047;0;
312.4766;0;304.1253;227.3484;-1.318498;5.225358;321.0617;318.6968;-0.4000307;-0.09491117;0;
163.4874;0;162.5157;252.7945;5.04584;-0.004439238;170.0648;172.8872;-0.3996288;-0.02984846;0;
81.80157;0;83.39212;160.7741;7.318922;-0.6072811;90.30894;94.62777;-0.3342599;0.03514888;0;
-450.0133;0;-410.8183;-236.0005;1.283348;10.7132;-432.2067;-428.392;0.250782;0.3599503;0;
-693.1887;0;-647.8486;-490.198;0.5451238;12.51097;-674.0256;-668.9654;0.3804648;-0.03021546;0;
-350.0393;0;-336.6038;-205.5358;-2.737954;15.71346;-335.7681;-331.4625;-0.2046236;-0.2250871;0;
-205.1977;0;-197.7727;-59.02783;-5.347171;18.6448;-189.7539;-189.3882;-0.009515983;-0.09492628;0;
-101.9184;0;-100.123;-5.620331;-5.275425;6.904419;-86.86488;-88.62345;0.1853956;-0.2247656;0;
466.1486;0;425.9633;239.762;-6.877715;4.218164;472.6912;471.1843;-0.2045947;0.100297;0;
696.1893;0;650.5471;272.7544;-7.942531;2.070594;701.5385;698.4713;0.1204476;0.1651636;0;
301.4378;0;294.2597;222.8177;-8.604136;-2.017445;311.5917;309.0274;0.1852939;0.0350629;0;
154.8335;0;152.7225;247.9561;-9.197726;0.1280357;162.4784;163.2275;-0.07476168;0.3598644;0;
80.09042;0;80.73019;159.8761;-9.255834;-1.881581;88.10245;90.97474;0.1202155;0.3595028;0;
-451.0981;0;-418.2876;-241.208;-7.772665;-3.822073;-434.411;-430.3547;-0.009840013;0.1642395;0;
-693.96;0;-657.7468;-496.6496;-7.29634;-4.88996;-674.7285;-668.6772;-0.2696995;-0.03082752;0;
-344.0008;0;-333.3111;-204.3597;-4.944484;-5.755825;-328.2868;-323.1787;-0.3343958;-0.4206006;0;
-194.0428;0;-187.4868;-53.29273;-3.331925;-5.415126;-177.1577;-177.1772;0.05574421;-0.2902433;0;
-90.33739;0;-89.66;-1.327779;-5.404682;-10.50027;-74.28134;-76.36222;-0.07424648;-0.03008229;0;
475.5315;0;437.0404;239.8024;-4.930737;-12.16429;483.2006;481.2468;-0.3990086;0.09988263;0;
700.5029;0;653.9295;272.1075;-2.9834;-7.396278;706.4776;702.3393;-0.008803611;0.3596516;0;
304.6851;0;294.7651;225.6074;-1.440161;-7.790743;315.0266;312.829;-0.008794765;0.1643882;0;
158.4523;0;156.2259;250.6805;-4.988687;-5.237686;166.9094;169.5866;-0.2686553;-0.3555157;0;
80.83201;0;81.04418;159.4743;-6.322845;-4.495611;90.09272;93.45434;-0.1384507;-0.4201258;0;
-451.7316;0;-413.2888;-241.9842;2.85956;-6.299633;-433.7346;-430.5013;-0.2682462;0.1000351;0;
-690.8447;0;-645.0693;-494.8014;4.531626;-4.886661;-671.1167;-666.1375;-0.2030094;0.2298692;0;
-347.198;0;-335.5764;-208.5104;4.326002;-13.52231;-332.3623;-327.638;0.057064;-0.3550678;0;
-210.3552;0;-205.3045;-67.12183;6.933623;-15.25027;-193.8478;-193.0013;-0.07292803;-0.2897437;0;
-102.1356;0;-101.8376;-8.021552;-2.183022;-13.0915;-85.89467;-87.73517;-0.1378221;0.03538414;0;
473.8026;0;433.4332;241.1738;-4.123212;-14.88688;481.469;478.7558;-0.2676183;-0.09458609;0;
699.9001;0;654.074;271.666;2.311293;-3.150154;706.0596;700.663;-0.1374147;0.03544363;0;
303.3958;0;295.7841;226.0408;2.844834;0.4029845;314.2967;309.1553;-0.202244;0.03540802;0;
161.3497;0;161.4293;251.988;2.239739;-2.209633;171.1777;170.914;-0.2670081;-0.1595296;0;
84.66351;0;89.36571;162.2173;1.902696;1.275578;96.04334;97.71651;0.3829336;-0.0294346;0;
-453.5886;0;-409.286;-238.8067;8.933382;-7.366258;-433.2247;-432.4902;0.3175815;-0.1593397;0;
-691.8253;0;-641.8826;-491.4396;12.34066;-9.770242;-670.1076;-668.8741;0.05739303;-0.09421226;0;
-342.6803;0;-328.4574;-200.5293;0.003397489;-0.1151265;-326.1068;-325.8741;0.2522374;0.1657518;0;
-205.8421;0;-197.6304;-59.33619;-4.015094;-0.5838913;-188.1608;-191.9888;0.05708191;-0.1592515;0;
-100.0633;0;-96.23271;-6.428128;11.32693;2.698859;-84.08648;-89.59724;-0.1378775;0.03581055;0;
474.6234;0;435.9715;241.0164;14.59808;4.303616;481.4013;476.3958;-0.07277159;0.295644;0;
698.7836;0;653.4864;271.3839;-1.626212;-4.944109;704.9925;697.8681;-0.1376658;-0.2893592;0;
304.9666;0;298.258;226.4462;-4.170173;-6.345783;316.4165;310.1114;-0.2674622;-0.4190031;0;
157.2967;0;156.8417;251.331;-2.692114;-12.03283;166.6737;165.6848;-0.2671934;-0.09374541;0;
70.24481;0;71.66438;154.5645;-6.440454;-16.44149;80.98673;81.18566;-0.2019576;0.1012508;0;
-455.7489;0;-419.5358;-243.2035;4.751801;-8.387144;-436.8969;-437.2603;0.05811469;0.1011491;0;
-685.3629;0;-644.5009;-490.1473;6.890481;-8.512683;-665.5927;-663.2072;0.187991;0.2959495;0;
-345.4072;0;-334.7587;-205.2353;-4.435948;-9.575856;-330.5295;-328.0839;0.0578674;0.2306848;0;
-207.6917;0;-201.9889;-63.91252;-6.574945;-7.958644;-191.8294;-193.0095;-0.07212543;-0.2892858;0;
-91.22894;0;-92.71575;-5.065349;-5.161819;-13.77804;-76.50704;-79.1227;-0.461857;-0.4838971;0;
482.1996;0;439.6099;240.8786;-6.027288;-13.96515;487.7862;484.4236;-0.3964256;-0.09360686;0;
701.1672;0;652.9357;271.2462;-10.71028;-11.13795;705.6863;700.0157;0.1237115;-0.0935128;0;
307.8475;0;297.7079;227.8703;-11.83762;-10.38995;318.0467;313.6937;0.3184892;-0.7430922;0;
164.0478;0;161.602;252.6913;-13.03117;-4.552115;172.1129;173.1989;-0.07163487;-0.8073129;0;
87.29649;0;87.53925;164.2942;-14.29088;-1.399465;96.04057;99.56181;-0.1365302;-0.4166977;0;
-449.2716;0;-414.9836;-237.3566;-6.038471;-1.264093;-431.2285;-428.2729;0.1884437;-0.3513117;0;
-696.5706;0;-658.4441;-496.4878;-2.950945;0.7466652;-676.734;-672.2822;-0.2665171;0.1038128;0;
-342.1735;0;-334.0702;-198.9507;-6.364231;4.56382;-325.98;-322.4697;-0.4611513;0.4935125;0;
-198.4642;0;-192.8054;-50.01304;-5.620902;6.568722;-180.2256;-181.3415;0.05905079;0.4280493;0;
-97.44048;0;-97.09715;-1.674559;0.2792437;6.830054;-81.34409;-83.83321;0.2538935;-0.1570869;0;
481.6789;0;440.3553;241.33;2.288695;7.626986;488.5138;486.0271;-0.006230998;-0.3518311;0;
706.7065;0;661.1141;270.885;-0.8624125;6.614578;713.4096;708.4892;0.1237099;0.03832646;0;
309.5707;0;303.5667;229.5085;-0.9279188;6.273017;321.2645;317.2861;0.383455;0.1032553;0;
167.2685;0;166.9552;255.7021;-0.8606135;5.328953;175.8271;177.225;-0.006734339;-0.09175048;0;
76.89578;0;77.95714;152.1221;-0.9261217;4.385838;85.19595;88.15413;-0.2665969;-0.221593;0;
-460.5364;0;-425.9929;-249.0792;-4.676235;5.118243;-443.374;-441.2934;0.05850765;-0.351305;0;
-686.1475;0;-650.8267;-487.8962;-6.212754;5.247066;-666.691;-662.8009;0.1234162;-0.4159194;0;
-340.0692;0;-335.3934;-197.8016;-0.6468061;1.624837;-325.0051;-321.1813;-0.006642492;-0.02569738;0;
-207.2316;0;-203.3101;-61.35879;1.229854;-0.1853344;-190.4335;-190.5491;0.2532336;0.2991652;0;
-90.14458;0;-91.97421;-3.950957;-1.585397;5.843194;-74.3004;-76.41487;0.1880118;-0.02597216;0;
485.7816;0;442.2247;241.5546;-0.5120771;6.574135;492.6143;489.565;-0.3319159;-0.2208481;0;
700.6852;0;653.7363;270.5472;1.364448;4.156143;706.2617;701.0915;-0.2016477;-0.5454628;0;
310.302;0;301.7561;229.2959;0.8272131;4.352916;320.1208;316.8923;0.3182937;-0.5449148;0;
169.7482;0;165.3338;254.053;10.06978;1.267449;177.3707;178.8931;0.3179738;-0.1545632;0;
85.24502;0;83.39625;161.4067;12.13577;0.3953977;94.42162;96.81698;-0.07214972;-0.2193753;0;
-451.321;0;-416.5613;-239.5541;6.764941;0.5289663;-433.5954;-430.8901;-0.2020119;0.1706492;0;
-691.4965;0;-655.0226;-492.8109;6.624421;0.5954177;-672.0397;-667.3381;-0.3317436;0.6902165;0;
-339.6032;0;-335.025;-199.1506;-1.018045;-1.280703;-324.3513;-320.3416;-0.5263123;0.2347516;0;
-197.8956;0;-194.3214;-55.02285;-3.762712;-2.016106;-182.1592;-181.9017;-0.006044723;-0.2202557;0;
-96.80993;0;-98.5492;-2.99369;-7.175183;4.148106;-83.838;-85.45477;0.05892869;-0.1550671;0;
480.1224;0;436.3435;240.7618;-10.31678;5.818511;483.3987;482.0959;-0.2659672;-0.02497656;0;
709.337;0;662.0414;270.7547;-7.157607;4.740937;711.7979;708.4349;0.3190061;0.04001588;0;
310.3869;0;301.9319;228.1289;-8.423213;5.071088;318.4675;315.1704;0.05881619;-0.08995902;0;
163.961;0;160.3245;254.5113;-2.119086;6.874532;170.1594;171.988;-0.331047;-0.4147053;0;
76.5901;0;76.33054;154.9305;0.02649747;7.269522;84.09411;87.60756;0.05908972;-0.5442233;0;
-463.7153;0;-432.0532;-251.7708;-4.259461;1.970688;-446.5987;-444.1507;0.188965;-0.02393775;0;
-688.5736;0;-655.0692;-492.0844;-4.188808;-0.6436266;-669.6001;-666.405;0.1238078;0.3658904;0;
-336.4958;0;-326.4508;-194.7392;-5.523769;0.0268495;-322.1641;-320.1591;0.1886508;-0.3491181;0;
-203.5369;0;-195.8133;-57.36246;-6.589946;-1.982665;-187.3455;-189.3405;0.2534285;-0.2837999;0;
-87.39067;0;-89.41995;-0.8332098;-9.196269;-5.195732;-72.52737;-75.6448;0.1232392;0.236224;0;
483.9725;0;441.9029;243.1075;-10.99471;-6.53017;489.7004;486.8985;0.05814804;-0.1538174;0;
693.4432;0;647.6052;269.225;-12.9934;-12.2839;698.3533;693.0554;-0.006877727;-0.08869553;0;
308.627;0;300.7535;231.0985;-14.85635;-15.01785;318.5296;313.8618;0.05809652;0.1062956;0;
174.1343;0;170.2668;255.8537;-15.71208;-11.45279;182.4653;182.4248;-0.07189653;-0.02374587;0;
80.81864;0;80.26584;155.0222;-17.97347;-12.17797;90.76545;91.97435;-0.1367916;-0.1536567;0;
-458.0542;0;-419.5636;-245.8696;-12.26198;-8.883695;-440.1215;-438.5389;0.1232152;-0.2184696;0;
-690.1021;0;-650.026;-491.9987;-10.57472;-7.066229;-671.3752;-667.1707;-0.006843308;-0.3481848;0;
-338.6475;0;-333.1568;-196.84;-20.00857;-10.54224;-324.5621;-321.7986;-0.2667058;-0.2179003;0;
-197.2531;0;-192.8299;-52.8395;-21.32861;-9.593887;-180.4333;-182.7949;-0.07153579;0.2370901;0;
-95.73087;0;-93.06119;-0.6875898;-19.29745;-12.33043;-77.80349;-81.16223;-0.2013986;-0.08798486;0;
475.2034;0;437.0784;241.129;-19.21071;-13.72468;485.679;482.2612;-0.07126154;-0.2827985;0;
698.6758;0;654.967;270.3095;-18.32075;-8.553324;708.5787;703.0403;0.1886794;0.3021918;0;
302.0478;0;297.6756;228.5587;-17.02954;-9.348524;316.1886;311.7802;-0.2013142;0.1719534;0;
164.4383;0;163.5063;254.2535;-13.66353;-6.057089;174.1296;174.2235;-0.2660793;-0.2180234;0;
82.31431;0;83.56961;157.4216;-10.90411;-4.979276;91.18376;93.83872;-0.07090988;-0.2827717;0;
-459.1213;0;-421.9478;-246.3462;-9.821425;-10.80167;-442.3272;-438.5505;-0.005871292;-0.2175202;0;
-686.6703;0;-654.3443;-490.6632;-8.538758;-9.786068;-667.5193;-662.5595;0.1890366;0.04256773;0;
-339.8419;0;-338.0954;-200.191;-1.02809;-21.16309;-322.8965;-319.6908;0.3187814;-0.08740973;0;
-211.8146;0;-207.3213;-66.80677;1.38384;-24.62481;-193.9492;-195.3694;0.4483957;-0.02235455;0;
-89.3507;0;-93.54505;-5.270544;-0.6263063;-14.28494;-73.93958;-78.04446;0.2530432;0.562374;0;
488.8235;0;442.1547;243.3598;-0.2908843;-14.06964;496.0358;491.2478;-0.1370151;0.4318742;0;
696.7276;0;645.9203;268.8523;-3.372051;-4.812104;702.5583;696.7132;-0.006942785;-0.2182331;0;
311.9706;0;299.5076;231.3509;-3.970899;-0.7884152;321.7309;317.5159;-0.1368705;-0.3479486;0;
174.7884;0;168.6472;256.5432;-12.94287;-2.863972;182.5399;182.577;-0.331635;0.04220513;0;
75.66249;0;74.83736;151.2757;-17.9537;-1.052677;84.7181;85.69217;0.05850229;0.2370648;0;
-463.6425;0;-425.1116;-251.8613;-7.151045;-3.529866;-444.5385;-444.1901;0.1883782;0.04192451;0;
-689.3129;0;-654.319;-491.0504;-6.340552;-3.995199;-667.7294;-664.8202;0.05825422;0.04188239;0;
-339.1085;0;-338.8198;-196.4548;-11.29067;-8.478919;-321.6696;-318.9507;-0.006771654;-0.08809438;0;
-203.5857;0;-198.2373;-58.764;-10.60974;-10.68084;-184.915;-186.5091;0.05820249;0.1068962;0;
-94.62332;0;-91.77906;-1.796057;-13.74691;-13.3493;-78.09528;-81.06211;-0.006823332;0.3666581;0;
480.9325;0;441.3577;242.0832;-14.73748;-16.0152;488.5109;485.6095;-0.3966205;-0.08848169;0;
701.838;0;654.9941;269.0762;-9.833528;-9.501889;708.1594;703.8867;-0.1363526;-0.2183275;0;
306.0813;0;292.8927;228.5761;-9.488854;-7.214922;316.4569;313.0005;-0.201183;-0.2830754;0;
161.9711;0;156.7916;254.2709;-6.331488;-11.56156;170.0248;170.6324;-0.5907848;-0.282791;0;
74.53968;0;72.36396;155.6273;-4.046974;-10.27727;83.89722;86.81548;-0.07045251;-0.02263748;0;
-464.202;0;-440.0762;-250.3251;-12.88514;-5.980158;-444.7964;-441.881;-0.005414377;0.10732;0;
-689.2472;0;-660.3356;-490.89;-15.41682;-4.567507;-668.0495;-662.9507;0.0595584;0.4970162;0;
-334.545;0;-327.2142;-191.4845;-8.770868;3.608756;-318.5536;-313.5848;0.3843353;0.3665821;0;
-204.2742;0;-199.6369;-58.10903;-8.895777;7.423157;-187.4867;-187.2706;-0.1357896;0.1713117;0;
-90.93832;0;-93.05224;-4.015305;-10.82922;5.071296;-76.5415;-78.26211;-0.2655879;0.4959763;0;
485.7382;0;442.4596;242.7397;-9.746614;7.142671;491.5624;489.4062;-0.3302884;0.2356086;0;
691.3965;0;643.2264;268.6701;-19.51608;3.317589;696.5901;692.4996;-0.2000218;0.1054371;0;
299.1487;0;289.9448;229.982;-23.24752;2.041579;308.335;306.0602;0.3848853;0.04036384;0;
165.1028;0;162.4674;255.2381;-12.77531;6.996143;172.156;174.0064;-0.2002076;-0.02464405;0;
68.11056;0;66.10254;149.722;-12.82885;7.257045;76.71841;79.00423;-0.4598758;0.2352501;0;
-470.1249;0;-441.3339;-252.9136;-13.15075;5.374231;-452.1554;-451.0587;0.1252924;0.04011167;0;
-684.9818;0;-649.0358;-486.5419;-13.20488;4.765985;-664.7814;-661.9993;0.06019917;-0.02489598;0;
-336.3434;0;-324.8587;-192.4506;-15.06665;4.962144;-319.7241;-317.5069;-0.004828662;0.3649331;0;
-211.9428;0;-204.7175;-62.57242;-14.51565;3.885432;-193.2787;-195.9363;0.3200129;0.4945011;0;
-93.22688;0;-94.19229;-4.351279;-25.88791;6.426879;-76.45564;-80.6723;-0.005145361;0.1691675;0;
486.6379;0;444.819;242.7164;-29.01071;7.559131;494.8341;490.5592;-0.3949443;-0.3507412;0;
692.9824;0;648.3945;268.7718;-26.03382;-2.629626;701.1079;694.4011;-0.134678;0.2343173;0;
299.546;0;293.7334;229.7712;-27.01302;-6.110096;311.9112;306.4604;-0.004608023;0.4289839;0;
165.4998;0;165.69;255.1525;-19.35007;0.7281802;175.9785;175.5932;0.06036395;-0.2211206;0;
78.75199;0;82.75258;161.568;-15.04372;0.6604656;92.09373;93.0831;0.1252706;-0.09096372;0;
-460.1188;0;-425.6376;-238.3934;-21.32426;-2.756206;-437.4202;-437.3064;-0.199692;0.1040297;0;
-689.416;0;-657.0309;-483.7804;-22.7767;-3.289299;-665.9905;-663.3157;-0.5892953;-0.02600951;0;
-333.152;0;-326.0367;-183.5075;-1.989842;-3.620909;-314.4977;-312.3877;-0.2638665;0.2988533;0;
-194.1369;0;-184.78;-41.14455;3.639212;-4.2871;-173.3775;-177.1416;0.1262027;0.5584224;0;
-83.24752;0;-81.64603;9.558828;-7.081714;-3.412014;-63.75827;-69.33025;-0.06882616;0.2330246;0;
488.5488;0;448.7944;243.6815;-4.998493;-3.341603;497.6486;493.1442;-0.263659;-0.09204626;0;
696.2657;0;653.178;267.2997;-17.04991;-4.209023;704.232;697.7331;-0.1984268;0.1679156;0;
307.5111;0;301.0733;231.0492;-21.05127;-3.802897;320.9042;314.8492;0.1266093;0.03781219;0;
176.268;0;174.5843;254.8674;-11.92141;-6.143478;187.3362;185.2852;0.2564168;-0.1571278;0;
78.3275;0;81.08074;154.0369;-11.23887;-6.539203;90.19674;90.39668;0.1262245;0.1028994;0;
-465.1656;0;-428.7445;-244.8549;-10.08948;-3.920298;-445.0624;-443.8007;-0.06880439;-0.092106;0;
-680.5897;0;-645.642;-478.4914;-8.806543;-3.313512;-658.6326;-656.6226;-0.003767916;-0.2869155;0;
-326.0211;0;-319.032;-178.1613;-0.09015688;-2.238456;-307.1472;-307.1381;0.2561052;-0.3515945;0;
-201.6934;0;-190.9632;-47.92264;3.459907;-1.700343;-180.7769;-183.8913;0.3857826;-0.4162086;0;
-85.92383;0;-78.89006;2.725079;5.332441;0.3107313;-66.52759;-70.88823;0.3204276;0.03898102;0;
491.1225;0;454.6711;244.0385;9.07715;1.181197;500.6292;496.5228;0.190171;0.1039092;0;
689.5915;0;645.1807;267.5939;0.226771;0.04130047;697.0897;692.2378;-0.1348568;-0.3509666;0;
301.2185;0;291.3974;229.6564;-1.582118;0.3091907;312.5197;308.4848;-0.1996887;-0.02577724;0;
176.7907;0;174.3508;255.1003;2.438936;-3.241093;186.5813;186.1736;0.3852181;0.4290201;0;
77.91267;0;80.78507;153.8322;1.565829;-5.046376;90.87934;91.5965;0.3198636;0.1037523;0;
-471.2646;0;-442.658;-252.6806;1.094765;-1.893107;-449.3155;-448.2867;0.1896076;0.103648;0;
-688.8065;0;-660.2911;-488.3081;0.6924994;-1.757239;-665.6301;-663.2905;0.4492864;0.3634132;0;
-326.9834;0;-320.9229;-181.9712;-0.6483431;-4.63574;-308.1406;-307.5525;0.3189003;0.03821136;0;
-192.9096;0;-185.8557;-44.98215;-1.65207;-4.564099;-172.4615;-176.5591;0.05871047;-0.09176172;0;
-79.71004;0;-75.53679;8.348766;2.77022;-4.090632;-59.59487;-65.9997;-0.1362505;0.2331672;0;
494.3315;0;453.6482;245.2838;4.375027;-3.148761;504.1817;499.9072;-0.006178954;0.3628676;0;
698.1696;0;650.6556;266.5265;-0.9206549;-3.279563;706.3232;700.6787;0.1237619;0.2975357;0;
303.6036;0;297.6789;230.0894;-1.255499;-3.343251;317.8084;310.7328;-0.1362318;0.1023347;0;
170.7402;0;167.1327;254.7207;-2.324988;3.760056;182.9317;179.9237;-0.1360949;-0.02770286;0;
71.80573;0;72.76215;148.9553;-4.868247;5.363868;85.29688;83.16645;0.05894388;0.03729231;0;
-472.9301;0;-432.2447;-255.0539;6.790943;4.286751;-451.2692;-453.2725;0.2537867;-0.0277125;0;
-685.4104;0;-644.8282;-484.3697;10.66889;3.612615;-662.4594;-662.2118;0.3834664;0.2971521;0;
-333.1484;0;-324.3411;-189.3436;-2.871167;3.207209;-314.5932;-314.9706;0.05824433;0.2318861;0;
-215.1853;0;-206.3868;-65.09068;-3.605217;1.931311;-195.4618;-199.7744;-0.3316182;-0.02821623;0;
-93.90492;0;-90.61253;-4.055915;-4.204806;-7.447996;-76.26276;-81.13319;-0.136383;0.1667142;0;
499.2039;0;460.3891;243.3863;-7.214691;-11.66044;507.7079;503.4045;-0.006311283;0.2964813;0;
701.163;0;661.5751;267.1297;6.992452;-16.47137;710.533;702.236;-0.2661743;0.2312161;0;
306.4065;0;303.2776;232.6909;10.5354;-21.07652;320.4523;313.0382;-0.006037488;0.1010491;0;
179.9745;0;176.4115;256.8824;1.080341;-17.90714;191.2576;189.1608;0.1888706;-0.0939545;0;
76.03336;0;80.53238;153.4886;-0.05884384;-17.2863;89.6164;88.95847;0.2536482;-0.02889276;0;
-472.7047;0;-429.1674;-249.5257;3.557562;-23.09633;-451.0144;-449.2979;0.383328;-0.2887331;0;
-688.4336;0;-645.3773;-484.6566;3.352916;-23.07312;-665.7656;-661.1147;0.2530081;-0.2234756;0;
-329.9217;0;-316.2064;-180.6347;0.6038569;-15.88301;-310.6498;-308.0026;0.4476559;0.1015856;0;
-195.8449;0;-182.7681;-41.96031;1.340184;-13.79058;-173.4689;-177.4461;0.3172714;0.03651621;0;
-85.76588;0;-79.32386;11.86731;-8.708846;-3.930473;-64.84915;-70.88378;-0.2027861;-0.2233898;0;
488.5316;0;450.552;245.1131;-12.45114;1.833886;498.183;494.3409;-0.007680302;-0.5480021;0;
698.0602;0;654.3716;266.0437;0.2883725;-4.062333;706.3901;700.6152;0.1872294;-0.2875821;0;
300.5583;0;297.4557;229.1073;2.096744;-2.517643;314.1271;308.2331;-0.2027627;-0.1573584;0;
168.9473;0;169.9083;253.8021;0.6207686;-1.24256;179.6289;178.6134;-0.3324937;-0.287135;0;
78.88518;0;79.15809;154.4094;1.088659;-1.71007;90.74299;91.5401;0.1226118;-0.2218792;0;
-468.8563;0;-436.0375;-250.0425;7.585276;1.707656;-448.2648;-447.9682;0.1874559;-0.09172153;0;
-684.9014;0;-653.3649;-485.048;11.3287;2.509735;-664.1431;-662.2227;-0.2675038;0.16824;0;
-329.0167;0;-326.1226;-187.7099;-1.342337;-3.186213;-313.027;-312.7326;-0.007365654;0.1031036;0;
