Fp1;Fp2;O1;O2;POLY3;POLY4;A1;A2;Video;Audio;event;
-304.4;0;0;-129.4369;-7.07771;-1.910262;-304.4984;-303.3911;-0.3807086;-0.1834678;0;12:38:45 Глаза открыты;
-210.2038;0;0;-17.80043;-6.802178;-1.238635;-208.1782;-211.6947;0.1394126;-0.05334875;0;
-122.7864;0;0;-22.78003;-9.27359;-7.600525;-120.7629;-126.0874;0.3341746;0.0116722;0;
461.2934;0;0;137.0375;-11.74252;-8.731598;455.6938;451.3741;-0.05596524;-0.05330687;0;
669.2252;0;0;152.517;-2.554668;-2.560516;663.1313;657.1918;-0.1208763;0.2715834;0;
272.9391;0;0;132.5612;-1.279303;-1.017458;272.2237;266.7899;-0.05578755;0.2713105;0;
177.1503;0;0;146.6708;-7.574657;2.198745;175.5611;173.5685;-0.4455355;0.07613589;0;
116.0654;0;0;112.4156;-7.232254;4.808748;115.165;114.2989;-0.3801205;0.2059941;0;
-432.463;0;0;-154.3758;-16.86955;6.411507;-425.8039;-426.919;0.07503282;-0.0540823;0;
-653.2298;0;0;-371.2991;-21.20686;8.213603;-646.0151;-645.0052;-0.05497726;-0.1189953;0;
-306.9971;0;0;-132.7332;-13.95188;8.20535;-305.4119;-303.341;0.01004532;0.205961;0;
-220.7319;0;0;-31.65059;-15.34438;7.795208;-217.8364;-219.3283;0.2699046;-0.2490174;0;
-127.6817;0;0;-36.17899;-13.31923;10.19864;-125.3514;-129.2156;-0.2501054;-0.6385712;0;
465.8983;0;0;135.3961;-12.16677;10.52331;459.6681;455.7453;-0.6396581;-0.5729622;0;
666.579;0;0;153.4384;-15.83922;4.01551;659.7929;653.4377;-0.4441133;-0.5074192;0;
272.6069;0;0;131.9825;-13.67985;3.140819;272.3868;266.7877;0.01110431;-0.1820726;0;
187.3757;0;0;147.2171;-19.22581;-3.292577;186.6561;186.3724;0.2059952;0.1429471;0;
122.2201;0;0;112.2117;-17.5989;-6.57131;122.813;123.5291;0.07585351;-0.1820333;0;
-433.8733;0;0;-155.8913;-16.37479;1.941881;-426.1595;-426.4436;0.07577729;-0.3767524;0;
-654.0139;0;0;-372.3133;-16.69313;2.274845;-646.6202;-644.7802;0.1406685;-0.05153713;0;
-305.6566;0;0;-132.3721;4.824553;5.554601;-302.3932;-301.0547;-0.05437488;0.1434167;0;
-219.4551;0;0;-27.29186;10.37843;7.558507;-213.6963;-217.0443;0.07561444;0.2082399;0;
-127.5307;0;0;-29.88812;15.32547;4.536681;-122.3399;-126.9339;0.01057112;0.1430634;0;
465.0497;0;0;136.7457;21.0035;4.197207;461.4896;458.5244;-0.4442109;0.0129849;0;
666.6683;0;0;152.7252;10.66727;3.657248;662.2997;657.7133;-0.05396049;-0.1169628;0;
269.5727;0;0;132.6442;11.32614;3.11771;270.9557;266.2489;0.1409958;0.2079914;0;
181.5334;0;0;146.5664;-2.685042;-3.382645;181.0409;180.7742;-0.1190153;0.4676518;0;
125.754;0;0;117.0589;-9.380149;-6.192529;126.0116;126.3698;0.1409737;0.07737785;0;
-424.7207;0;0;-145.3644;-0.8642572;-6.5211;-416.28;-418.1085;-0.05407001;-0.1825693;0;
-656.0525;0;0;-371.6046;-3.943872;-9.059898;-647.2454;-647.6978;-0.118983;0.01251619;0;
-311.691;0;0;-137.5361;3.160038;-5.165907;-308.9523;-309.4667;0.07603855;-0.05246373;0;
-217.0503;0;0;-28.70257;5.165618;-4.825802;-214.1893;-218.2639;-0.1189399;-0.1173784;0;
-129.626;0;0;-33.17147;1.878875;-7.165233;-128.1422;-133.3372;0.01111432;-0.05229307;0;
457.2093;0;0;134.8399;4.154162;-6.689153;450.9455;446.318;-0.1837989;-0.1172079;0;
667.4565;0;0;153.5075;-3.418473;-8.089073;661.6363;654.5146;-0.3135489;-0.05212276;0;
279.8553;0;0;132.3638;-5.291049;-7.813014;278.9135;271.2993;0.2065049;-0.05207038;0;
196.366;0;0;147.0359;0.8771859;-8.40801;193.4261;190.3797;0.07636274;-0.1819527;0;
132.0134;0;0;114.342;0.8763046;-8.60051;129.951;129.1566;0.01131866;0.2730015;0;
-429.8369;0;0;-149.8277;3.085251;-4.974912;-423.464;-425.3195;0.4011113;0.07782515;0;
-658.5398;0;0;-372.0029;5.091883;-3.898186;-649.2997;-650.4662;0.1408389;-0.4419918;0;
-313.926;0;0;-137.4968;2.742242;-0.5452445;-308.8806;-309.8586;-0.2491066;-0.116711;0;
-220.9072;0;0;-29.35042;4.815591;2.80445;-216.1792;-220.0297;-0.1189216;-0.181561;0;
-128.4815;0;0;-32.25695;-0.2121134;-5.102232;-126.0696;-130.7284;0.01113253;-0.1164113;0;
454.1048;0;0;135.0039;-2.221632;-6.704574;447.8311;444.5514;-0.5086174;0.2085424;0;
661.2316;0;0;153.2965;13.65543;1.54082;654.3396;649.3765;-0.443139;0.01343084;0;
275.011;0;0;132.6528;17.72755;0.8694423;272.9985;267.9154;0.3369144;-0.05155;0;
182.3437;0;0;146.325;10.74351;7.767689;178.8339;178.7534;0.7263799;0.01346914;0;
125.1891;0;0;118.0671;10.73272;11.04193;124.0566;125.7253;0.4008133;-0.6362178;0;
-428.0962;0;0;-144.6695;8.578478;-5.044707;-420.2945;-420.0017;-0.1193281;-0.7655132;0;
-664.9843;0;0;-373.0343;3.546016;-8.254697;-657.0029;-654.8989;-0.2491429;-0.2450053;0;
-309.5569;0;0;-133.4672;10.91082;-8.380368;-307.2682;-305.6036;-0.1189579;0.08007761;0;
-214.481;0;0;-23.2634;8.756403;-12.45778;-211.445;-214.967;0.2709657;0.3398665;0;
-139.6155;0;0;-34.48438;-3.644604;-4.943423;-138.4566;-143.1619;0.07579138;0.4694597;0;
450.6032;0;0;133.7157;-5.649698;-3.866729;442.2657;438.3147;-0.2491215;0.3390533;0;
666.5417;0;0;154.1336;-32.3025;-8.283595;657.5878;651.9542;0.3358349;0.07884325;0;
267.3847;0;0;132.427;-43.65689;-6.533715;263.9371;259.6209;0.3354975;-0.05117067;0;
178.3482;0;0;146.5368;-24.92515;-12.28756;172.7176;172.8411;0.07529099;0.2737175;0;
138.5014;0;0;117.4666;-25.23588;-13.8828;133.5636;135.4361;0.4650194;0.5982791;0;
-418.108;0;0;-148.0181;-21.86064;-3.419761;-414.2328;-413.0493;0.3995848;-0.05199544;0;
-666.2505;0;0;-380.315;-16.54739;-2.61253;-660.8174;-658.5732;0.07434657;-0.3767799;0;
-314.6324;0;0;-138.6791;-22.69368;3.418437;-314.5771;-311.9603;0.009304529;0.07837009;0;
-217.5524;0;0;-24.03482;-22.46981;7.031959;-216.6226;-218.6936;-0.2505742;-0.37648;0;
-134.9377;0;0;-36.06711;-5.835464;-3.156269;-133.8214;-138.0768;-0.3802571;-0.5710038;0;
456.0258;0;0;132.9467;-0.873107;-3.688961;449.2075;446.9555;-0.1200056;0.2741454;0;
668.8354;0;0;154.2398;-9.446045;-8.708852;661.0869;656.9631;0.01004962;0.2089026;0;
277.8596;0;0;132.4707;-9.034412;-12.25007;276.3033;271.5589;-0.1848625;0.01379066;0;
184.0649;0;0;146.6429;-14.58504;-5.472733;181.6356;180.3942;-0.1846768;0.4035809;0;
129.4698;0;0;116.1983;-17.85194;-5.400252;127.6051;126.8023;-0.1195238;-0.1165634;0;
-411.3885;0;0;-139.2901;-16.02534;-5.595774;-405.6926;-407.2443;-0.3143058;-0.246381;0;
-645.982;0;0;-364.8492;-17.8179;-4.719374;-639.1049;-638.781;-0.05412059;0.40354;0;
-303.0675;0;0;-132.6616;-19.40759;-4.312734;-300.3827;-300.3714;0.1408358;0.01333049;0;
-209.1225;0;0;-20.95939;-20.7946;-3.102708;-204.8787;-208.8654;-0.1191751;-0.4414543;0;
-133.5753;0;0;-32.55749;-17.49216;-4.2383;-130.3352;-136.0046;0.01087937;-0.3760434;0;
455.3255;0;0;132.5797;-15.93336;-4.368007;449.0671;444.7152;0.2057705;0.01413852;0;
678.2557;0;0;154.4355;-19.86947;0.6599798;670.8167;665.2823;-0.119273;0.2739937;0;
277.7127;0;0;132.6662;-19.8495;3.4726;276.8403;271.2491;-0.5089572;-0.1160857;0;
177.8587;0;0;145.7137;-16.07851;-5.0376;176.1126;175.3371;-0.3135438;-0.1809364;0;
140.886;0;0;121.3295;-15.46012;-6.706989;139.1417;139.6787;-0.1183267;0.2090495;0;
-409.5415;0;0;-136.9751;-12.09568;2.744099;-403.4755;-404.4382;-0.05324047;-0.1159973;0;
-665.0013;0;0;-373.4686;-10.0738;3.813069;-657.6296;-656.3425;0.2716497;-0.2458154;0;
-316.3831;0;0;-138.3363;-12.94406;4.344979;-313.6414;-312.6679;0.3363441;0.07926831;0;
-213.9915;0;0;-20.44399;-11.99305;4.876477;-210.1906;-213.7158;-0.05379789;0.07918866;0;
-130.131;0;0;-31.04311;-13.52124;2.259364;-128.208;-132.9166;0.1411582;0.01414174;0;
459.8907;0;0;135.0921;-13.64235;0.6495037;452.7539;448.987;0.4008857;0.07909488;0;
669.8854;0;0;153.5095;-8.135315;-0.3558929;661.5688;656.4938;0.2705482;-0.05091929;0;
277.4717;0;0;132.1784;-5.314101;-1.42714;274.1609;269.6533;0.1403417;0.07906657;0;
189.0497;0;0;147.4129;-5.643554;-8.391809;183.9307;183.2382;0.010266;0.01401977;0;
126.3911;0;0;110.6582;-2.958566;-9.857001;122.4017;122.3346;-0.05471166;-0.115929;0;
-423.3971;0;0;-144.2625;0.2595874;-15.33958;-418.5744;-419.9533;0.27018;-0.05084518;0;
-648.4208;0;0;-361.6956;2.067012;-18.87414;-642.6035;-642.107;0.2049412;0.07914061;0;
-306.5658;0;0;-131.7601;7.825711;-5.927831;-306.0642;-305.3182;0.009833254;-0.05087361;0;
-210.9307;0;0;-18.99681;8.15264;-3.97937;-210.617;-213.8698;0.5295621;-0.1157898;0;
-130.3217;0;0;-26.84876;16.44984;-2.434764;-131.57;-136.5686;0.723932;-0.05070614;0;
452.7663;0;0;133.2228;19.3137;-0.1550196;444.2104;440.0913;0.6582372;-0.1156225;0;
683.0079;0;0;153.9534;3.353091;-1.494401;674.523;668.3467;0.4626738;0.01442833;0;
281.3356;0;0;133.3715;0.134541;0.1145695;278.2941;272.1239;-0.1874645;-0.1155208;0;
177.4175;0;0;145.2314;-8.104617;-8.794031;172.4425;171.9007;-0.1223088;-0.7001109;0;
153.4387;0;0;124.4709;-14.79428;-10.92865;148.9685;150.6136;0.07271616;-0.3096033;0;
-401.3117;0;0;-132.8999;-8.014259;-9.310078;-396.7195;-397.2624;-0.05729159;0.2104465;0;
-673.9587;0;0;-380.142;-8.876863;-10.10452;-667.8719;-667.6022;0.07270066;0.08030037;0;
-328.3299;0;0;-149.8756;-11.54726;-8.017894;-327.684;-326.9772;-0.1872417;0.3400891;0;
-217.8678;0;0;-25.41247;-11.33459;-7.60794;-216.0981;-219.2027;-0.1220863;0.4047147;0;
-133.8785;0;0;-33.38292;-6.567775;-1.772902;-134.7343;-138.3979;0.2678404;0.209406;0;
451.212;0;0;133.1294;-3.279622;0.3722108;441.0493;438.826;0.1376366;0.3391303;0;
670.5856;0;0;154.3599;-7.026395;3.386069;662.1823;657.0252;-0.05740368;0.4037568;0;
282.0443;0;0;132.3408;-7.287755;6.128845;279.7088;274.3696;-0.252248;0.3383838;0;
187.8081;0;0;147.1378;4.508564;2.036849;182.289;181.5779;-0.1220599;0.01320707;0;
131.4601;0;0;114.9436;8.3888;2.704632;127.2585;128.0472;0.1379321;-0.5065449;0;
-415.5221;0;0;-141.8554;-0.05972266;-2.522632;-410.5367;-410.6857;0.007858853;-0.3111339;0;
-650.5488;0;0;-366.5998;-0.2597574;-5.400363;-645.0061;-643.7182;0.1377856;0.1439501;0;
-311.5652;0;0;-136.7843;0.5438108;3.04479;-311.9626;-310.1762;0.2026145;0.07883812;0;
-216.1749;0;0;-24.01593;0.1411227;3.845526;-215.3225;-216.6614;-0.05745842;-0.1161431;0;
-140.8704;0;0;-32.61247;0.007259088;1.631225;-140.8935;-143.4179;-0.2523027;0.01390825;0;
446.7883;0;0;132.2125;-0.3948898;2.701313;437.9572;435.9975;-0.2520492;-0.05107307;0;
681.1589;0;0;154.5683;2.754315;0.01928156;671.8369;667.8177;0.1380081;-0.5707605;0;
278.5515;0;0;132.6739;3.823274;-0.1816866;274.4237;271.3456;0.2028368;-0.6351543;0;
182.882;0;0;146.0963;4.62274;2.698762;176.572;178.8069;-0.1222037;-0.2447121;0;
153.2131;0;0;121.2119;5.689822;3.700794;147.4716;151.141;0.07282108;-0.3094335;0;
-412.7815;0;0;-143.9641;5.885175;4.232817;-410.0838;-408.2298;0.3975846;-0.2441553;0;
-676.6089;0;0;-387.9467;6.347776;4.965376;-673.0394;-670.0003;-0.2524883;0.2758288;0;
-324.4182;0;0;-152.675;5.940233;7.505738;-326.7868;-323.0012;-0.512104;0.4054863;0;
-218.5203;0;0;-31.20758;5.19733;8.301991;-219.9495;-219.9158;0.3979534;0.0802422;0;
-140.9646;0;0;-38.79739;9.545388;10.30302;-143.0171;-143.8579;0.5274882;-0.3096425;0;
442.5713;0;0;132.8428;12.41618;11.63232;431.5254;431.4975;0.007219451;-0.4392661;0;
667.8257;0;0;154.6983;-0.2559434;8.204626;656.0413;653.2023;-0.05775515;0.1458814;0;
285.2841;0;0;132.1791;-2.935004;8.397331;279.6959;276.8598;0.00727023;0.4705715;0;
185.2351;0;0;147.5385;5.44069;5.173713;178.7779;180.255;-0.1226718;0.08029467;0;
122.3929;0;0;112.3454;3.961355;3.628029;117.8163;120.229;-0.3174505;-0.3095901;0;
-419.2079;0;0;-147.1996;14.87571;9.920535;-415.2841;-414.3732;0.2026072;-0.114377;0;
-652.9189;0;0;-373.0006;18.34339;11.45117;-647.9996;-645.403;0.2673709;-0.04929471;0;
-316.4317;0;0;-141.7419;6.001077;10.30096;-315.8902;-313.7958;-0.2526364;-0.3091145;0;
-215.8517;0;0;-27.59427;3.784244;11.42932;-214.1237;-217.7162;0.1374215;-0.1788693;0;
-136.7369;0;0;-36.62449;3.64672;11.48482;-135.9478;-141.5356;0.4621201;0.2111145;0;
443.1715;0;0;131.3279;2.035465;10.93741;435.7765;431.6311;0.006884353;0.3408371;0;
678.6077;0;0;155.4338;-7.879566;17.15571;670.5329;663.9554;0.07184478;0.08062525;0;
287.4346;0;0;132.2267;-13.16391;18.74607;285.8022;279.4812;0.3966093;-0.04939047;0;
188.0081;0;0;146.649;-6.585624;11.49319;185.5653;183.5609;0.3962108;-0.1143082;0;
155.5854;0;0;121.2643;-8.186597;9.673107;154.207;153.3291;-0.1239261;-0.1791607;0;
-410.2241;0;0;-145.2236;-5.164261;8.993558;-402.4182;-403.7325;-0.1887689;-0.1140133;0;
-681.4879;0;0;-388.9551;-2.413382;6.84119;-671.5659;-671.1923;0.07129016;0.0810033;0;
-324.2323;0;0;-149.3096;-12.72608;4.690862;-319.5677;-319.007;-0.2536182;0.2758239;0;
-214.1492;0;0;-22.16088;-13.04809;2.408851;-209.4268;-212.3649;-0.188396;0.08064476;0;
-146.1556;0;0;-34.31998;-7.475274;1.535652;-142.9996;-147.4965;0.006695319;-0.3092403;0;
439.3845;0;0;131.6311;-5.123238;-0.341413;433.7917;430.5487;-0.3831155;-0.1140276;0;
673.0753;0;0;154.8621;-3.778919;-0.4750358;666.3637;661.4998;-0.2527958;0.01602167;0;
284.469;0;0;132.6551;-2.167532;-1.010422;283.9485;278.7147;-0.1226071;-0.04896177;0;
185.2954;0;0;147.0145;7.546561;-3.554636;184.1507;182.4204;-0.5772553;-0.1138799;0;
135.1343;0;0;116.5695;10.48672;-3.618047;134.7404;134.5735;-0.4467406;-0.04879814;0;
-409.0405;0;0;-135.8583;15.03053;-5.422951;-401.8128;-402.4793;0.008479671;0.08118559;0;
-654.1935;0;0;-368.1674;18.29796;-5.484485;-647.8477;-647.7639;0.07343849;-0.2437327;0;
-318.6421;0;0;-143.9725;10.1079;-3.33552;-318.1122;-318.5906;0.008397358;-0.3734225;0;
-215.686;0;0;-22.26396;8.824943;-2.796305;-212.9702;-216.759;0.2682583;0.08172413;0;
-135.6969;0;0;-30.36251;4.328097;2.297085;-133.7959;-138.5804;0.5278581;0.2115767;0;
446.9592;0;0;131.4617;1.309638;4.304143;439.4254;436.5198;-0.1223457;-0.2434073;0;
682.0792;0;0;154.9427;-1.572066;4.835682;673.2411;668.4019;-0.5769942;-0.3081301;0;
288.8411;0;0;133.1729;-5.857394;5.90255;285.5092;279.9252;-0.1866103;0.2768856;0;
183.6037;0;0;145.9076;3.861383;6.968346;179.4006;178.5073;-0.2513902;0.3415748;0;
154.3088;0;0;124.6466;5.130301;8.635918;151.7341;152.0287;-0.3810723;-0.2434745;0;
-396.4445;0;0;-126.9772;0.4360964;0.2544954;-390.5209;-391.476;-0.12082;-0.3081972;0;
-668.8465;0;0;-371.6641;1.440036;-2.023058;-663.1787;-662.009;-0.1206986;0.3417859;0;
-319.3498;0;0;-142.5931;-3.785347;1.327999;-320.4968;-319.0783;0.2042594;0.5363445;0;
-205.7109;0;0;-14.82645;-4.92062;-0.6158401;-206.2945;-208.7505;0.2690215;0.2759362;0;
-137.5383;0;0;-29.2418;1.648408;6.283899;-138.9334;-142.8238;-0.05608553;0.2106916;0;
443.183;0;0;131.8316;5.531518;8.287072;433.356;430.4067;0.1388728;-0.04938951;0;
681.1804;0;0;155.0624;3.449855;1.915489;669.8016;665.7932;0.2037006;-0.2442419;0;
298.3755;0;0;132.5429;9.207165;2.181496;290.9436;287.3766;-0.0563734;-0.1140618;0;
190.0675;0;0;147.0898;4.441514;-0.633979;181.8935;181.8282;-0.1862514;-0.2438819;0;
134.4044;0;0;116.6447;2.829461;-1.838913;128.6749;129.7341;-0.1860643;0.01623254;0;
-404.3349;0;0;-134.3464;38.86319;2.784635;-401.8753;-400.8796;-0.05594265;0.2111183;0;
-649.6177;0;0;-364.0334;46.92847;4.054391;-645.5988;-643.9169;-0.3157558;-0.3088326;0;
-317.1317;0;0;-143.2159;49.15849;3.313627;-316.7401;-316.934;-0.2504712;-0.1136203;0;
-216.0512;0;0;-26.56804;57.54919;4.247936;-214.0983;-218.4149;0.0746172;0.2113306;0;
-138.498;0;0;-33.22549;29.02423;6.722036;-138.9208;-143.9202;0.07454222;-0.1786858;0;
443.5986;0;0;131.7875;22.76577;7.11718;434.4307;430.3733;0.009499979;0.2112978;0;
682.2202;0;0;154.8934;20.39837;10.72698;672.7491;666.3845;-0.3803136;0.8607589;0;
294.5418;0;0;133.1861;10.53224;11.25207;287.8913;282.0952;-0.5748335;0.7299593;0;
189.7983;0;0;145.8583;22.84554;9.901105;179.9061;179.9255;-0.05451717;0.5343239;0;
157.8111;0;0;122.4734;21.41606;10.22607;147.8039;150.1346;0.205407;0.4688196;0;
-388.448;0;0;-126.0873;11.28049;1.575241;-391.6985;-391.1193;0.3351353;0.3384139;0;
-658.4843;0;0;-367.4642;9.460492;-1.105659;-658.858;-657.2173;0.2048638;-0.1816649;0;
-314.87;0;0;-143.27;5.83464;-1.43934;-320.3033;-318.1021;-0.05521138;-0.116515;0;
-208.7318;0;0;-23.99837;4.086489;-3.380399;-216.0337;-217.3954;0.2696808;0.2734061;0;
-144.8041;0;0;-39.59141;4.217081;-2.17131;-154.0976;-157.2071;0.2044425;-0.05170535;0;
443.1085;0;0;129.1136;3.743353;-3.575769;424.0167;421.2227;-0.185567;0.01331394;0;
686.7905;0;0;155.7829;4.946016;3.862685;664.2822;660.0542;-0.3802826;0.3381373;0;
295.047;0;0;132.7004;5.677005;5.868292;277.1215;273.8347;-0.2499658;0.3377975;0;
196.425;0;0;145.9353;7.145169;2.848285;178.5799;179.232;-0.1847472;-0.05234596;0;
166.8674;0;0;122.1131;8.410788;4.586857;150.9143;152.5028;0.01034041;-0.6369994;0;
-386.3973;0;0;-133.1314;12.95669;-3.455459;-394.4633;-393.9384;0.4001341;-0.1166206;0;
-663.9943;0;0;-385.3083;16.89578;-5.528458;-672.427;-669.8412;0.2697973;0.338268;0;
-324.8098;0;0;-160.6588;9.376718;-2.173756;-339.9182;-337.9596;-0.1202778;0.2079934;0;
-214.0389;0;0;-35.18541;8.697711;-3.04235;-228.445;-231.9856;-0.05518962;-0.1170523;0;
-149.1689;0;0;-46.26946;14.85091;0.1757653;-164.3101;-169.5338;-0.1201015;-0.2468694;0;
442.1214;0;0;129.0014;13.09468;0.7784351;417.5627;414.0933;0.0749212;0.013248;0;
701.4841;0;0;156.6704;26.14331;4.260643;674.3263;669.6111;0.2697479;-0.2466347;0;
313.7238;0;0;132.0877;30.60502;7.136628;291.1535;287.0052;-0.05535981;-0.1814195;0;
205.3378;0;0;147.0099;11.81905;1.369047;182.4779;183.1439;-0.2502062;-0.1162699;0;
164.0272;0;0;119.8133;9.26158;1.769569;144.0013;145.8535;-0.05505278;-0.6358918;0;
-392.2331;0;0;-135.8661;5.635928;2.169689;-402.1814;-402.2676;-0.2498995;-0.6352528;0;
-659.9542;0;0;-377.6705;1.477079;1.162765;-667.8311;-666.7302;-0.3795831;-0.3097778;0;
-320.0241;0;0;-151.2171;6.834229;9.668184;-333.89;-331.9782;-0.1193323;0.4051742;0;
-216.6294;0;0;-32.06252;6.023079;12.00287;-231.0436;-231.8199;-0.1192124;0.4047671;0;
-147.8212;0;0;-44.39909;7.825688;9.512444;-164.8446;-166.1198;0.07580942;0.01455632;0;
447.2158;0;0;129.4956;7.684103;10.97651;419.5899;419.8152;0.01076591;0.07950905;0;
700.4514;0;0;156.1646;4.795994;7.348525;670.9792;669.3926;-0.4440163;-0.1804402;0;
305.8831;0;0;132.5819;-0.29904;6.001482;282.8747;281.7896;-0.2486681;-0.1152916;0;
189.5091;0;0;146.9414;9.949039;11.48793;166.7112;170.9995;0.2713205;0.1446937;0;
153.3367;0;0;121.7439;9.671598;12.81605;133.1855;138.4689;0.07614582;0.3394503;0;
-383.9224;0;0;-123.3179;-8.155335;7.712587;-393.746;-390.5919;-0.1188327;0.2091745;0;
-650.6523;0;0;-363.1983;-7.879697;6.834059;-658.4047;-653.1298;0.2061234;-0.4407091;0;
-309.857;0;0;-141.6945;-46.45297;10.6451;-323.661;-317.8917;0.2708836;-0.5052336;0;
-196.415;0;0;-17.23963;-61.0747;10.96932;-210.2052;-209.1892;0.2056441;0.1449475;0;
-139.3712;0;0;-35.90042;-26.18319;10.75735;-154.147;-154.9437;0.2704048;0.4046712;0;
439.0406;0;0;127.6784;-25.48729;10.4786;415.7215;415.9251;0.01026373;0.07942789;0;
693.0341;0;0;156.5981;-8.783544;12.41058;668.3641;667.1307;-0.1196813;0.1443154;0;
307.4062;0;0;132.3278;2.344693;13.33587;288.5706;287.0261;-0.05459366;-0.115699;0;
198.2146;0;0;146.9375;-6.63362;7.562061;177.8361;180.5411;-0.1844735;-0.5053868;0;
155.2869;0;0;119.6784;-0.1965929;6.549719;134.8664;139.6926;-0.3142228;-0.1150749;0;
-386.7843;0;0;-125.9434;-7.430064;6.275206;-399.8129;-395.9911;0.1408643;-0.1799266;0;
-645.2655;0;0;-359.387;-9.298609;4.728293;-657.5314;-653.0262;0.07575542;-0.1797458;0;
-315.4076;0;0;-144.4462;0.3562771;8.742396;-332.7836;-328.6578;-0.3141247;0.2102388;0;
-208.8941;0;0;-23.11199;-0.7158078;8.800594;-225.3156;-224.6922;-0.2488418;-0.1148091;0;
-131.473;0;0;-31.64696;1.361016;8.791752;-149.1898;-149.5041;-0.3135591;0.08020828;0;
449.4922;0;0;130.3659;1.962861;8.8499;423.11;424.2953;-0.313244;0.4049644;0;
699.8519;0;0;155.2848;-6.88037;7.032591;671.6222;671.3071;-0.3778966;0.01475342;0;
314.7794;0;0;132.9525;-8.548396;6.623627;292.9499;291.5106;-0.6373863;-0.1801634;0;
190.5879;0;0;146.6244;-10.81698;3.401913;169.0301;172.0276;-0.3119091;-0.1799824;0;
148.8548;0;0;119.8655;-11.67677;2.661682;128.1308;133.3116;0.07820836;-0.1148342;0;
-386.7756;0;0;-133.0029;-11.12917;-1.359968;-398.7332;-395.7439;-0.05180491;-0.1796862;0;
-656.3763;0;0;-375.8721;-10.64948;-3.568916;-668.2594;-663.7114;0.07818183;-0.244473;0;
-314.2009;0;0;-149.6705;-5.413863;2.463012;-332.8187;-327.7755;0.2730053;-0.04932529;0;
-200.6921;0;0;-22.39649;-3.934554;3.063383;-217.6045;-217.5639;0.4026657;-0.1792104;0;
-152.5146;0;0;-40.98962;7.187834;5.404586;-169.0976;-170.0566;0.2723264;-0.4388997;0;
433.0319;0;0;126.1551;11.93603;7.743558;408.4695;409.0108;-0.5725227;0.0163127;0;
704.71;0;0;157.3251;8.575138;3.248043;678.6106;676.5901;-0.5069801;0.7309371;0;
315.7596;0;0;132.1796;10.91105;2.909864;293.0597;290.9788;0.01326807;0.2104639;0;
201.1248;0;0;147.1641;5.206656;5.050272;175.7616;177.4933;-0.1816473;-0.5693557;0;
163.1292;0;0;117.781;4.398117;4.375369;138.3537;140.9582;0.338274;-0.3738816;0;
-385.6964;0;0;-140.5201;0.776375;7.51917;-402.2012;-400.9111;0.4678687;0.01629815;0;
-652.6121;0;0;-382.7571;-2.439586;9.119083;-666.7264;-665.1877;0.4024313;0.2111838;0;
-315.2505;0;0;-156.9233;4.796534;-0.4683952;-334.723;-333.1234;0.6618962;0.2109716;0;
-207.9875;0;0;-33.20274;4.725342;-3.14712;-228.44;-229.9029;-0.1833442;0.2107596;0;
-140.3749;0;0;-45.97544;5.121759;2.281538;-161.8688;-164.8295;-0.5079967;0.3404825;0;
441.5987;0;0;127.1088;5.251311;1.073553;411.943;410.9843;-0.1826496;0.1452384;0;
694.715;0;0;157.2159;5.447105;4.354516;664.5894;662.1948;-0.3124007;-0.3096789;0;
311.7091;0;0;132.3203;6.043868;5.95773;287.1735;284.8438;0.01274989;-0.3743351;0;
196.0789;0;0;146.9924;-1.665364;-3.090708;170.9432;172.9262;0.1426718;0.1457798;0;
161.2118;0;0;122.8568;-4.275659;-5.56597;137.5382;139.0194;0.07756107;0.3405353;0;
-378.1792;0;0;-129.3275;-2.931216;-0.9386776;-395.1448;-395.7266;0.07748313;0.1452911;0;
-653.0358;0;0;-376.3858;-3.933625;-1.272649;-670.4842;-668.6915;0.20734;0.1451451;0;
-308.9273;0;0;-150.6209;-8.551373;-3.615651;-332.3551;-329.8771;0.3370663;0.274934;0;
-192.6752;0;0;-21.15951;-11.2221;-3.478052;-215.6422;-216.5399;0.07685825;0.01478833;0;
-145.0679;0;0;-39.44155;-2.368587;-7.962292;-167.6995;-169.9706;0.01181368;-0.1151612;0;
438.5346;0;0;127.0769;0.11204;-10.29869;408.1797;406.7853;0.01180181;0.1448239;0;
710.2697;0;0;157.0591;-7.323788;-1.580809;677.9462;674.6168;-0.1181447;0.2746131;0;
314.3796;0;0;132.2262;-7.450151;0.296302;287.2111;283.76;0.01190867;0.2743371;0;
190.1885;0;0;147.1482;-5.701353;-4.057764;161.9228;162.9105;0.0118967;0.07915943;0;
158.9505;0;0;119.8265;-6.297861;-2.98196;130.3384;133.6989;0.1418194;0.07907989;0;
-381.75;0;0;-129.6685;-1.402388;-7.667647;-403.2119;-400.1672;0.2066443;0.4038371;0;
-653.6671;0;0;-372.6035;0.2066112;-9.937363;-673.858;-670.1292;0.07650195;0.6633008;0;
-318.6158;0;0;-155.0883;-3.812084;-0.215096;-344.0339;-340.4337;0.2063598;0.3377975;0;
-204.6653;0;0;-30.43254;-3.741881;1.660642;-229.0583;-228.7726;0.07621773;-0.3771827;0;
-135.3069;0;0;-44.26999;-4.005565;-2.560829;-160.9248;-162.4509;-0.4435976;0.1429351;0;
442.2263;0;0;126.2513;-4.202611;-1.620617;405.952;405.6143;-0.1183151;0.6625302;0;
697.7783;0;0;157.2963;-3.059312;-4.365167;658.0422;655.7059;0.2716078;0.07715841;0;
318.2051;0;0;132.5881;-2.386653;-5.164576;284.5059;281.11;-0.1834365;0.01211352;0;
192.3235;0;0;147.2599;-1.781042;-1.07355;159.3453;160.6379;-0.1182849;0.2070034;0;
150.6511;0;0;119.0011;-0.7748747;-0.4696245;117.5187;120.5591;0.5315074;0.2067954;0;
-377.9846;0;0;-135.4907;-0.1708837;-0.0002720541;-406.0863;-403.9235;0.2061366;0.07665291;0;
-651.6546;0;0;-385.9161;-0.1043391;0.6695576;-679.1033;-674.5064;-0.05393985;-0.1183261;0;
-310.9832;0;0;-159.9542;5.857613;-0.06792749;-341.2779;-336.8106;0.4008857;-0.1182072;0;
-186.2333;0;0;-23.42451;7.995181;-0.6037227;-214.2487;-214.2836;0.595385;-0.05312113;0;
-143.2552;0;0;-42.6413;3.365447;1.942235;-171.992;-172.839;-0.1198541;-0.3129371;0;
426.4774;0;0;125.0673;3.227367;2.54313;388.4617;388.5526;-0.6394724;-0.182688;0;
701.348;0;0;158.2998;3.358822;-2.081125;659.8098;656.7772;-0.05412374;0.3372343;0;
310.5894;0;0;132.1538;3.622891;-2.88283;272.8409;269.4991;0.07586533;0.1419934;0;
184.8404;0;0;147.4508;-1.00245;-3.214848;144.8185;146.2901;-0.508917;-0.05305128;0;
163.6027;0;0;118.9419;-3.41234;-3.479549;122.1843;123.9667;-0.1835689;0.1419041;0;
-369.5438;0;0;-137.9236;6.303004;-3.810967;-403.7992;-404.2049;0.07648491;-0.2480426;0;
-648.1572;0;0;-387.2221;8.440125;-4.209036;-680.0668;-679.3478;-0.118494;-0.1178587;0;
-317.1095;0;0;-167.1934;3.206731;0.349911;-353.11;-352.2043;-0.2483096;0.1421291;0;
-203.3479;0;0;-41.71342;2.936065;0.8854228;-236.9384;-239.6568;-0.1830927;-0.3127851;0;
-130.68;0;0;-53.35313;5.746154;5.640199;-164.9864;-169.3262;-0.1179414;-0.3774381;0;
449.7846;0;0;126.2977;6.543688;8.514798;406.5797;403.5561;-0.05285558;-0.05222217;0;
697.2705;0;0;158.2172;-0.09334359;1.808071;654.4838;650.2764;0.1420996;0.01279764;0;
314.9492;0;0;131.9463;-3.375779;2.409101;279.9516;275.3111;0.01202209;0.01278478;0;
201.3772;0;0;148.1181;5.268777;-1.344364;166.977;165.7144;-0.05295733;-0.0521954;0;
160.3828;0;0;116.9848;6.803724;-2.883499;124.9552;124.8809;0.4018673;0.01282438;0;
-372.4481;0;0;-137.4424;-2.647584;4.420294;-405.6537;-406.1028;0.5963655;0.2726809;0;
-641.3135;0;0;-384.3051;-3.047065;5.822495;-675.7351;-674.4346;0.2709296;0.2724069;0;
-307.0868;0;0;-161.5308;-6.92877;8.629805;-343.4103;-342.2986;-0.05417938;0.2071658;0;
-185.4642;0;0;-26.62371;-9.868568;10.89855;-217.7533;-220.0784;-0.05412494;0.271925;0;
-135.4904;0;0;-40.77733;0.1880554;13.43295;-168.9339;-172.1312;0.07586413;0.07674975;0;
432.5478;0;0;126.3047;0.72373;15.8977;388.2683;386.8858;0.2057226;0.14164;0;
707.7871;0;0;157.9743;5.27833;14.00621;661.4907;658.5478;0.2704832;0.07653031;0;
321.2699;0;0;132.6407;9.090444;14.59498;281.9539;278.0146;0.1402767;0.01148606;0;
199.633;0;0;146.6878;-1.501262;13.30776;160.2317;160.9189;0.07516846;0.3363113;0;
181.8788;0;0;124.6764;-1.298683;12.28965;143.7039;146.5144;-0.05484176;0.3359733;0;
-363.2176;0;0;-124.4487;-6.120149;15.49236;-391.3591;-390.6754;0.3350174;0.1407337;0;
-655.2057;0;0;-376.322;-9.932392;16.01265;-680.4454;-678.7628;0.3996481;0.270527;0;
-317.2169;0;0;-158.9279;3.675245;12.84849;-348.3657;-346.1227;-0.1204922;0.01038577;0;
-201.1438;0;0;-33.70613;4.94435;12.23273;-231.4493;-233.5188;0.009563567;-0.3144614;0;
-144.4076;0;0;-48.9146;6.545996;11.14871;-174.5577;-178.3118;0.3343907;0.0106913;0;
435.8834;0;0;126.359;9.889297;8.659141;398.0175;396.3911;-0.1856841;0.01068056;0;
704.3102;0;0;158.1535;-1.03898;14.07594;665.0457;662.1715;-0.2504648;-0.3141669;0;
330.4776;0;0;132.5074;-2.91297;13.39208;295.4378;291.5046;0.009656205;-0.05398184;0;
214.1413;0;0;147.6166;-0.1643524;10.23043;177.6376;178.2685;0.009646502;0.07600711;0;
175.5704;0;0;120.4818;-1.704429;10.35412;140.2278;142.6072;0.3994409;-0.248906;0;
-368.1452;0;0;-131.6376;-0.83206;-3.186474;-395.7688;-394.3912;0.5289742;-0.3136232;0;
-653.0695;0;0;-383.5661;-2.171371;-7.403075;-678.5413;-674.1042;0.3335406;0.271398;0;
-315.3327;0;0;-160.73;-0.4269005;-6.52498;-344.2771;-339.5321;0.2032708;0.4660273;0;
-190.2036;0;0;-22.01318;-0.3600987;-10.0684;-217.3074;-217.9394;0.008164543;0.270657;0;
-138.3509;0;0;-39.4198;-5.115159;-0.6139306;-164.9277;-167.5582;-0.1867457;0.1404504;0;
437.0615;0;0;125.4744;-6.114397;1.463157;402.8277;402.0739;-0.1215907;-0.1195601;0;
707.1738;0;0;158.2693;-8.386405;-1.619528;672.6621;671.222;0.008466157;-0.05447265;0;
315.5347;0;0;132.8105;-9.181286;-0.211259;289.1786;287.9898;0.1383923;0.4653208;0;
192.4669;0;0;147.4821;-11.91873;-1.751654;165.1378;167.8232;0.07328594;0.3349186;0;
167.2236;0;0;122.3465;-13.84913;-2.084687;139.4846;142.2923;0.008244955;0.07471269;0;
-371.6112;0;0;-126.9637;-5.863639;1.869279;-390.0769;-389.2711;0.2031387;0.139605;0;
-654.5329;0;0;-377.4601;-3.781642;4.010733;-671.8556;-668.8642;0.3328693;0.2693994;0;
-317.0445;0;0;-159.6277;-5.720225;-4.499886;-340.2219;-336.2339;0.1376328;0.2691287;0;
-192.7883;0;0;-22.3487;-4.106887;-6.169938;-214.9428;-214.3947;0.2674292;0.07395624;0;
-133.5617;0;0;-36.44415;-3.031034;1.003314;-157.6306;-158.0824;-0.05767626;0.008914566;0;
432.6629;0;0;126.9479;-1.085605;1.605152;399.9976;401.0454;-0.2525203;0.463677;0;
690.4109;0;0;157.4924;-5.304073;5.823342;657.8409;657.7007;0.07257011;0.6581131;0;
315.7802;0;0;133.0338;-6.906334;8.161893;290.3643;290.4742;-0.1873722;0.3975825;0;
198.9589;0;0;147.6428;1.874516;5.675323;175.1303;179.4879;-0.1222166;0.007378935;0;
160.8406;0;0;120.1956;2.542217;6.205484;139.722;144.6375;-0.3169958;-0.1225632;0;
-376.7384;0;0;-126.801;3.545017;7.873822;-388.7778;-386.6783;-0.4466119;-0.12244;0;
-659.9048;0;0;-374.674;5.61756;9.138464;-668.309;-665.2121;0.07357554;-0.4471537;0;
-330.3446;0;0;-161.1546;-5.105354;2.498216;-342.7382;-339.0198;-0.1214004;-0.186835;0;
-207.6367;0;0;-30.55827;-7.57847;-0.2505947;-220.3927;-219.614;-0.05631109;0.1381894;0;
-150.0194;0;0;-45.83237;-7.236063;6.782743;-163.7621;-164.0462;0.2685822;-0.1867861;0;
423.0309;0;0;124.4406;-10.443;6.173081;400.3065;401.5844;-0.3163937;-0.1865985;0;
697.2803;0;0;158.7982;-4.203213;6.501793;674.2039;674.3561;-0.6409125;0.3982951;0;
314.0844;0;0;132.7142;-4.266338;6.696209;300.0267;299.679;-0.3154318;0.3329276;0;
185.2709;0;0;147.0736;-6.204434;2.134763;172.2893;176.0024;-0.1851802;-0.3820477;0;
164.8449;0;0;126.6235;-5.394893;2.132618;152.8134;158.4593;0.009907886;-0.2517292;0;
-369.6772;0;0;-112.6335;-11.14927;-6.242269;-372.5137;-368.81;0.2048;-0.0565742;0;
-667.7182;0;0;-365.8305;-11.27277;-8.982175;-668.303;-663.2912;0.07465949;-0.5112887;0;
-332.403;0;0;-155.9433;-16.28431;-4.150501;-338.5469;-332.7905;-0.2502522;-0.510775;0;
-204.1333;0;0;-18.79292;-19.48312;-5.352023;-209.7713;-208.2686;-0.1850334;-0.3153597;0;
-155.2027;0;0;-36.765;-8.813628;4.164687;-160.1479;-160.3333;-0.05491284;0.009793843;0;
419.8518;0;0;125.1906;-8.804771;7.844563;408.165;409.6664;-0.05485766;0.1397187;0;
693.2298;0;0;158.1107;-5.178602;3.415808;681.2424;681.0557;0.2050668;0.269513;0;
308.164;0;0;132.8394;-3.097294;5.354881;302.7478;302.6237;0.5296975;0.2692422;0;
189.2889;0;0;147.3236;-7.715882;3.473978;185.2525;188.5643;0.2043285;0.2040043;0;
159.6135;0;0;124.3745;-4.090807;4.006351;158.1424;162.3254;-0.1207135;0.008897284;0;
-378.5264;0;0;-109.4455;-25.98975;2.729771;-371.9377;-368.0087;0.009342493;-0.3809157;0;
-660.8165;0;0;-353.4003;-32.59507;1.588319;-652.985;-646.936;0.07430045;-0.7053697;0;
-329.881;0;0;-146.3367;-10.65926;7.882997;-325.9304;-319.8875;0.2041605;-0.8345956;0;
-211.0466;0;0;-10.82015;-10.04632;8.276851;-204.9136;-203.2496;0.138988;-0.3140182;0;
-156.8617;0;0;-30.11208;0.4799774;11.01483;-151.7343;-151.5088;-0.121021;0.01113398;0;
419.069;0;0;125.0277;5.503337;12.54437;415.5081;416.6704;0.07400259;-0.1837792;0;
688.8246;0;0;157.7606;1.009829;5.833599;684.5176;683.3675;0.2038629;-0.1186272;0;
306.6367;0;0;133.5516;4.357717;4.488078;307.7064;306.4949;-0.05621129;-0.05354069;0;
186.9512;0;0;146.286;-10.85093;0.9335951;187.0202;190.8075;-0.1211222;0.01148045;0;
158.8398;0;0;125.1495;-15.26066;-2.617316;159.9708;165.8157;0.2038363;0.07643627;0;
-378.987;0;0;-113.9811;-10.4899;-1.208167;-369.1115;-365.0841;0.3335661;-0.1185426;0;
-669.9598;0;0;-366.1147;-12.95761;-3.886148;-658.2827;-653.4471;0.0733616;-0.3782928;0;
-338.0781;0;0;-154.9778;-9.059824;-4.686038;-331.2227;-326.0798;0.008320539;-0.5728147;0;
-215.7996;0;0;-19.51511;-7.510479;-6.221938;-208.2016;-206.6245;0.008312179;-0.05250044;0;
-170.2306;0;0;-39.67286;-7.971447;-12.44485;-163.8896;-163.6884;-0.1216309;0.5322584;0;
404.839;0;0;124.5345;-5.752635;-15.11167;402.1157;403.5036;-0.0565413;0.01198484;0;
693.9741;0;0;158.5172;-4.675128;-15.4314;689.567;689.5791;0.1384175;-0.6377006;0;
308.6577;0;0;132.8707;-4.402986;-15.48287;311.0015;310.389;0.3331805;-0.1822885;0;
168.6677;0;0;147.1675;3.840461;-22.03152;172.0087;174.5827;0.202911;0.4026008;0;
150.3824;0;0;123.5939;5.444192;-23.4159;154.657;158.9151;0.3326418;0.3372289;0;
-380.8768;0;0;-116.7845;5.237651;-17.56498;-368.1732;-365.1688;0.6571442;0.2069554;0;
-679.9685;0;0;-371.5391;7.710635;-17.07858;-665.0913;-662.2773;0.0717779;-0.1180893;0;
-344.3911;0;0;-160.3967;-1.674236;-7.349012;-334.7137;-333.1519;-0.2531309;-0.4428073;0;
-216.6091;0;0;-17.80714;0.1361078;-3.322773;-205.942;-208.5047;0.1369275;-0.1175257;0;
-168.1033;0;0;-37.65426;-7.634537;-7.204323;-157.3219;-161.3188;0.2017572;-0.182375;0;
404.1531;0;0;123.9898;-8.229102;-6.594359;407.4899;404.4965;-0.1232822;-0.3121264;0;
686.5424;0;0;158.5353;3.901979;-8.128219;689.501;685.3237;-0.253093;-0.05194339;0;
308.792;0;0;132.639;3.094751;-9.727642;317.7447;313.3217;0.007030659;0.2729455;0;
176.5481;0;0;147.5606;43.1467;-13.26784;184.5547;184.6339;0.007023595;0.1427366;0;
148.8845;0;0;122.2375;58.24125;-15.86684;158.2574;160.8353;-0.3178202;-0.1172762;0;
-380.0618;0;0;-108.3944;32.46128;-18.93199;-361.328;-359.7523;0.007335885;0.2726457;0;
-671.9705;0;0;-351.0385;34.4384;-20.45358;-651.0067;-647.496;0.2022305;0.6621758;0;
-343.7724;0;0;-146.7883;24.75825;-24.3849;-327.3274;-323.3205;0.007125312;0.01183699;0;
-217.178;0;0;-7.960489;16.89649;-25.901;-198.6255;-199.0579;0.07208549;-0.572881;0;
-170.608;0;0;-29.31675;27.32836;-19.5787;-151.6995;-153.7556;0.1369804;-0.05256661;0;
398.2151;0;0;123.6983;25.29215;-18.01842;409.8583;408.9911;-0.1879939;0.3372903;0;
683.7337;0;0;158.3065;11.66908;-12.10594;694.803;693.0622;-0.5126417;-0.05285271;0;
300.6764;0;0;133.285;7.30407;-8.074924;317.0444;315.1804;0.007612084;0.0771351;0;
168.9403;0;0;146.2695;7.697897;-7.463964;184.4173;187.1154;0.1375391;0.2719596;0;
153.7156;0;0;129.0061;4.944472;-3.772525;170.4889;175.6206;0.1374009;0.01181697;0;
-379.6708;0;0;-97.07246;10.96772;-6.046154;-353.8564;-350.2916;0.2671975;-0.1181296;0;
-683.9487;0;0;-348.3486;12.56429;-4.767403;-655.4741;-650.3511;-0.122875;-0.2479456;0;
-352.1154;0;0;-146.5998;8.800625;-1.078674;-328.7293;-322.9244;0.2670525;0.07714029;0;
-218.1412;0;0;-2.025065;8.724433;0.1950859;-193.9666;-192.9776;0.3967189;0.4668668;0;
-168.5718;0;0;-24.82407;13.06992;3.945812;-144.4215;-145.4325;-0.1234185;0.07659367;0;
398.6875;0;0;123.6887;15.33397;5.616421;415.2549;415.3069;-0.05832713;0.01154935;0;
679.3331;0;0;157.6723;5.204502;7.553282;695.3841;693.9368;-0.3831052;0.01153775;0;
300.2157;0;0;133.7133;1.916742;8.885229;321.8728;320.2395;-0.4476876;-0.3133106;0;
172.5406;0;0;146.1976;7.541871;7.670731;192.7391;195.4178;-0.1224011;0.07680833;0;
149.6911;0;0;126.9353;4.319112;6.926211;170.1817;175.5439;-0.3171801;0.4015678;0;
-378.4439;0;0;-93.08167;7.462604;8.325892;-349.3533;-344.996;0.007975294;0.2712297;0;
-670.4167;0;0;-338.2399;5.847515;8.049595;-639.7311;-634.9409;0.2028693;0.1410225;0;
-346.4055;0;0;-143.8725;0.8187735;3.419807;-320.8733;-315.4632;-0.2521059;0.01094606;0;
-219.1213;0;0;-5.984696;2.089772;2.478609;-192.2403;-189.9591;-0.31682;0.2058371;0;
-175.1106;0;0;-26.59332;-23.70015;-3.083343;-148.0068;-147.1022;0.2032371;0.335565;0;
388.9069;0;0;123.483;-30.91;-6.563357;408.1125;410.2655;0.3979349;0.2702605;0;
683.8677;0;0;157.9665;-19.9606;1.749;701.6171;702.3312;0.07269838;0.3349562;0;
301.6848;0;0;133.445;-23.3568;2.283106;324.9761;325.6895;0.1375927;0.3346197;0;
158.7658;0;0;145.5548;-3.57373;0.7402042;181.9088;186.9319;0.3323565;0.2693161;0;
147.4869;0;0;132.3526;2.458081;1.342307;172.6681;179.0604;0.2020878;-0.05579124;0;
-376.7104;0;0;-88.7943;-0.6258475;0.06828236;-342.8089;-338.5469;-0.05798462;-0.1207025;0;
-680.6164;0;0;-341.453;4.934487;0.8720089;-644.75;-639.243;-0.2528284;0.3341902;0;
-348.3492;0;0;-140.7731;-4.983458;-4.420397;-316.5168;-310.7654;0.007295028;0.3988217;0;
-218.2519;0;0;2.796213;-4.308865;-5.956563;-185.5769;-184.3915;0.2021897;0.07358426;0;
-176.7408;0;0;-23.0686;-8.859862;-2.400482;-144.8483;-145.6631;0.2669539;-0.1213917;0;
389.0899;0;0;123.7558;-12.46731;-2.866951;412.8295;413.5772;0.136751;0.008664941;0;
673.993;0;0;157.427;1.410322;1.824613;696.7717;696.3943;-0.2531905;0.07362359;0;
297.5047;0;0;133.5307;2.547004;3.765163;326.2575;326.1303;0.07190064;0.138517;0;
164.7724;0;0;145.7653;6.161767;0.4123551;192.8716;196.8674;0.4616324;0.4632145;0;
145.5539;0;0;128.8148;9.035964;1.014787;174.4994;179.1784;0.2012992;0.07294499;0;
-378.2667;0;0;-90.76683;5.208492;0.4779041;-340.7296;-337.7419;0.3310317;-0.057063;0;
-681.359;0;0;-340.55;6.810849;0.4104409;-642.1105;-636.6896;0.525601;0.1378964;0;
-357.7117;0;0;-144.5562;-3.17633;0.945892;-323.4377;-317.0227;0.2002362;-0.1221116;0;
-224.2317;0;0;-0.04600114;-6.856833;0.2751122;-188.0556;-186.2073;0.07010033;-0.05702152;0;
-178.7167;0;0;-22.22231;-0.553304;2.217341;-141.265;-141.605;-0.05990479;0.2029051;0;
383.9302;0;0;123.3519;-1.825546;1.679249;414.5351;415.1325;-0.4496486;0.1377339;0;
676.2723;0;0;157.5232;0.3197424;2.213425;705.2222;704.1324;-0.2542948;-0.1222738;0;
298.8446;0;0;133.377;1.190077;1.876287;332.763;331.6743;-0.2540393;-0.1871183;0;
155.4912;0;0;145.4243;-2.361092;-1.608711;189.3755;192.5358;-0.5136534;-0.121963;0;
141.342;0;0;132.1598;-3.163003;-2.276802;176.8165;182.035;-0.1233332;0.2029963;0;
-380.5378;0;0;-84.67658;-0.4131584;-8.905703;-335.6037;-331.1401;0.2016274;0.332727;0;
-690.7493;0;0;-338.5264;0.1904692;-11.71004;-642.7994;-637.2158;0.006522782;-0.05741138;0;
-355.3484;0;0;-140.6605;-4.498772;-8.684039;-313.1314;-307.0537;-0.3183205;-0.2522557;0;
-207.6904;0;0;16.08962;-5.030115;-9.680057;-165.0161;-163.3172;-0.2530333;-0.1870349;0;
-174.4983;0;0;-9.663608;-6.967443;-5.584494;-132.1167;-132.7934;0.137025;-0.3167816;0;
380.5856;0;0;123.1543;-8.568032;-3.502411;413.9916;415.0647;0.07191999;-0.1865287;0;
678.3658;0;0;156.7636;-2.531204;-7.182831;710.1765;710.4365;0.07184772;0.2034628;0;
300.4988;0;0;133.8676;-1.389584;-6.773716;338.2745;337.972;0.2666776;0.2032584;0;
167.0763;0;0;144.9149;-1.254466;-1.475503;204.6891;208.135;-0.1233945;-0.3816519;0;
154.4147;0;0;130.5265;0.3543846;1.674178;193.8638;199.1178;-0.2532052;-0.5761704;0;
-379.847;0;0;-86.18332;-1.320911;-4.556795;-332.3166;-327.7551;0.266788;-0.1208201;0;
-689.6844;0;0;-334.5968;-0.2478567;-4.954114;-641.2023;-635.271;0.3314873;0.07420329;0;
-367.0907;0;0;-142.1697;-4.198747;0.2754106;-322.9052;-317.4171;-0.2535519;0.2690307;0;
-238.5988;0;0;-1.097646;-6.606401;-0.9975418;-193.2083;-191.5363;-0.3182645;0.3986951;0;
-193.1318;0;0;-21.71118;4.653369;9.385571;-148.8488;-148.178;-0.1230426;0.2683598;0;
377.4631;0;0;123.9249;6.993218;12.12244;413.0184;414.4381;-0.2528537;-0.05674655;0;
675.8087;0;0;156.6589;-0.3821749;0.4554737;709.9539;709.1234;-0.4475016;-0.2515916;0;
299.3185;0;0;133.638;-0.7165836;-1.219557;340.4884;339.034;-0.3171173;-0.1863714;0;
162.3989;0;0;144.3732;-2.457176;-7.581466;203.465;206.5723;-0.186864;-0.05624947;0;
151.6785;0;0;134.8579;-4.129646;-11.05696;192.7034;198.0564;-0.1866762;0.1387091;0;
-378.9572;0;0;-74.36002;-1.446179;-12.7203;-330.29;-326.0668;0.3332501;-0.2512344;0;
-697.0414;0;0;-331.531;-1.645797;-15.18589;-647.2361;-641.5804;0.4628499;-0.5758186;0;
-365.07;0;0;-141.918;-3.519177;-11.15178;-320.4997;-313.9751;-0.3172233;0.009466047;0;
-225.8979;0;0;5.525537;-3.985132;-10.53772;-180.248;-178.1027;-0.2519372;0.07442389;0;
-189.1268;0;0;-20.90423;-5.72244;-6.106385;-143.5227;-144.2532;-0.1217493;0.009381754;0;
378.403;0;0;122.2323;-7.525351;-3.554898;416.1527;416.8598;-0.2515617;0.2042744;0;
671.9376;0;0;157.2793;0.2527186;-2.74753;708.4625;708.2942;0.2034625;0.07413443;0;
294.8891;0;0;133.0084;4.003509;-1.472216;336.937;336.2067;0.2682254;0.1390273;0;
162.7841;0;0;145.431;-7.454717;-0.2650441;203.5403;206.4339;-0.1218482;0.1388876;0;
142.1933;0;0;130.105;-6.710292;0.5390174;184.033;188.4229;-0.1866931;0.008813331;0;
-385.6219;0;0;-80.66988;-5.631823;-4.753054;-333.9542;-330.5056;-0.1865055;-0.2510649;0;
-690.6434;0;0;-328.8391;-6.430448;-6.288886;-636.8412;-632.2092;0.1385186;-0.4457147;0;
-368.1112;0;0;-141.1653;9.986711;-8.69383;-320.2351;-316.4824;0.4632161;-0.2503648;0;
-230.2479;0;0;4.840731;13.79507;-10.49363;-182.1701;-182.1692;0.3977833;-0.1201785;0;
-183.5399;0;0;-18.21505;22.22033;-11.82263;-135.0107;-135.8219;0.3324163;-0.4448945;0;
374.6765;0;0;122.4201;29.83381;-14.15515;415.4109;417.2867;-0.1226891;-0.2495454;0;
669.8389;0;0;156.5299;12.65718;-7.10784;708.7209;709.7826;-0.2525005;0.07554206;0;
300.1639;0;0;133.3841;10.76845;-6.096076;345.1286;345.0024;0.07258993;0.07546616;0;
157.3714;0;0;144.3695;15.17826;-8.1663;201.5414;205.3508;-0.122385;0.205325;0;
142.6581;0;0;131.7932;12.61839;-6.952401;186.9711;193.1505;-0.5770335;0.07518402;0;
-378.9731;0;0;-74.42313;16.89164;-12.70583;-325.5843;-320.2856;-0.446519;-0.1197936;0;
-695.9329;0;0;-327.721;16.67457;-13.76479;-639.4742;-633.0564;-0.05626626;-0.1846405;0;
-359.1525;0;0;-135.6756;15.71981;-11.94242;-308.1229;-301.774;-0.1211771;-0.379357;0;
-210.3037;0;0;22.56879;17.11054;-11.72947;-160.075;-157.5431;-0.1860226;-0.1191065;0;
-189.103;0;0;-10.12497;11.33257;-11.31591;-139.2371;-138.1445;0.2689357;0.2058499;0;
366.183;0;0;120.2572;11.38853;-10.83566;409.5021;411.4056;0.2036981;0.1406757;0;
676.284;0;0;157.1178;9.434703;-6.872774;718.1852;718.2128;-0.1213433;0.01059968;0;
293.2966;0;0;132.9095;5.87525;-5.727281;340.2157;340.6181;0.008713322;0.2054911;0;
144.7639;0;0;144.2077;23.28442;-1.635567;191.0737;197.1603;-0.05626278;0.3352193;0;
142.1197;0;0;132.3187;25.87299;0.4424255;188.8827;197.0246;0.0087611;-0.1848563;0;
-374.2011;0;0;-70.71229;19.55133;-1.701351;-317.865;-312.6048;0.07371964;-0.3146052;0;
-685.9807;0;0;-315.768;20.80448;-0.2931218;-626.2654;-619.6986;0.1386129;-0.2493218;0;
-365.4522;0;0;-133.1674;7.118574;-6.722945;-311.544;-303.4846;0.2684083;-0.2490713;0;
-233.8385;0;0;12.51828;3.226655;-8.32378;-179.7346;-176.181;-0.0566981;0.01104837;0;
-193.4362;0;0;-11.73212;-1.599358;-3.626733;-139.699;-139.085;-0.05664112;-0.1838648;0;
371.5993;0;0;123.3368;-7.625971;-3.42214;417.1615;418.5245;0.07335047;-0.378582;0;
675.2606;0;0;155.6341;3.768546;-1.476196;719.7775;720.1396;0.008309427;0.2714718;0;
300.4576;0;0;133.4887;4.367971;-1.072937;351.614;351.8508;0.2032031;0.4661011;0;
157.9147;0;0;143.9743;4.965819;2.813151;208.5824;212.817;0.3979009;-0.1840407;0;
149.6976;0;0;132.2729;9.046666;3.41317;199.9396;205.9815;0.1376318;-0.1188885;0;
-367.443;0;0;-62.44969;-1.411273;4.414363;-309.6303;-305.0937;-0.3172779;0.2710351;0;
-683.8521;0;0;-310.5122;-2.682653;5.816569;-623.4738;-617.8798;-0.3819264;0.2707627;0;
-370.0098;0;0;-135.3506;6.49707;-6.111994;-314.0025;-307.6021;0.138196;0.140556;0;
-236.9547;0;0;8.837987;6.423193;-9.655826;-179.5045;-176.9835;0.2030245;0.1404147;0;
-203.3584;0;0;-20.03139;16.39707;-7.301721;-146.5281;-145.5089;-0.3169182;-0.05462838;0;
363.811;0;0;118.9189;21.8056;-8.968957;410.8391;413.294;-0.4465345;-0.05457349;0;
682.0977;0;0;157.3425;7.115287;-8.15615;727.3295;727.0958;-0.4460858;0.1403834;0;
307.7877;0;0;132.5718;6.705996;-7.411142;359.2208;358.1753;-0.4456376;-0.3145291;0;
158.4908;0;0;143.7454;7.30247;-6.666883;209.5599;212.6384;-0.05538572;-0.1842784;0;
146.5874;0;0;133.8559;4.950608;-5.052716;198.3549;202.9919;0.334474;0.4006129;0;
-378.9832;0;0;-69.17663;17.1358;-1.899441;-317.96;-315.3266;0.2042032;-0.05456105;0;
-699.5037;0;0;-323.4792;19.66417;-0.5579962;-635.6057;-632.6001;0.07406335;-0.4443103;0;
-374.8386;0;0;-141.3706;16.22816;5.604872;-317.0019;-312.8749;0.2039236;-0.1839945;0;
-233.0331;0;0;8.446219;16.48028;8.010626;-175.1295;-174.255;0.1387514;0.2059945;0;
-203.5011;0;0;-19.29833;17.73651;6.461969;-145.5933;-146.9686;-0.05629007;0.07585281;0;
354.8603;0;0;119.8386;18.05349;7.862118;403.4646;403.465;-0.3161029;0.01080924;0;
673.0311;0;0;156.887;11.80605;0.151303;718.7755;717.4016;-0.3807526;0.2057004;0;
302.3533;0;0;132.3042;10.45404;-2.126147;353.9863;352.6762;0.07440138;0.07555905;0;
150.7506;0;0;144.0403;6.022911;-1.65513;201.6445;205.2083;0.2042613;0.1404505;0;
138.9175;0;0;131.0895;3.271169;-4.265801;189.9476;195.5069;-0.05581331;0.075342;0;
-383.1473;0;0;-76.6254;7.420092;1.699844;-323.1104;-319.6182;-0.1856919;0.4650703;0;
-700.1028;0;0;-327.7971;6.475607;2.367965;-637.2527;-633.9514;-0.120538;0.6595051;0;
-379.3727;0;0;-142.1234;14.4397;-0.9165776;-321.5833;-318.4727;0.1394525;-0.1207657;0;
-243.0598;0;0;4.69567;18.51103;-0.7816908;-185.3284;-186.4064;0.009377693;0.2691597;0;
-205.147;0;0;-21.29599;9.24903;-3.661049;-149.0354;-151.7364;-0.3154684;0.6586933;0;
359.4629;0;0;120.4042;9.172388;-5.130995;406.6476;406.0732;0.0746526;0.07332535;0;
673.0065;0;0;156.515;10.03383;-3.049369;718.3947;716.2591;0.2694796;0.008284318;0;
299.7675;0;0;132.1199;7.344428;-3.247253;351.6068;348.7238;-0.05562787;0.07324335;0;
150.2288;0;0;143.7937;17.04994;-5.722359;202.7032;203.7586;-0.3154413;-0.251667;0;
141.9569;0;0;132.8422;18.10453;-5.783592;195.1282;197.7442;-0.1202224;-0.1864468;0;
-378.1743;0;0;-70.00191;11.65598;-7.251283;-317.1855;-315.8214;0.4646045;0.1385773;0;
-695.0099;0;0;-320.743;12.3812;-7.377963;-632.8329;-630.5332;0.334203;0.008503375;0;
-371.1615;0;0;-138.6371;-0.8941013;-5.227218;-314.1694;-311.0599;-0.1209042;-0.05647251;0;
-235.0443;0;0;7.49133;-4.911691;-4.887051;-176.3603;-175.8152;-0.2507174;0.008551574;0;
-208.0715;0;0;-20.87694;1.322535;-0.26044;-148.8844;-149.6516;-0.3804002;-0.186359;0;
349.4199;0;0;119.0737;0.5169231;1.414395;402.5506;402.7212;-0.2500833;-0.2511391;0;
668.5332;0;0;156.6851;7.147836;0.006332242;723.6721;721.1563;0.0100374;-0.3158541;0;
299.6716;0;0;132.2274;9.686249;-0.2616059;362.5635;359.1133;-0.05494003;-0.1206347;0;
148.2589;0;0;143.7761;13.56128;0.8103839;208.1517;209.8273;-0.05488483;0.5291599;0;
142.1129;0;0;132.6997;17.43242;0.8765526;196.3858;201.2457;0.1400723;0.5935956;0;
-375.3948;0;0;-67.89542;12.79321;-5.822499;-316.6787;-312.4484;0.399801;0.2031951;0;
-697.6679;0;0;-320.6376;12.17714;-7.959981;-637.7615;-632.2861;0.1395299;0.2679582;0;
-375.3161;0;0;-140.6557;19.60062;-8.554829;-321.2169;-314.9974;-0.1204797;0.2027216;0;
-230.1367;0;0;12.09637;22.32661;-9.550977;-175.4673;-172.9396;0.07454339;-0.1223188;0;
-199.2334;0;0;-16.02665;8.841221;-9.876295;-144.6813;-144.3427;0.07446849;-0.3820652;0;
352.7519;0;0;118.6093;5.750878;-9.933354;398.6285;401.0283;0.009426325;0.008122713;0;
671.0498;0;0;156.2836;12.84505;-6.373278;713.8818;715.4047;0.3992209;0.3979186;0;
303.8723;0;0;132.1386;12.43097;-5.496217;351.159;351.9306;0.3988198;0.07268208;0;
150.2065;0;0;143.0628;14.9631;1.408425;195.759;201.4025;0.07358232;0.2025437;0;
150.3055;0;0;134.6107;16.15352;4.756034;194.188;201.9498;0.2684104;0.07240553;0;
-362.4004;0;0;-66.98576;17.54478;-0.7412227;-312.0652;-306.1229;-0.056696;-0.1875366;0;
-698.1174;0;0;-330.8483;20.07177;-1.343202;-646.1461;-639.2102;-0.251541;0.007553857;0;
-376.2648;0;0;-151.1685;16.97112;1.136394;-329.7805;-322.7892;0.008581061;0.332383;0;
-221.0271;0;0;14.21284;18.96282;0.9343032;-175.4016;-170.7286;-0.3812316;0.2670817;0;
-201.9395;0;0;-13.66244;16.93501;-4.157217;-156.7971;-152.7535;-0.5757506;-0.2529255;0;
349.9236;0;0;117.5353;16.7833;-6.162527;388.7738;392.8758;-0.2503353;-0.187704;0;
676.9075;0;0;156.5851;25.13918;-8.165701;715.0939;717.1928;0.009785556;-0.05758067;0;
302.2278;0;0;131.94;25.38234;-11.10474;346.4978;347.7201;0.009775724;-0.3823595;0;
147.8141;0;0;142.9269;30.31333;-7.945389;192.7892;197.9458;-0.05520144;-0.2520407;0;
146.3537;0;0;133.1631;28.60793;-9.076116;192.5331;199.7459;0.009821368;0.07304933;0;
-366.8479;0;0;-65.68333;29.78561;-9.200962;-312.4067;-306.9502;-0.2500579;0.2029106;0;
-692.7528;0;0;-320.9265;27.61223;-8.387921;-635.4927;-629.3546;-0.1198719;0.007804688;0;
-380.7757;0;0;-144.6924;10.5042;-15.81448;-326.759;-320.1273;0.01018321;-0.3820072;0;
-240.6508;0;0;8.875819;5.938318;-16.40131;-185.4391;-183.1868;-0.2496964;-0.1867213;0;
-203.9898;0;0;-18.55681;-24.34345;-17.79147;-149.3333;-149.2697;0.07539121;0.07333566;0;
358.8073;0;0;117.8932;-38.85367;-18.84532;405.9752;407.1631;-0.1195866;0.07326198;0;
669.1656;0;0;156.2554;-21.33221;-10.18583;715.0992;714.7867;-0.6392052;0.1381557;0;
295.056;0;0;131.8606;-24.05744;-7.362314;347.4401;347.1279;0.01111055;0.008082185;0;
147.0213;0;0;142.7851;-19.14315;-4.206841;200.9145;203.851;0.2060014;0.2679434;0;
140.939;0;0;134.3958;-14.837;-0.04979352;195.84;199.4607;-0.05407494;0.6574783;0;
-371.3827;0;0;-58.64233;-17.23397;-0.04974348;-308.166;-307.0477;0.2058488;0.3969482;0;
-699.9691;0;0;-318.2029;-15.13957;2.696607;-634.3173;-631.8882;0.1406746;0.0717127;0;
-383.7994;0;0;-145.9071;-6.685242;4.033556;-323.1485;-318.6604;-0.1843035;0.2015753;0;
-230.0533;0;0;17.40747;-3.061202;4.766193;-168.2765;-167.4786;-0.119151;0.2663401;0;
-207.271;0;0;-10.97076;-8.283039;10.32087;-145.9935;-147.6952;-0.2489659;0.3310398;0;
341.8488;0;0;116.976;-7.40406;12.18602;393.632;393.6187;-0.3786504;0.2007725;0;
673.4635;0;0;155.9638;-15.36722;9.82937;722.2586;720.9335;-0.1833679;-0.4491026;0;
298.4749;0;0;131.8816;-18.70069;10.42234;352.6558;350.8947;0.2066204;-0.5136187;0;
132.8207;0;0;142.3062;-12.65367;8.067587;186.8846;189.623;0.2064127;0.006636099;0;
137.5598;0;0;135.2917;-12.57361;7.456634;193.0061;197.0537;-0.1186314;0.006629431;0;
-370.9479;0;0;-56.99764;-13.6327;7.382158;-306.187;-303.3929;0.01142252;-0.05834457;0;
-704.1575;0;0;-313.6238;-13.48528;5.76715;-637.0878;-632.7348;-0.2484583;0.006681395;0;
-384.5478;0;0;-140.0208;-9.184826;11.72271;-323.7923;-318.944;-0.2482087;-0.05829266;0;
-229.6765;0;0;21.28886;-7.769077;12.38076;-168.6698;-167.2621;0.5966161;-0.1232014;0;
-198.2739;0;0;-7.905365;-7.359129;10.22487;-137.3285;-137.2965;0.466082;0.006857047;0;
344.6525;0;0;118.1642;-6.6148;10.34856;397.8531;399.3843;-0.3139944;0.07181752;0;
658.2109;0;0;155.2768;-8.082023;6.319311;710.296;710.7013;-0.2487116;-0.188124;0;
297.2307;0;0;132.1323;-8.677114;5.3752;354.7607;354.5408;-0.05355964;-0.1229677;0;
147.6945;0;0;142.2444;-11.14664;2.623621;204.9793;208.6952;0.07642886;0.3319273;0;
140.4871;0;0;133.2934;-12.54196;1.482274;198.6514;205.1122;0.1413194;0.2666264;0;
-375.4572;0;0;-60.30581;-14.67281;3.490273;-309.4803;-302.8387;0.01124273;0.07145651;0;
-708.9747;0;0;-317.7408;-15.59607;4.022507;-641.1275;-632.9308;0.3360681;0.07138471;0;
-389.6724;0;0;-141.6973;-16.85222;6.6308;-327.0783;-318.5775;0.4006978;0.1362803;0;
-235.2333;0;0;18.55206;-17.03636;8.097762;-172.015;-167.4582;-0.1194436;-0.05875865;0;
-216.4438;0;0;-14.2626;-15.41165;12.57736;-153.0391;-150.8607;-0.2492582;-0.05869961;0;
334.9342;0;0;115.9988;-15.53087;14.57409;390.8414;393.5798;-0.1190731;0.2012288;0;
671.6157;0;0;156.2369;-10.62514;16.16703;726.1549;727.1415;0.1409159;0.2010266;0;
298.5656;0;0;131.4673;-10.68181;17.55743;358.922;359.033;0.07580699;0.2657919;0;
132.349;0;0;142.0798;-7.589622;14.52556;192.5823;196.6287;0.07573082;0.3954595;0;
133.7777;0;0;134.8781;-7.715717;14.10906;194.2004;200.6165;0.2055894;0.2651275;0;
-373.227;0;0;-56.91109;-12.06222;10.47793;-304.4317;-299.2714;0.07544815;-0.05997565;0;
-705.3098;0;0;-315.4114;-11.51424;8.859934;-633.6477;-627.9303;0.010405;-0.2548174;0;
-392.508;0;0;-144.5552;-31.8645;9.051859;-326.4776;-320.0788;0.07536189;-0.189594;0;
-243.0635;0;0;14.69753;-38.26285;8.707971;-176.912;-174.3303;0.01031882;-0.2543709;0;
-212.7094;0;0;-14.05279;-32.26353;9.034014;-146.9368;-145.9818;-0.1196262;-0.2541153;0;
333.8547;0;0;116.7081;-35.64639;9.292868;391.0031;393.2689;-0.119506;0.1359441;0;
658.356;0;0;155.5712;-23.15296;15.37885;713.5104;713.5875;0.1404834;0.2657422;0;
302.4355;0;0;131.3645;-19.98089;18.04272;363.2191;362.6091;0.2702769;0.3304425;0;
141.3999;0;0;141.8522;-17.41619;19.36413;202.06;205.6984;-0.05483134;-0.05969355;0;
130.5757;0;0;134.1509;-12.04006;21.68907;191.0499;196.8711;0.1401258;-0.3195029;0;
-371.2408;0;0;-52.70249;-21.53881;20.59555;-303.1438;-298.1405;0.4648217;-0.1242799;0;
-700.0773;0;0;-306.0222;-21.58451;20.23994;-628.363;-622.1154;0.07455058;0.2006817;0;
-389.717;0;0;-137.2993;-17.74443;22.63099;-322.7599;-315.3942;0.07447567;0.3304148;0;
-237.2769;0;0;20.69677;-17.32544;22.20635;-169.3876;-165.6524;0.1393682;-0.05972131;0;
-216.3614;0;0;-9.808702;-14.76243;18.56709;-147.6032;-146.0582;0.009293457;0.005306043;0;
326.7706;0;0;116.6376;-13.07266;16.94084;386.0894;389.0072;0.07425146;0.5250394;0;
663.273;0;0;155.0635;-8.572522;12.10117;719.846;721.0742;-0.3156272;0.4595445;0;
298.7894;0;0;131.6694;-3.540067;9.141758;361.9272;361.9048;-0.5751794;0.1342461;0;
131.4482;0;0;140.9699;-10.83753;5.984497;193.8354;198.1233;-0.05486275;-0.06079084;0;
139.312;0;0;137.0176;-11.89837;1.423766;200.887;208.1066;0.01015972;0.004237588;0;
-361.6387;0;0;-49.27648;9.279709;9.259094;-291.5674;-285.417;-0.1847525;-0.1906687;0;
-704.0405;0;0;-313.844;14.96381;10.05359;-631.2911;-624.2098;-0.05463219;-0.1255098;0;
-393.239;0;0;-146.2377;12.13574;-0.2716433;-327.0594;-318.7983;0.2702594;0.004551028;0;
-238.2965;0;0;18.51401;16.4778;-1.610907;-172.2459;-167.8037;0.4648899;0.06951381;0;
-214.6314;0;0;-13.36358;11.57112;-5.226367;-148.0224;-145.5837;-0.1202833;0.3942807;0;
325.6878;0;0;114.8979;14.03774;-7.565396;384.4213;388.0445;-0.5099665;0.4588518;0;
652.5086;0;0;155.8868;4.780237;-2.534196;708.8093;710.992;-0.2495847;0.06858673;0;
297.7185;0;0;130.6802;-0.6495738;-1.727855;358.8976;360.8283;0.1404701;-0.06141688;0;
138.874;0;0;141.8557;27.41607;-2.864828;200.7413;205.606;0.4651657;-0.1263225;0;
128.7395;0;0;132.4678;32.67981;-2.794967;191.5441;197.5284;0.3347636;0.2636085;0;
-377.1357;0;0;-56.94512;23.26985;2.566354;-307.7725;-302.169;0.3344272;0.3932783;0;
-707.5904;0;0;-310.3855;24.3182;4.640124;-636.6727;-629.1384;0.2691239;-0.06188828;0;
-402.9072;0;0;-144.0945;17.8634;1.755318;-336.6835;-328.2196;-0.2508853;-0.1917608;0;
-254.8266;0;0;13.84594;13.49119;2.691315;-186.7954;-182.0257;-0.1206985;-0.06163342;0;
-225.8974;0;0;-13.21688;17.09496;-2.334987;-154.9986;-153.0448;0.3341941;0.003395855;0;
321.7419;0;0;115.6691;16.74299;-4.61006;385.9478;389.6488;0.1389563;-0.1265422;0;
656.4377;0;0;155.0955;-1.894355;-1.256404;717.2683;719.5912;0.008882007;-0.4512518;0;
295.0219;0;0;130.9517;-7.585879;-3.599422;357.9154;358.6743;0.07384042;-0.5157657;0;
128.3716;0;0;141.19;-2.488042;1.159861;187.5162;191.96;-0.3160378;-0.06047608;0;
133.9273;0;0;134.1141;-5.231232;1.895508;191.0134;196.3898;-0.3157203;-0.06041532;0;
-364.2694;0;0;-58.61139;3.882727;-8.019627;-300.619;-296.6223;0.2043357;-0.1902893;0;
-707.6057;0;0;-321.9201;5.352695;-10.08804;-641.7703;-636.0286;0.07419571;0.394608;0;
-398.9245;0;0;-151.5571;6.150623;-13.56089;-336.9034;-331.1674;0.07412115;0.3292441;0;
-237.1672;0;0;15.63621;7.551939;-15.62374;-174.3963;-172.7891;-0.05588801;-0.1258581;0;
-212.1914;0;0;-13.80221;-4.378367;-17.48344;-152.4196;-153.4376;-0.3157012;-0.190699;0;
331.0614;0;0;114.2723;-11.67499;-19.74329;379.0291;378.0745;-0.1854493;-0.12554;0;
668.434;0;0;155.2618;1.130119;-10.41307;712.7303;710.3399;-0.4451323;0.06948818;0;
307.8183;0;0;130.8055;3.673603;-7.589324;358.1295;355.4292;-0.5746198;-0.06051634;0;
137.282;0;0;141.2313;-33.23634;-12.06943;188.0424;188.968;-0.2492057;-0.1903902;0;
133.8333;0;0;131.3443;-42.11155;-11.85636;185.2923;187.3414;-0.05405324;-0.06026423;0;
-365.1754;0;0;-61.94063;-35.03567;-7.557657;-306.2094;-305.849;0.07593576;-0.125171;0;
-702.139;0;0;-322.2475;-40.22538;-6.880234;-641.7329;-639.9986;-0.05407523;-0.2549799;0;
-395.2748;0;0;-152.4464;-23.57417;-6.672372;-339.8021;-337.0075;-0.2489229;-0.3846584;0;
-244.016;0;0;4.815299;-19.99953;-4.187421;-188.0992;-188.1185;-0.1187381;-0.1893699;0;
-221.2821;0;0;-27.54827;-14.82187;-16.03895;-165.2966;-165.9406;0.07628322;0.3305592;0;
326.2901;0;0;111.7219;-7.640656;-18.09918;375.0355;374.9544;-0.05372811;0.2652597;0;
665.2292;0;0;156.7745;-18.48397;-12.58852;711.9266;709.8466;-0.1186415;0.07009111;0;
308.3024;0;0;129.8179;-17.05888;-13.98251;360.6375;358.7469;0.2063144;0.134988;0;
138.5153;0;0;141.1817;-18.91677;-0.2373245;190.6104;193.282;-0.1187296;0.06988505;0;
136.502;0;0;134.8554;-21.04122;3.513958;188.4824;192.9628;-0.3135123;-0.1900546;0;
-362.3844;0;0;-54.06018;-12.17881;-1.446188;-302.3354;-299.0464;0.2065415;-0.3197983;0;
-704.9729;0;0;-315.1246;-11.36229;-1.042959;-642.3605;-637.5131;0.01143191;-0.05960757;0;
-396.4193;0;0;-149.8909;-10.07808;-3.721106;-338.7424;-333.0252;-0.248449;0.07038702;0;
-238.1628;0;0;10.05442;-8.059197;-5.324957;-180.1066;-178.1433;0.0766374;-0.05961841;0;
-219.4328;0;0;-19.06605;-12.13694;-11.41493;-161.2475;-161.66;0.1415277;0.0703762;0;
319.3919;0;0;113.9488;-11.78995;-13.34585;369.6477;370.0478;-0.1184838;0.3951422;0;
659.3375;0;0;155.2509;-12.78248;-21.37027;707.1689;706.2568;-0.2482995;0.3947451;0;
303.0412;0;0;130.3574;-13.77401;-24.69782;356.9466;355.598;0.07678673;0.2644138;0;
132.9471;0;0;140.9085;-7.598232;-19.31449;187.3605;190.5735;0.2716116;-0.1256559;0;
135.3747;0;0;134.1453;-5.715563;-20.56776;190.4831;196.0666;0.07643666;-0.4503664;0;
-359.5751;0;0;-50.52177;-8.120718;-6.480918;-295.9015;-291.323;-0.1185422;-0.2550118;0;
-704.6027;0;0;-312.4643;-6.773387;-1.852705;-638.1194;-632.6711;-0.4432598;-0.1897882;0;
-400.922;0;0;-150.3567;-9.177479;-5.936802;-339.5655;-334.1851;-0.3128797;-0.1246302;0;
-244.7224;0;0;11.77549;-11.31171;-3.720401;-183.4901;-181.3009;-0.05269594;0.1353644;0;
-229.609;0;0;-19.97039;0.8234435;-8.673277;-168.6256;-167.3757;-0.3125124;0.3301304;0;
319.2834;0;0;111.9209;3.300863;-9.06646;372.1471;374.3328;-0.5071003;0.004961984;0;
675.5334;0;0;155.5989;-6.950233;-15.21966;725.7827;725.9047;-0.1817541;-0.5147817;0;
315.6601;0;0;129.9554;-8.886608;-18.28546;371.731;370.8535;0.4031346;0.135409;0;
134.2465;0;0;140.7568;-13.16361;-15.78884;190.386;194.0695;0.2078275;0.5250769;0;
131.8002;0;0;133.9937;-17.77208;-17.91631;188.2581;194.3743;-0.1172181;0.459582;0;
-359.8976;0;0;-48.42431;-14.60639;-10.59741;-295.6878;-290.5774;0.07780176;0.5890549;0;
-704.3002;0;0;-311.306;-15.66345;-8.778219;-638.0934;-631.8013;-0.1821458;0.1336916;0;
-403.2435;0;0;-151.0111;-25.35962;-12.11842;-342.0383;-335.6275;-0.2469301;-0.1263121;0;
-235.2975;0;0;22.11619;-28.14816;-11.43642;-174.1538;-171.685;-0.05177997;0.06871686;0;
-216.3205;0;0;-7.016402;-27.71773;-14.30519;-155.4257;-155.3956;0.2081414;0.003680457;0;
316.6291;0;0;112.9928;-29.43119;-15.29556;369.5917;370.3089;0.0779976;0.1985788;0;
666.0726;0;0;154.6708;-22.36902;-16.55275;716.9205;715.763;-0.5067868;0.3283139;0;
302.3983;0;0;130.34;-19.39881;-18.21069;359.5669;357.8483;-0.4413103;0.003147335;0;
123.6842;0;0;139.7668;-20.78584;-18.52731;182.0447;184.7631;0.01390454;0.003144172;0;
138.24;0;0;135.3784;-16.74646;-20.0493;197.0416;201.6314;0.3387273;0.1330757;0;
-360.0235;0;0;-53.66262;-21.21761;-18.89044;-294.0346;-290.6364;0.1434849;0.132942;0;
-716.6074;0;0;-323.0358;-21.59746;-18.93844;-647.6862;-643.0421;0.01340604;0.1977758;0;
-404.9811;0;0;-156.045;-6.371486;-22.26844;-340.3146;-336.3623;0.1433273;0.3275117;0;
-236.0963;0;0;17.71207;-2.681389;-22.64796;-171.4949;-171.9193;0.01324855;0.2622153;0;
-226.6138;0;0;-13.10275;-2.142831;-23.76391;-161.515;-163.3757;-0.0517321;0.002082431;0;
305.659;0;0;112.9721;0.6733372;-24.14193;362.7589;362.2743;-0.1166475;-0.3227564;0;
659.3615;0;0;154.65;-2.609869;-22.24215;713.1556;711.6095;-0.2464649;-0.2574647;0;
309.6244;0;0;130.0694;-1.602869;-22.08584;368.7367;367.3171;-0.05131526;0.0676307;0;
136.9624;0;0;140.6208;-6.825195;-19.25048;195.9529;198.8451;0.07867099;0.2624648;0;
136.325;0;0;132.1712;-7.62262;-18.36036;194.6316;199.7697;0.01362459;-0.127603;0;
-356.8141;0;0;-49.55779;-9.691066;-16.33243;-291.8196;-287.2488;0.07857824;-0.6472135;0;
-703.4062;0;0;-311.5638;-13.29865;-14.03872;-636.353;-630.8499;0.01353195;-0.7764979;0;
-404.8492;0;0;-151.5185;1.785262;-20.2539;-343.423;-337.9254;-0.1164163;-0.4508809;0;
-239.8376;0;0;12.73876;3.391058;-20.90338;-178.7231;-176.9791;-0.05133202;0.004343481;0;
-238.3472;0;0;-22.5688;3.656071;-16.19357;-175.7949;-176.1765;0.2085889;-0.1255956;0;
292.8129;0;0;108.9503;6.532785;-14.63681;347.0565;347.9246;0.143412;-0.3853387;0;
676.2008;0;0;155.9421;-8.143163;-16.02863;725.9547;725.6974;0.01333321;-0.1900495;0;
326.5718;0;0;129.9234;-10.8143;-15.47678;382.0852;380.7663;0.07828715;-0.05992387;0;
136.7139;0;0;139.2881;-17.0991;-7.959262;192.9212;195.3517;0.1431758;0.07007103;0;
153.6304;0;0;137.1492;-23.3112;-4.870172;209.4689;214.1459;0.337934;0.07000063;0;
-348.3342;0;0;-47.83323;-10.62813;-4.66433;-285.118;-280.8206;0.4675291;-0.1249717;0;
-725.9817;0;0;-327.3946;-9.345629;-2.516189;-659.8306;-653.601;0.07725529;0.1350232;0;
-420.0306;0;0;-165.8342;-14.89497;-0.9060704;-359.006;-352.4702;-0.3775937;0.3297895;0;
-248.0073;0;0;7.05811;-14.00935;0.8362743;-186.9815;-184.6377;-0.2472796;-0.1253132;0;
-240.137;0;0;-27.49412;-13.92889;-2.245659;-179.3599;-179.6421;0.2727076;-0.450024;0;
301.6446;0;0;109.2773;-13.24434;-3.382112;353.5526;354.8323;0.2724335;-0.05976778;0;
665.0337;0;0;156.3937;-11.69079;2.180748;714.016;714.9821;-0.1826116;0.2001617;0;
313.8542;0;0;128.6879;-11.47797;2.781403;368.9716;368.9997;-0.3773301;0.07002585;0;
145.8106;0;0;140.8649;-7.649021;0.2332565;201.4349;205.3985;-0.1170816;-0.05997921;0;
149.7246;0;0;132.3526;-6.100117;0.300005;205.8551;211.7513;0.2728401;-0.3197883;0;
-354.2976;0;0;-50.25116;-8.505861;-3.853116;-290.8521;-286.1488;0.3375333;-0.4494017;0;
-711.0121;0;0;-315.8796;-7.224517;-6.260508;-644.7568;-639.0588;0.2722268;-0.3839828;0;
-415.9456;0;0;-160.0154;-12.64227;-2.168381;-353.8799;-348.3749;-0.1828181;-0.578499;0;
-245.3632;0;0;14.43277;-14.50557;-2.836031;-183.1099;-182.0458;-0.2476018;-0.253081;0;
-221.691;0;0;-11.75608;-5.448668;-3.70396;-159.3128;-160.9984;0.2074184;0.2019447;0;
308.0781;0;0;111.6937;-3.299739;-3.365323;361.8979;360.5263;-0.5723981;0.006839774;0;
666.5257;0;0;154.3725;-6.645326;-8.117608;716.2309;713.2991;-0.6367903;-0.1231018;0;
317.8434;0;0;129.7921;-6.437578;-8.243417;373.4957;369.8171;0.208425;-0.1879454;0;
136.6775;0;0;139.2194;-0.2691674;-10.57954;192.8985;193.5964;-0.1166212;-0.4476259;0;
149.7835;0;0;136.5808;2.075628;-11.57353;205.1983;208.2694;-0.05153663;-0.3822088;0;
-340.6831;0;0;-44.52801;-1.743875;-5.801489;-277.4528;-276.4463;0.07844983;-0.1869228;0;
-703.3458;0;0;-315.7219;-1.273608;-5.326901;-636.9932;-635.238;-0.2464657;-0.1217676;0;
-402.6649;0;0;-156.2347;-2.947268;-0.09700204;-341.3764;-338.9359;0.2085533;-0.0566779;0;
-228.0353;0;0;22.02026;-4.819341;0.9748223;-167.1833;-168.3059;0.4032458;-0.1865556;0;
-212.5639;0;0;-9.236162;2.888661;1.040826;-152.0228;-154.831;0.01303657;-0.5761722;0;
313.8228;0;0;111.4;5.029212;1.709609;366.4319;365.1883;0.2079255;-0.3157239;0;
667.9542;0;0;154.204;-3.483283;-10.14784;717.5745;715.5825;0.2726839;0.4642014;0;
320.395;0;0;129.5613;-4.818954;-15.02728;375.2752;372.6605;-0.1173941;0.1388983;0;
145.3483;0;0;139.6135;-0.05868965;-15.21313;200.2359;200.9347;-0.3121782;-0.2510453;0;
149.3877;0;0;133.4138;0.7456526;-18.61385;204.0327;207.0421;-0.4417992;0.333913;0;
-340.7036;0;0;-39.63334;-2.738697;-24.82444;-278.4924;-276.423;-0.1814859;0.3335775;0;
-690.3729;0;0;-300.4624;-4.208838;-27.8136;-625.1006;-621.5966;0.3384352;0.008405578;0;
-401.3866;0;0;-153.4217;0.1486718;-26.98186;-340.6777;-336.6774;0.2731278;0.07336449;0;
-235.1292;0;0;15.52258;-1.124275;-27.75854;-175.2309;-175.9198;0.01298397;-0.1216113;0;
-211.3422;0;0;-11.10465;2.159384;-24.24766;-152.7535;-155.0659;-0.2468984;-0.2514237;0;
314.1061;0;0;110.5953;3.496385;-22.74967;364.7025;363.7043;-0.4415524;-0.1212364;0;
674.5467;0;0;154.1498;-10.30488;-19.98064;722.7808;719.035;0.07863002;-0.05614728;0;
324.8568;0;0;129.5697;-12.97384;-17.88409;378.2274;373.7357;0.4683551;0.1388112;0;
134.1886;0;0;138.7473;-14.76947;-16.59344;186.8184;187.2662;-0.181789;0.07370435;0;
153.0442;0;0;136.8587;-16.2285;-14.50042;205.3088;207.9426;-0.4414757;0.203565;0;
-329.617;0;0;-38.50319;-17.88615;-17.96884;-269.7214;-268.0897;0.2736087;0.3332951;0;
-699.2249;0;0;-306.3923;-20.94964;-17.81682;-636.7657;-634.1362;0.4032685;0.3329602;0;
-403.2957;0;0;-154.0359;0.237529;-19.60746;-345.9593;-342.4578;0.07802654;0.202691;0;
-230.4147;0;0;19.59419;6.935095;-21.12824;-172.4487;-171.8867;0.2078828;-0.1223494;0;
-221.4375;0;0;-11.09758;-2.650066;-16.01643;-162.093;-164.4052;0.4675433;-0.3171285;0;
305.9575;0;0;110.1027;0.3003337;-15.66542;356.7466;355.1864;0.4021062;-0.1868752;0;
668.5926;0;0;154.1573;-3.920503;-14.1092;715.5826;713.5867;0.1418328;-0.0567527;0;
320.6579;0;0;129.2649;-5.188385;-12.48743;373.4727;370.6042;0.07672291;0.1382064;0;
140.8009;0;0;139.1299;0.1081138;-17.90038;194.0625;194.695;0.01167848;-0.1218019;0;
149.53;0;0;133.8053;0.04065616;-18.68619;203.5501;205.8687;-0.1182679;-0.3815489;0;
-340.624;0;0;-39.9919;-1.298555;-17.05982;-278.6622;-277.8451;0.1417203;0.1385733;0;
-696.4777;0;0;-300.1334;-2.97219;-17.71251;-633.3912;-630.451;0.2715125;0.2683687;0;
-402.8626;0;0;-150.8443;2.724224;-14.54663;-346.3987;-341.8998;0.2062724;0.268099;0;
-238.1654;0;0;16.59823;3.793213;-12.92443;-181.7582;-181.1369;0.3359998;0.2678297;0;
-218.4983;0;0;-12.02907;-4.717064;-16.86331;-160.7736;-162.4017;0.01082549;0.07265852;0;
311.2675;0;0;109.9842;-6.588335;-16.7124;362.1252;361.873;-0.3140221;0.007618156;0;
669.5245;0;0;153.5392;-9.327405;-14.28434;717.0203;715.519;0.01113014;-0.1223242;0;
325.3994;0;0;129.6469;-11.86363;-14.20301;377.4077;374.2837;0.01111896;-0.1222013;0;
143.039;0;0;137.6375;-11.04742;-8.696259;195.2448;195.6222;0.4009118;0.007856201;0;
159.1371;0;0;138.1864;-11.90698;-6.343118;211.228;214.3536;0.595411;-0.3819557;0;
-330.4643;0;0;-36.36478;-10.28743;-9.752874;-271.0544;-269.3062;0.269976;-0.1866699;0;
-711.7529;0;0;-314.251;-8.870569;-9.073245;-650.0914;-646.7208;0.5945415;0.3332564;0;
-415.2489;0;0;-162.1991;-11.60832;-10.40366;-359.1466;-353.4056;0.1391727;0.008084808;0;
-236.0466;0;0;17.49868;-11.79773;-11.53192;-179.5633;-177.6387;-0.1858039;-0.2517927;0;
-233.1232;0;0;-14.25295;-3.881644;-5.759923;-175.8846;-177.1478;0.0742522;0.07329705;0;
301.28;0;0;109.0119;-1.399498;-3.878736;349.4031;349.7029;-0.4455611;0.3330927;0;
683.0353;0;0;154.3795;-2.135026;-9.836198;726.9871;726.7869;-0.3801461;0.137856;0;
333.4618;0;0;128.4249;0.2116444;-10.22809;382.9292;381.9795;-0.05492742;-0.1221519;0;
142.2227;0;0;139.2278;-6.352652;-7.538617;192.8897;195.5017;0.2699645;-0.1869965;0;
151.3251;0;0;133.2784;-8.959213;-7.330093;202.566;207.1743;0.3346606;0.1380282;0;
-338.8931;0;0;-43.32936;-0.4427681;-3.303874;-279.5204;-277.3529;-0.05547975;0.2028568;0;
-701.4951;0;0;-307.1532;-0.8444648;-1.35805;-638.8712;-636.7059;-0.1853587;0.07271829;0;
-406.5631;0;0;-155.7955;-0.5088237;-3.701087;-347.8752;-345.5872;-0.3151071;0.2675472;0;
-229.5559;0;0;20.27264;1.099278;-3.697369;-170.3023;-172.1395;0.1399809;0.3322458;0;
-212.0214;0;0;-7.858603;-12.23106;0.9950297;-152.8898;-156.9115;0.6595789;0.2669446;0;
305.4316;0;0;110.1525;-15.43396;2.467654;356.5078;353.3022;0.009242803;-0.1231277;0;
667.2552;0;0;152.9577;-13.14127;-2.49144;714.9068;710.5175;-0.3156032;-0.1879713;0;
324.819;0;0;129.0035;-15.47259;-3.761612;378.1698;372.2857;-0.120384;0.1370543;0;
131.6521;0;0;138.3066;-7.954956;-2.954037;185.0742;182.132;-0.2501978;0.2018839;0;
143.5762;0;0;133.7949;-5.803509;-4.893574;195.8827;195.0674;-0.3798811;0.4615504;0;
-330.9546;0;0;-35.06727;-10.75417;-2.611238;-271.5168;-273.7055;0.0103047;0.331152;0;
-699.749;0;0;-302.5851;-11.4803;-2.675597;-637.4973;-638.6219;0.335131;-0.05898486;0;
-408.442;0;0;-159.7277;-6.04278;-9.371079;-351.7501;-351.6867;0.3997616;0.2009438;0;
-228.9341;0;0;17.71872;-5.902987;-11.1031;-172.2367;-176.2963;0.6592293;0.005839842;0;
-225.5182;0;0;-12.59636;-8.375301;-13.30238;-168.1906;-174.6823;0.4636649;-0.5139048;0;
300.1318;0;0;106.419;-8.165815;-15.36536;348.7812;344.2949;-0.121507;-0.05861699;0;
678.0776;0;0;154.2255;-17.60208;-13.5415;722.9924;717.761;-0.05641761;0.2662786;0;
325.948;0;0;128.3334;-19.99627;-14.19773;377.6267;371.4011;0.07357376;0.2010437;0;
130.4061;0;0;138.0121;-19.50669;-11.23621;182.7825;180.3737;-0.1214022;-0.05902766;0;
148.2035;0;0;135.4371;-20.0903;-9.55047;199.9026;200.0575;-0.05631287;-0.3838051;0;
-329.2679;0;0;-36.86244;-16.52014;-13.02386;-269.6248;-270.1573;0.008711058;-0.12355;0;
-698.2515;0;0;-303.4414;-14.9633;-12.47491;-636.2944;-634.9523;-0.2511671;-0.1234259;0;
-404.6346;0;0;-155.4607;-7.780965;-12.46238;-348.5494;-345.7719;0.07392202;-0.1882692;0;
-224.256;0;0;21.41916;-4.759037;-12.98572;-168.3521;-169.7002;0.3986844;0.006821976;0;
-216.2845;0;0;-9.774191;0.2022376;-6.408467;-159.8121;-163.7201;-0.3163569;-0.05815222;0;
305.1083;0;0;107.864;2.814979;-3.588867;353.528;351.8728;-0.510941;-0.05809379;0;
674.241;0;0;153.3577;1.472004;-8.273944;719.676;717.6477;-0.1206236;-0.05803541;0;
328.4245;0;0;128.6534;2.274808;-6.925972;379.4985;377.1599;-0.05553506;0.006990239;0;
140.6263;0;0;137.7071;-5.699057;-6.115218;191.1492;193.1232;-0.1854139;0.33182;0;
157.3515;0;0;134.6951;-7.836784;-5.171312;207.074;211.1075;0.07464173;0.006649802;0;
-325.1267;0;0;-36.72911;-15.12895;-0.7453641;-266.9584;-263.9909;0.2045014;-0.5130956;0;
-696.3008;0;0;-303.683;-20.27131;0.3939726;-634.7551;-631.6657;-0.05557344;0.007158681;0;
-405.3095;0;0;-155.6396;-9.534652;5.953038;-348.7607;-345.5495;-0.2504196;-0.05781585;0;
-227.0542;0;0;22.36487;-7.649061;7.286715;-171.062;-169.9154;0.07466871;-0.4475618;0;
-220.5792;0;0;-7.517591;-12.73257;8.686035;-164.8306;-164.8721;0.139561;0.332496;0;
296.0079;0;0;108.9939;-11.84912;9.816017;344.3916;345.2247;-0.2503833;0.2671946;0;
670.0223;0;0;152.6749;-5.808014;0.8975459;716.6708;716.0663;-0.05522965;-0.3827473;0;
324.0851;0;0;128.7209;-3.19021;-1.648585;376.059;375.2053;0.3346299;0.137376;0;
128.2328;0;0;137.1498;-2.115278;-7.809237;178.7801;182.9872;0.204359;0.33214;0;
157.0894;0;0;136.8246;-0.5055619;-12.75801;206.5239;213.2255;-0.05571574;-0.0579978;0;
-313.7069;0;0;-26.35596;1.236258;-7.989519;-256.1386;-251.0055;0.1392423;0.007027812;0;
-694.9499;0;0;-296.9435;2.105672;-8.852269;-634.0662;-627.7513;0.07413502;-0.1229139;0;
-404.2099;0;0;-155.0912;-0.7094827;-11.92447;-348.1974;-341.9514;-0.5106456;-0.2527251;0;
-218.1471;0;0;26.41095;-1.847846;-11.91249;-162.1909;-160.1365;-0.1203284;0.1373329;0;
-219.552;0;0;-6.911351;-3.318881;-12.50336;-163.7146;-162.8491;0.4644986;0.1371949;0;
296.9715;0;0;106.2887;-5.392628;-12.82571;344.1947;346.8084;0.009260463;-0.05784499;0;
676.3573;0;0;153.0333;-5.31986;-7.521297;720.597;721.8962;-0.1856509;0.007180471;0;
329.0394;0;0;128.267;-6.318892;-5.973132;379.9188;380.4671;-0.05552964;0.07214061;0;
137.9922;0;0;137.0711;-10.80052;-5.766181;189.0703;193.8659;-0.1204412;0.07206813;0;
162.5911;0;0;134.7469;-13.06684;-3.684038;212.3061;219.3457;-0.1203202;0.2668977;0;
-316.8939;0;0;-31.92974;-9.905884;-12.11994;-259.1704;-253.6371;0.1396701;0.1366949;0;
-694.1357;0;0;-296.8895;-9.69486;-14.98791;-633.0969;-626.3822;0.07456242;-0.05834452;0;
-408.5189;0;0;-154.2252;-11.96229;-8.006867;-353.4135;-345.8935;-0.5751859;0.006681447;0;
-231.7596;0;0;19.46754;-11.61548;-9.271498;-177.3967;-173.4449;-0.5096406;0.006674734;0;
-220.2823;0;0;-11.41151;-13.54619;-6.783813;-165.4743;-164.2752;-0.1842918;0.07163538;0;
305.5498;0;0;107.1654;-14.87273;-5.169406;352.4317;354.6916;-0.443976;-0.05837129;0;
681.0538;0;0;152.7222;-6.752483;-17.62279;724.7028;726.2108;-0.2486279;0.07162206;0;
331.7947;0;0;128.2685;-4.066381;-20.41825;379.7101;380.6544;0.0114913;-0.05838461;0;
130.4374;0;0;136.5729;-12.30132;-20.33075;177.3676;182.4963;0.0764471;-0.5130973;0;
158.6046;0;0;136.9978;-13.6291;-23.9274;205.7375;213.11;0.1413376;-0.05781038;0;
-309.8194;0;0;-26.62013;-7.31877;-14.99475;-254.1131;-247.9975;0.1411956;0.1371498;0;
-698.8124;0;0;-300.2683;-5.771174;-13.70713;-640.1636;-633.5544;0.4658904;-0.3827268;0;
-405.5073;0;0;-158.5377;-12.79797;-17.98014;-352.6021;-346.1244;0.400455;-0.3173749;0;
-215.8824;0;0;23.46769;-14.7275;-16.35448;-163.4052;-160.4948;0.07521588;0.07274806;0;
-232.4071;0;0;-11.16349;-7.947545;-23.5051;-179.6078;-178.9491;0.4649444;0.7223484;0;
283.7546;0;0;104.7894;-7.471045;-24.55321;329.1295;330.7246;0.1396405;0.6566552;0;
680.5199;0;0;153.0973;-8.266845;-20.17465;723.5379;723.5696;-0.5101733;0.006321979;0;
338.7575;0;0;127.8936;-7.321509;-19.81946;386.9797;385.5121;0.07504544;-0.3834884;0;
142.4532;0;0;136.6981;-9.657701;-13.16848;190.3145;192.3467;0.01000269;-0.2531684;0;
162.0501;0;0;134.3119;-8.710968;-10.14102;208.8638;212.893;-0.3148441;0.13689;0;
-323.6187;0;0;-37.79916;-13.32392;-8.255427;-268.856;-266.0803;0.1402437;0.006817794;0;
-705.9761;0;0;-310.2492;-15.05184;-5.098935;-647.0831;-643.1857;0.07513542;-0.3829931;0;
-415.7873;0;0;-163.3237;-5.190103;-5.696658;-361.2637;-356.3083;0.269962;-0.2526736;0;
-238.7083;0;0;12.06486;-3.309853;-4.083466;-183.4899;-181.7254;0.5945274;-0.05751768;0;
-237.2816;0;0;-20.99315;0.1097241;-5.351916;-181.369;-182.3549;0.204126;0.3323442;0;
287.6931;0;0;105.4644;4.597592;-6.351282;334.8663;334.6311;0.009018836;0.5918796;0;
671.3985;0;0;153.2718;-4.717777;-1.522251;715.6508;714.0414;-0.05595757;0.07154615;0;
332.1441;0;0;127.4432;-6.119556;-1.453739;382.4738;379.4293;-0.05590134;0.1364416;0;
132.0358;0;0;136.5605;4.603862;-2.657971;182.8771;184.0836;-0.1208125;0.2662392;0;
153.0175;0;0;135.986;6.47427;-2.320386;202.9957;207.4492;-0.3805605;-0.05886505;0;
-314.1515;0;0;-26.31909;3.922169;-7.743549;-257.6644;-254.9019;0.009625952;-0.1237732;0;
-704.3896;0;0;-305.7772;4.521441;-8.67353;-645.5229;-642.6382;0.4643877;-0.05868154;0;
-414.3272;0;0;-167.6642;2.172373;-10.94211;-360.1424;-356.7609;0.074117;0.2012468;0;
-217.5721;0;0;23.40833;0.4962268;-12.80664;-162.7545;-162.6248;-0.2507942;0.3309793;0;
-232.0336;0;0;-10.09836;4.849009;-6.028617;-177.1462;-178.8282;0.009327186;-0.05915736;0;
279.7549;0;0;103.7296;5.64842;-4.950833;326.4038;326.2852;0.07428516;-0.448902;0;
676.0245;0;0;153.3504;-0.1853811;-3.070458;719.3781;718.5725;0.009243173;-0.1236142;0;
331.0183;0;0;127.0219;-0.6537093;-0.8569363;380.0755;377.8339;0.2691033;0.1363794;0;
128.3499;0;0;137.1391;-2.729157;-4.138239;177.92;178.8041;0.2038655;0.006307659;0;
155.3948;0;0;133.753;-4.334005;-4.067098;203.6657;206.6104;0.1386933;-0.05866602;0;
-306.5917;0;0;-23.42748;1.43015;-3.996028;-251.6227;-249.9304;0.2035213;0.006360269;0;
-683.7814;0;0;-282.961;1.56341;-4.795686;-626.1815;-623.7412;-0.1864872;0.07132123;0;
-407.0456;0;0;-153.679;6.853125;-3.987194;-354.0638;-351.0013;-0.1213325;-0.3835218;0;
-223.6036;0;0;19.38851;10.46356;-4.117154;-169.8004;-170.0518;0.4634955;-0.3831365;0;
-222.1296;0;0;-9.616405;1.74551;-5.787468;-168.8177;-171.0679;0.4630297;0.1369873;0;
287.5875;0;0;105.0231;2.144922;-5.446738;331.1007;330.1646;0.1377278;0.1368496;0;
675.5409;0;0;152.2063;3.013423;-8.790412;714.9499;712.3281;0.007654717;0.2016794;0;
335.5952;0;0;127.5032;3.613607;-9.853184;380.5243;377.2804;-0.187255;0.2664441;0;
132.235;0;0;136.1832;6.825157;-3.2792;178.3683;179.8754;-0.3170015;-0.05866031;0;
162.9616;0;0;134.2972;7.153092;-1.869264;208.7363;213.4901;0.07312105;0.07133333;0;
-302.0934;0;0;-27.31903;18.73383;0.008136539;-248.7436;-244.7441;0.3329169;0.006294297;0;
-693.4056;0;0;-298.6552;22.93456;2.486375;-636.4237;-632.1783;0.1376804;-0.3185487;0;
-401.6051;0;0;-160.4869;17.08437;-1.334029;-350.1778;-345.312;-0.05735997;-0.05835929;0;
-204.0507;0;0;29.64138;16.73241;-1.734586;-152.675;-151.6872;-0.05730233;0.2015687;0;
-224.4603;0;0;-3.684166;20.53302;2.95584;-172.0118;-174.3983;0.1376573;0.2663335;0;
284.2596;0;0;103.828;21.51774;3.890631;327.9723;327.1499;0.4623557;0.1361312;0;
686.1469;0;0;152.1993;7.161526;0.4707146;726.1924;725.3084;0.3319564;-0.05890759;0;
331.198;0;0;127.4962;1.5956;-0.4675195;376.8879;375.0053;0.2016882;-0.1238157;0;
120.7208;0;0;135.4266;8.492873;1.006453;165.9276;168.2323;0.3314202;-0.1886587;0;
168.3255;0;0;136.2275;6.743027;0.6036659;211.4879;216.8512;0.3310872;-0.05853442;0;
-291.7375;0;0;-20.39322;4.525449;-2.009275;-241.1222;-237.1386;0.2657872;0.006491737;0;
-687.995;0;0;-290.1122;4.252482;-3.681829;-632.4331;-628.0787;0.07061807;0.006485214;0;
-406.07;0;0;-157.9494;1.70359;-2.53942;-356.0612;-351.149;0.2654491;0.1364134;0;
-219.7555;0;0;20.86948;1.232387;-3.541612;-170.9214;-169.0125;0.4600844;0.1362763;0;
-220.2843;0;0;-12.13491;2.302876;-5.54742;-169.875;-169.8422;-0.06011659;0.07117205;0;
296.5524;0;0;104.0689;2.16684;-6.412624;338.6026;339.4476;-0.3848929;-0.1238015;0;
677.6252;0;0;152.3775;5.513566;-9.956154;715.7601;715.4173;0.07026524;-0.2536118;0;
340.6758;0;0;126.8621;6.579752;-11.08486;385.2692;384.2396;0.2001293;-0.3832916;0;
146.1811;0;0;136.0425;4.76448;-14.08795;190.9796;193.5741;-0.3847778;-0.5128412;0;
166.5864;0;0;133.7194;4.960763;-16.75299;210.3403;214.9938;-0.5792933;-0.3823912;0;
-300.5962;0;0;-24.14821;3.682981;-9.569108;-248.453;-245.4284;-0.05897243;-0.2520723;0;
-690.7229;0;0;-294.613;3.411837;-8.554871;-634.3842;-630.9254;0.3308909;0.2029524;0;
-412.1685;0;0;-161.8835;0.2605767;-11.62737;-360.4467;-357.3037;0.2655911;0.5925525;0;
-215.2282;0;0;24.5605;-1.749417;-10.67792;-164.3079;-165.5409;0.1353895;0.2671204;0;
-223.1328;0;0;-8.010315;5.419636;-16.29364;-171.764;-175.9317;-0.1246159;0.2018847;0;
281.9626;0;0;102.6921;7.892437;-18.35374;325.5962;322.2447;-0.1244907;0.07174713;0;
684.6017;0;0;152.3139;-0.8230303;-12.84282;724.256;720.2207;0.2654384;0.07167504;0;
347.2081;0;0;126.7986;-1.692859;-12.36103;392.3197;387.6013;0.3301391;0.266505;0;
134.6534;0;0;135.2919;3.197986;-13.75525;181.094;180.5033;-0.0599967;-0.3184688;0;
164.4405;0;0;135.3433;2.59156;-12.87065;210.7095;212.6807;-0.3198058;-0.4480835;0;
-295.2437;0;0;-23.08809;10.69426;-14.46519;-241.8998;-241.5548;0.005352268;0.2020402;0;
-687.8745;0;0;-293.2416;13.83134;-14.11586;-631.0859;-630.6789;0.3301836;0.2018371;0;
-417.6938;0;0;-160.7634;4.842464;-11.95822;-365.5225;-364.866;-0.1898869;0.006732296;0;
-226.6199;0;0;23.36819;3.765872;-11.41035;-175.0633;-177.4684;-0.2546634;-0.05824181;0;
-217.834;0;0;-7.764656;5.034885;-7.91589;-166.5791;-170.481;0.2003638;0.2016861;0;
286.3815;0;0;103.4997;4.426614;-6.501295;329.7764;327.4401;0.00526048;0.3314181;0;
678.3341;0;0;151.8089;3.28309;-6.628728;718.6869;715.0411;-0.3845488;-0.1236863;0;
363.373;0;0;126.6689;3.614584;-6.22017;408.6202;404.291;-0.3191951;-0.05859467;0;
165.8569;0;0;135.2872;1.668569;-5.477108;211.0588;210.6694;0.005962319;0.2663009;0;
178.8087;0;0;134.1518;1.198378;-4.46686;223.6528;224.9504;-0.3838477;0.3310007;0;
-298.5686;0;0;-26.40236;6.890601;-11.16054;-246.7731;-246.6012;-0.5133967;0.3956354;0;
-695.5064;0;0;-296.3026;7.285819;-13.42675;-640.0149;-638.3439;0.006857884;-0.1894682;0;
-417.5095;0;0;-161.3851;13.77523;-8.523625;-365.7593;-363.0905;0.07181834;-0.4491472;0;
-222.0005;0;0;21.7476;16.17326;-8.649026;-171.052;-172.0715;-0.05818851;-0.1238592;0;
-223.3392;0;0;-9.321146;9.257161;-8.908267;-173.3164;-177.021;0.006837298;-0.1237347;0;
287.0038;0;0;103.444;8.042411;-8.966177;328.4182;325.9666;0.1367651;0.07129166;0;
693.1362;0;0;151.6283;5.355013;-7.483665;730.9482;727.3746;0.006693006;0.266122;0;
361.5435;0;0;126.4885;4.010461;-6.605368;404.0027;399.1833;-0.2531831;0.07095262;0;
149.0993;0;0;135.107;-2.089137;-11.28741;191.3284;190.6994;-0.2529287;0.005913976;0;
175.4987;0;0;134.2841;-4.163143;-12.95065;217.373;219.743;-0.05777252;0.07087539;0;
-295.8158;0;0;-30.70543;-4.963243;-8.181967;-246.2375;-245.3691;0.07222021;0.005836817;0;
-696.9418;0;0;-306.1611;-7.905017;-7.035036;-643.8526;-643.2974;0.007180307;-0.2540384;0;
-418.5686;0;0;-169.2971;8.312551;-12.72139;-371.0924;-369.6632;-0.3176636;-0.3187505;0;
-226.6193;0;0;15.59264;12.85855;-12.90956;-179.7531;-180.7615;-0.1224424;0.07137385;0;
-226.8289;0;0;-15.28251;5.544612;-13.70038;-178.3231;-181.7043;0.2674847;0.2012368;0;
281.2688;0;0;102.6736;7.146632;-15.02615;322.0422;319.9137;-0.1225881;0.2010346;0;
677.5993;0;0;151.8581;3.053614;-7.509212;714.8335;711.1454;-0.512269;-0.05903677;0;
353.8933;0;0;126.0309;1.175511;-6.563905;396.9622;391.7785;-0.1219502;-0.05897745;0;
150.2024;0;0;135.5245;4.724304;-6.021446;193.5403;192.7347;0.07307433;0.006049153;0;
172.7901;0;0;132.952;4.384764;-5.144618;215.7096;216.6539;0.1379682;-0.383761;0;
-293.0245;0;0;-23.72789;1.097829;-11.5027;-241.9647;-242.8954;0.202797;-0.1884733;0;
-690.5301;0;0;-292.5064;0.560862;-13.83555;-636.7105;-636.7032;-0.05727618;0.1365528;0;
-414.6621;0;0;-162.5277;-0.3777066;-15.898;-366.5187;-365.8243;0.07271605;0.07144821;0;
-219.0935;0;0;20.85601;-1.046912;-18.49436;-170.6862;-173.4283;0.3325123;0.3312458;0;
-224.3082;0;0;-11.33628;2.370391;-19.88229;-174.6376;-179.3759;-0.1875605;0.3309129;0;
280.6635;0;0;101.8057;2.903873;-20.06326;322.2257;318.1793;-0.2523394;0.005743719;0;
685.1155;0;0;151.7408;7.723726;-27.47809;723.0128;717.7836;0.1377182;0.0707053;0;
358.4035;0;0;126.1011;11.26594;-29.52683;402.572;396.8483;0.2025472;-0.05930044;0;
142.9016;0;0;134.9074;4.555837;-19.04806;188.4;186.4301;0.1373763;0.1356612;0;
166.5585;0;0;133.8973;5.02075;-16.88559;211.1366;211.7924;0.5920097;0.2654596;0;
-288.8175;0;0;-21.65909;8.632051;-11.04123;-237.8499;-237.9444;0.5264475;-0.2545459;0;
-689.5757;0;0;-294.2503;9.427661;-6.609387;-635.5359;-635.0056;-0.3186569;-0.1893228;0;
-415.083;0;0;-163.2079;14.17361;-9.48289;-366.2199;-364.8156;-0.3183367;-0.1241652;0;
-210.7059;0;0;28.11006;15.96803;-8.200808;-161.642;-162.9877;0.1367545;-0.5138445;0;
-226.1738;0;0;-7.775166;18.76502;-8.795292;-175.5351;-179.5031;0.006682422;-0.1235242;0;
276.176;0;0;99.80357;21.42549;-10.46103;318.2682;315.3036;0.07164305;0.006534634;0;
695.75;0;0;151.8646;17.1844;-7.235458;733.3646;729.8408;0.07157106;-0.188374;0;
365.2167;0;0;125.9124;16.83234;-7.362154;408.7905;404.2708;-0.1883702;0.136652;0;
150.5824;0;0;134.594;20.09698;-16.59816;194.7371;194.0325;-0.2531483;0.4613515;0;
176.4805;0;0;133.5217;20.41158;-19.19369;218.6543;221.4487;0.2668448;0.1360512;0;
-293.9604;0;0;-23.22121;17.44431;-21.04993;-245.2073;-243.103;0.331544;-0.1889223;0;
-689.5286;0;0;-290.9383;15.55175;-23.17223;-636.889;-635.4738;-0.2534952;0.006169595;0;
-405.6656;0;0;-160.7737;20.49261;-20.6036;-358.2637;-357.2249;0.07159624;-0.05880395;0;
-214.104;0;0;19.54725;20.87319;-20.71686;-167.1246;-169.2727;0.201459;-0.1886795;0;
-225.3831;0;0;-15.08;17.36959;-17.34702;-177.9512;-182.0961;-0.3184822;-0.05855527;0;
286.5237;0;0;100.0023;18.02172;-16.25786;324.6001;321.7087;-0.1232601;-0.1234638;0;
693.4686;0;0;151.5009;8.559142;-12.8925;727.1339;724.3704;0.2017004;0.006594962;0;
361.8756;0;0;125.6741;4.464705;-10.33419;401.754;398.3061;-0.05837162;0.2664577;0;
151.3051;0;0;134.6682;15.04377;-18.22767;191.6432;191.4472;-0.1882477;0.3311573;0;
177.265;0;0;132.4714;15.16237;-20.48666;215.8759;218.6785;-0.05812382;0.2658572;0;
-284.1188;0;0;-22.83368;16.75473;-14.50471;-238.8001;-237.3746;0.2667713;0.005720715;0;
-685.5689;0;0;-295.4237;19.81935;-13.68634;-636.61;-635.1235;0.2665032;0.07068232;0;
-413.2041;0;0;-168.3781;8.144162;-21.57645;-369.6667;-367.4321;0.3312028;-0.2542254;0;
-213.0768;0;0;19.63419;5.926152;-22.76047;-170.3328;-172.0359;0.5907394;-0.9036434;0;
-224.232;0;0;-12.86921;11.88107;-22.80458;-179.3446;-184.1069;0.4602111;-0.5778987;0;
275.6797;0;0;99.64967;10.66368;-24.32215;312.1512;309.3301;-0.05999004;0.007388052;0;
690.6939;0;0;151.461;16.61384;-17.8676;723.0059;719.3755;-0.1248971;-0.05758671;0;
363.6639;0;0;125.5717;18.7406;-17.31378;403.3772;397.9389;0.2650324;0.07240584;0;
144.9707;0;0;134.0037;10.68479;-12.87563;184.2068;183.3967;0.3297335;-0.0576016;0;
181.744;0;0;134.1189;9.534979;-9.84846;219.1291;221.943;-0.06040189;-0.3174131;0;
-275.1465;0;0;-15.06589;13.07537;-17.80941;-228.2413;-227.3043;0.004626143;0.07270991;0;
-689.5991;0;0;-288.3509;14.80355;-17.38962;-637.806;-636.6201;0.06958884;0.007669495;0;
-418.4171;0;0;-166.6222;5.277827;-23.3335;-371.7985;-369.6768;-0.2553178;-0.3171749;0;
-215.8483;0;0;22.88756;2.258414;-26.994;-170.0262;-170.905;0.1347428;-0.5117582;0;
-226.376;0;0;-9.431701;13.10713;-13.63752;-180.2251;-182.9147;0.4594441;-0.4462767;0;
275.9116;0;0;99.71042;12.4234;-11.48048;313.0206;311.5207;0.004211075;0.3337798;0;
687.8646;0;0;151.3342;21.11846;-15.35383;720.1263;717.6909;-0.0607605;0.8531832;0;
363.3362;0;0;125.1952;25.18307;-14.26668;401.6874;397.8801;0.1342026;0.3975545;0;
150.2656;0;0;134.3148;9.819777;-15.1901;189.6402;188.7102;-0.06083429;0.07231835;0;
178.2254;0;0;132.1184;8.403391;-15.24182;216.6235;217.3186;-0.1257405;0.007278329;0;
-283.4092;0;0;-22.12442;4.777625;-15.42746;-237.8658;-238.4832;0.06928786;0.1372057;0;
-687.9834;0;0;-289.8426;2.896814;-15.81385;-639.7372;-638.4799;0.004250899;0.3969372;0;
-413.9295;0;0;-162.4278;2.55911;-16.73573;-370.6043;-368.3488;0.1341813;0.2666037;0;
-212.8645;0;0;25.2037;0.8825758;-17.79064;-169.5828;-171.7023;0.4588832;-0.05850092;0;
-226.2063;0;0;-7.555171;12.33492;-17.50483;-182.5933;-186.5223;0.5233895;0.07149256;0;
273.52;0;0;99.89841;14.53333;-18.89376;309.218;306.6673;0.1980268;0.5911595;0;
696.5323;0;0;150.7099;18.93935;-15.52575;729.0087;724.8988;-0.1270089;0.1357941;0;
371.7454;0;0;125.8209;21.3322;-14.17049;410.0611;404.8309;0.3278902;-0.3840811;0;
145.6728;0;0;133.0033;21.24341;-22.06012;184.6997;182.6606;0.197626;0.07107621;0;
186.131;0;0;136.0556;23.83403;-22.37286;224.3066;224.8933;-0.1923766;0.2009395;0;
-267.2032;0;0;-15.31759;5.992869;-24.62768;-221.7572;-222.0457;0.3925228;0.1357702;0;
-689.4099;0;0;-295.3489;0.7629109;-25.87561;-640.5737;-639.6125;0.5870304;0.005699103;0;
-419.415;0;0;-169.2404;1.967593;-17.34302;-376.3126;-373.7906;0.1966365;-0.05927397;0;
-214.0966;0;0;22.77072;-3.727811;-15.18214;-171.1624;-172.8284;0.06650421;0.200655;0;
-226.9999;0;0;-15.29554;9.069308;-9.47346;-182.0474;-186.6477;0.001470045;0.135486;0;
271.6027;0;0;96.6011;11.73951;-4.842241;307.6395;304.7304;0.06643591;0.1353499;0;
686.1213;0;0;151.6638;-0.1950008;-9.994939;717.3118;713.5311;0.4561732;0.2001812;0;
370.7776;0;0;124.525;-1.333881;-9.85093;407.9337;403.4696;0.5206822;0.1999801;0;
155.4505;0;0;134.3948;4.026094;-5.889161;192.9442;193.2947;-0.3244164;0.004877095;0;
176.2838;0;0;130.6366;6.09913;-7.691661;212.0531;215.1519;-0.1291884;-0.3849319;0;
-279.5393;0;0;-22.66766;0.6006448;-3.866027;-236.8095;-235.0881;0.5206148;-0.1896431;0;
-687.6157;0;0;-294.071;0.733763;-3.996108;-640.3686;-637.7744;0.2602223;0.1353842;0;
-428.3672;0;0;-175.4599;4.818862;-15.64688;-386.29;-382.5115;-0.06487588;-0.1895885;0;
-225.7884;0;0;13.99622;4.947742;-18.5113;-184.5656;-184.0392;-0.129778;-0.189398;0;
-230.7464;0;0;-12.19219;13.85138;-28.138;-188.3156;-190.6634;0.1302217;0.135629;0;
267.1103;0;0;99.01417;16.31571;-33.46824;300.5654;299.7818;-0.06481114;0.005558022;0;
692.378;0;0;150.951;15.22759;-27.7413;720.5522;719.0822;-0.3246154;-0.1893496;0;
371.0934;0;0;124.8749;16.88722;-28.78503;406.1733;402.3934;0.1954495;-0.124192;0;
141.0235;0;0;133.0577;10.64097;-25.54105;177.9422;177.9142;0.1302858;-0.3189692;0;
182.6733;0;0;134.9855;10.22813;-23.97478;218.0557;221.0262;0.0002201989;-0.3186487;0;
-272.5315;0;0;-21.1967;1.510318;-21.00356;-228.9389;-228.1577;0.0002199777;-0.1234265;0;
-704.6028;0;0;-303.7834;-3.648763;-18.77202;-656.119;-654.7764;-0.4545516;0.006632186;0;
-430.9071;0;0;-173.6684;8.411343;-19.42299;-387.9692;-385.3786;-0.5190622;0.1365602;0;
-216.3942;0;0;24.65655;8.47024;-18.1308;-175.4984;-176.0339;-0.1287366;-0.2533811;0;
-235.2297;0;0;-14.72345;11.00635;-21.79664;-194.5624;-197.9709;0.06629474;-0.3830611;0;
261.2572;0;0;94.42399;14.61261;-22.44457;293.2005;290.8574;0.2611302;-0.1228069;0;
686.9681;0;0;151.4254;3.077352;-23.22569;714.319;711.9159;0.3908024;-0.05771614;0;
377.2457;0;0;124.3493;2.002533;-23.87218;410.4412;406.8535;0.1955077;0.3321459;0;
161.9746;0;0;133.8445;5.817938;-23.31233;196.5736;195.2384;-0.1944927;0.4617469;0;
181.8018;0;0;131.0239;5.209856;-23.48986;215.7413;216.7188;0.0006047055;0.2663809;0;
-278.1497;0;0;-21.96844;10.56326;-18.17472;-236.998;-236.2089;0.3904082;0.07121118;0;
-686.9147;0;0;-292.8102;11.69074;-15.67822;-641.4939;-639.8935;0.1951138;-0.2536971;0;
-427.2296;0;0;-173.8881;16.23432;-15.59548;-385.6651;-383.2542;-0.1948863;-0.1884748;0;
-224.7769;0;0;16.12867;20.57129;-13.03446;-184.3786;-185.2185;-0.4545598;-0.05835077;0;
-226.4876;0;0;-12.24828;12.17788;-13.08834;-186.1298;-190.1548;-0.3241684;0.07164256;0;
270.6153;0;0;97.20901;13.30472;-11.9366;303.1863;299.7901;-0.2588753;0.2015053;0;
694.8174;0;0;150.397;11.9512;-7.637702;723.6702;718.5907;-0.1286805;0.1363354;0;
378.1531;0;0;125.0086;9.327223;-6.02256;413.2862;405.5257;0.2612529;0.5909699;0;
142.4539;0;0;132.1918;26.80027;-4.743833;179.3633;173.9219;0.001120965;0.5254087;0;
181.2288;0;0;136.1819;29.85383;-3.332424;217.1015;213.2273;0.06608718;-0.4496294;0;
-259.2945;0;0;-12.94251;29.42266;-3.463042;-216.7737;-223.2052;0.4558248;-0.5141449;0;
-692.7535;0;0;-301.6594;33.8801;-2.454818;-646.5897;-652.0778;0.1954974;-0.1238243;0;
-428.19;0;0;-181.6664;14.95809;-4.729771;-386.7578;-390.4287;0.195301;0.006234834;0;
-201.6859;0;0;28.28567;9.851872;-5.461831;-160.9825;-168.2729;0.1951048;0.006228569;0;
-220.4737;0;0;-4.226424;16.8082;-1.906369;-178.7492;-188.656;-0.32483;0.331059;0;
266.3158;0;0;95.72758;12.70547;-1.502556;300.3147;291.6048;-0.4544383;0.4606611;0;
698.3309;0;0;150.1665;20.12745;-1.501047;727.7355;717.535;-0.2590797;-0.2544426;0;
384.3492;0;0;125.0282;21.31365;-1.030658;418.9716;407.2197;-0.2588193;-0.5790236;0;
157.7017;0;0;132.6486;10.70868;-3.373903;193.2263;184.9845;-0.06365724;-0.4485071;0;
186.3413;0;0;132.8277;9.626196;-4.978103;221.2055;215.5957;0.3262108;-0.3181218;0;
-264.9317;0;0;-11.4833;5.799106;-1.758042;-222.5438;-228.8352;0.325883;0.1369693;0;
-682.7679;0;0;-283.4601;4.11834;-2.559949;-635.9248;-641.2728;0.1956209;0.0718643;0;
-427.5847;0;0;-168.7328;3.913131;-7.045233;-385.224;-389.6921;0.130457;-0.4479467;0;
-224.2571;0;0;19.46728;1.698396;-9.114503;-182.751;-191.6499;-0.1295435;-0.3175619;0;
-230.5285;0;0;-12.91102;12.61503;-11.38276;-188.252;-200.5153;-0.3243153;-0.1223408;0;
268.2026;0;0;96.92175;15.21432;-12.24198;302.8778;291.8138;-0.1940548;0.1376515;0;
694.0314;0;0;150.5474;11.91748;-18.65992;724.0491;712.3716;-0.2588271;0.46235;0;
378.8671;0;0;124.2217;13.71417;-20.04781;414.5393;402.0614;-0.3235344;-0.1877881;0;
155.0987;0;0;132.1554;6.264672;-20.63052;192.7341;184.1417;0.001627378;-0.122632;0;
194.5479;0;0;136.1455;3.445338;-23.222;232.3329;227.1225;-0.2582436;0.6570993;0;
-260.9812;0;0;-6.98191;7.527713;-7.056144;-213.9263;-219.8186;-0.3879188;0.5265043;0;
-699.311;0;0;-291.207;5.979908;-2.695286;-647.181;-652.6301;-0.3225617;0.266106;0;
-435.3031;0;0;-179.4704;4.366309;-6.644571;-390.6593;-395.4158;-0.3872049;0.3957733;0;
-208.0423;0;0;24.98222;3.558614;-2.685901;-169.1904;-176.6283;0.002988187;0.07053888;0;
-219.7023;0;0;-4.465595;-0.3307033;-14.40497;-183.0134;-191.943;0.1329199;-0.2543687;0;
261.1519;0;0;95.9884;-1.201027;-17.53857;289.4331;281.2621;0.002851626;0.005756238;0;
686.9879;0;0;149.8648;-4.950864;-7.808669;711.7424;701.7055;0.1977508;0.1356851;0;
379.3893;0;0;124.0396;-7.758929;-7.800823;410.4908;398.7149;-0.1272846;-0.1892879;0;
155.1206;0;0;132.9729;2.09548;-6.386465;187.1904;179.1744;-0.3870261;-0.1241304;0;
184.1376;0;0;131.2776;4.370551;-4.705474;215.1132;210.2911;0.1331015;0.07089639;0;
-265.6339;0;0;-14.59352;0.6151146;-8.585634;-227.4431;-232.9475;0.4578045;-0.1240769;0;
-680.4084;0;0;-283.1938;3.160092;-8.577007;-638.258;-643.0696;0.3923771;-0.1889195;0;
-422.1667;0;0;-172.5897;-2.201718;-7.027782;-385.6183;-389.9254;0.06714617;0.07113966;0;
-214.9714;0;0;19.61216;-1.998435;-6.953737;-179.5842;-187.9474;-0.06285597;-0.1238339;0;
-223.0013;0;0;-8.018671;4.031793;-3.999623;-186.5877;-197.941;-0.2576948;-0.1886768;0;
264.7278;0;0;95.68726;5.366913;-2.321031;294.8579;284.7654;-0.5173053;0.4611862;0;
691.3721;0;0;149.564;12.93096;-6.069743;719.0358;708.2038;-0.3868508;0.8505269;0;
381.5204;0;0;124.4263;15.19514;-6.465542;414.5285;402.3955;-0.2565274;0.4598682;0;
148.6913;0;0;131.9224;19.93529;-2.708001;182.291;172.9813;-0.1913023;-0.1902673;0;
185.0861;0;0;134.2886;22.66193;-2.638297;217.4026;210.2887;0.06875928;-0.2550434;0;
-250.2562;0;0;-2.152824;14.86963;-1.497058;-211.7878;-218.6447;0.3285595;0.07004955;0;
-677.5398;0;0;-276.1379;13.17975;-1.428571;-635.3619;-640.2754;0.1982947;-0.05995553;0;
-422.0496;0;0;-169.8513;7.674146;-5.111075;-383.5998;-388.1335;-0.4515779;-0.1248626;0;
-202.6106;0;0;30.21893;3.111108;-7.182288;-164.7616;-172.7265;-0.5160915;0.005197512;0;
-224.7083;0;0;-2.857327;1.165599;-6.773296;-186.7099;-196.5409;-0.06080156;-0.1247424;0;
257.5252;0;0;93.15978;-3.389924;-7.50318;288.0516;279.1051;-0.1906752;-0.2545517;0;
689.1119;0;0;149.9751;-0.9756201;-15.73442;716.3593;706.2972;-0.2554509;-0.1893286;0;
371.9535;0;0;123.8999;-1.242083;-18.7997;405.4828;394.4939;0.1346098;0.070731;0;
146.1931;0;0;131.8339;-9.211438;-17.77607;180.8756;172.8338;0.1994419;0.2005946;0;
186.3384;0;0;133.1382;-10.54233;-20.16959;220.2365;214.0143;0.06930683;0.005491016;0;
-255.6892;0;0;-8.986736;-8.25456;-14.4559;-214.7663;-221.357;0.1991719;-0.1894165;0;
-675.4087;0;0;-278.2798;-7.643054;-12.69982;-631.2785;-636.3009;0.1340044;0.005675825;0;
-422.7942;0;0;-171.1789;-5.49192;-18.11255;-383.7683;-387.7861;0.06890241;-0.05929722;0;
-212.1625;0;0;22.20846;-4.347326;-17.42452;-173.9254;-181.9373;0.003865837;-0.1891723;0;
-220.2577;0;0;-3.113635;3.024432;-18.74667;-182.1839;-192.624;-0.1910401;0.3957238;0;
263.1583;0;0;97.27654;6.705089;-19.06275;293.4476;284.3299;-0.2558154;0.7201629;0;
687.4305;0;0;148.5905;4.421176;-16.29742;714.441;703.8332;-0.06065639;0.4595699;0;
379.2693;0;0;124.2033;6.560187;-16.74992;411.5;399.9034;-0.3204648;0.1342715;0;
151.5025;0;0;131.5123;4.47749;-9.231127;184.0132;176.2388;-0.3201428;-0.0607655;0;
189.5186;0;0;133.5041;4.33927;-6.140759;221.0596;215.2295;0.1999176;0.06923026;0;
-250.5757;0;0;-5.435297;7.415392;-14.1723;-211.945;-218.7062;0.1997167;0.06916069;0;
-680.6077;0;0;-280.6665;7.676361;-14.62694;-638.5175;-643.7102;0.1995161;-0.3856802;0;
-429.4872;0;0;-174.3128;8.806747;-15.28207;-391.6247;-396.25;0.1993156;-0.3852927;0;
-217.6619;0;0;21.26414;8.998969;-17.00815;-178.7755;-187.8939;0.06918063;-0.1250362;0;
-231.9984;0;0;-10.11646;9.726862;-14.1779;-192.3389;-205.0713;0.004143774;-0.3198125;0;
258.5508;0;0;92.77949;9.650715;-14.83348;288.1754;276.7052;-0.1257951;-0.3844585;0;
693.947;0;0;149.7201;8.836735;-13.27797;718.9192;707.4604;0.06923335;-0.3191049;0;
385.9042;0;0;123.3953;8.291992;-11.99195;417.2231;405.0263;0.1341311;-0.4487189;0;
149.1977;0;0;131.5797;6.809792;-17.53936;181.0474;172.7983;-0.06090567;0.136438;0;
179.47;0;0;133.1341;6.736577;-18.0576;209.7884;205.4207;0.06909021;0.4611376;0;
-255.0545;0;0;-5.430104;-0.3701394;-16.23104;-216.8955;-222.3208;0.2639228;-0.2539665;0;
-679.4597;0;0;-277.6628;-3.98709;-16.14775;-636.0917;-642.1363;0.1986903;-0.578548;0;
-426.4663;0;0;-172.9363;5.86353;-12.64841;-387.5147;-392.991;0.3284253;-0.3180973;0;
-208.2723;0;0;24.13848;6.995738;-11.22918;-170.4218;-178.6411;0.3930627;-0.4477124;0;
-227.1784;0;0;-6.307979;3.372362;-9.342376;-188.8662;-198.514;0.002863653;-0.3173278;0;
250.9347;0;0;92.33628;4.440701;-7.457467;281.8371;273.6982;-0.1270739;0.2676971;0;
689.8368;0;0;148.8401;1.421152;-8.990581;717.2723;707.7048;0.00298846;-0.1873433;0;
390.1689;0;0;123.828;1.353351;-9.115513;423.8863;412.5168;-0.06198188;-0.4470244;0;
153.7705;0;0;130.825;3.160653;-4.886551;189.2655;181.3433;-0.321789;0.2680655;0;
183.6634;0;0;133.5671;3.558642;-3.408016;217.8109;213.7072;-0.2564983;0.2028289;0;
-251.49;0;0;-1.499293;5.297355;-8.89707;-211.0675;-215.4169;0.3284655;-0.05724433;0;
-679.9594;0;0;-273.9233;5.023612;-9.825891;-635.5794;-639.4247;0.3931028;0.07274789;0;
-435.3362;0;0;-174.8228;10.24348;-9.012223;-396.1233;-398.9653;0.3277405;-0.05725991;0;
-222.8179;0;0;15.44483;10.90277;-10.34283;-184.8313;-190.9188;0.4573458;0.007764967;0;
-241.2097;0;0;-13.9934;14.107;-7.184236;-202.2617;-211.1542;0.1970169;0.2026592;0;
251.9724;0;0;91.28025;19.38411;-6.708137;283.4475;274.9388;0.001916946;-0.1223812;0;
707.9899;0;0;149.2219;-4.74825;-7.840106;735.9351;725.6233;-0.1280197;-0.05729084;0;
398.6212;0;0;123.6472;-9.968392;-7.028433;431.6607;419.7975;-0.1928584;0.4625055;0;
153.5936;0;0;130.5194;5.916457;-11.84402;186.9123;178.0595;-0.1276972;0.3970734;0;
192.4821;0;0;134.7611;4.503993;-13.50669;225.5175;219.3598;0.1323004;0.2667397;0;
-243.9295;0;0;0.3181986;22.58413;-10.34505;-203.1188;-209.9575;0.3920369;0.2015044;0;
-680.8397;0;0;-279.7913;30.46566;-11.94212;-637.3838;-642.9037;0.06680623;-0.1235348;0;
-434.2167;0;0;-178.4985;16.03409;-7.442385;-397.1138;-401.3788;0.0667391;-0.1234107;0;
-208.8934;0;0;26.82778;17.82566;-6.36318;-172.5775;-181.3984;0.5864108;0.2665174;0;
-230.2977;0;0;-3.9962;14.5262;-14.39462;-193.3935;-204.7668;0.1960175;0.4611516;0;
239.7601;0;0;91.3349;12.09973;-15.65283;268.069;258.7061;-0.5837876;0.005916831;0;
696.4145;0;0;148.5268;19.12114;-20.52673;721.2592;710.2191;-0.7131357;-0.1889911;0;
404.5486;0;0;123.765;18.23127;-23.9891;436.1774;423.0244;-0.4525497;-0.05886656;0;
162.8884;0;0;130.2623;19.28468;-20.68295;195.2975;185.2812;0.002676398;-0.3186768;0;
203.017;0;0;133.6921;18.59572;-22.67154;233.0197;226.0744;0.1975757;-0.4482912;0;
-237.3408;0;0;-3.186003;17.23689;-18.29498;-201.2463;-208.1221;0.3922792;-0.05803675;0;
-687.4384;0;0;-291.1631;17.08585;-16.60203;-646.2578;-652.9393;0.5218198;0.1369236;0;
-448.5549;0;0;-196.8552;8.026348;-23.41748;-411.0388;-417.5262;0.1964587;0.136786;0;
-226.4656;0;0;5.928228;5.540037;-22.32223;-190.549;-199.9034;-0.06360805;0.2665833;0;
-239.7313;0;0;-21.31404;4.127951;-29.33288;-203.7882;-216.0693;0.2612926;0.006446015;0;
242.3924;0;0;87.2778;2.582586;-32.11657;270.5532;259.284;0.001160656;0.07140689;0;
694.4839;0;0;150.1585;5.259308;-19.02299;718.3062;706.7359;-0.3236772;0.3312045;0;
398.622;0;0;122.5839;5.857236;-17.12836;427.7925;414.9846;0.4562561;0.006034992;0;
158.4045;0;0;130.3317;10.94157;-13.82911;188.108;179.1859;0.7806343;-0.2538404;0;
194.727;0;0;133.7615;12.73923;-10.53317;223.8384;218.1737;-0.06472545;-0.05868335;0;
-247.3715;0;0;-6.614926;18.41986;-15.54618;-209.4189;-216.5771;0.000306925;0.1362776;0;
-693.2112;0;0;-292.4646;21.14704;-15.66453;-650.3617;-657.013;0.1302413;0.006206021;0;
-440.5164;0;0;-188.8477;19.38448;-17.52419;-403.2071;-408.7898;-0.2596936;-0.05876756;0;
-211.1888;0;0;20.17463;21.24101;-19.65003;-175.1664;-183.5546;0.3902407;0.2661282;0;
-235.964;0;0;-11.14242;10.83719;-18.22365;-198.3536;-208.6074;0.5197833;0.2658608;0;
238.972;0;0;88.88101;7.744845;-18.7412;268.2362;260.4915;-0.0004777055;0.135659;0;
689.5052;0;0;149.5737;9.077209;-24.14786;713.7427;706.2556;-0.1304119;0.20049;0;
386.3395;0;0;122.312;5.584488;-25.73119;416.487;407.2583;-0.000346187;0.07035388;0;
141.6991;0;0;130.8722;14.15269;-23.82981;172.3785;166.345;0.0646215;-0.05965151;0;
179.1628;0;0;131.9276;15.54499;-23.93983;208.1873;205.2207;-0.1303454;0.1353105;0;
-249.4269;0;0;-5.136109;8.630495;-21.23646;-213.685;-216.8984;0.2595896;-0.1246949;0;
-676.7739;0;0;-278.4935;7.683818;-19.94257;-636.8199;-639.343;0.3892634;-0.1895369;0;
-434.2779;0;0;-180.138;8.27931;-15.97054;-397.1128;-399.3834;-0.1308665;-0.05941179;0;
-215.0765;0;0;22.00398;7.936198;-12.33754;-177.8862;-183.0906;-0.06576762;-0.2542541;0;
-224.4181;0;0;-5.067035;4.713043;-18.55443;-187.7025;-194.7757;-0.1306689;-0.05909662;0;
244.4469;0;0;90.20267;4.373515;-19.00467;272.3175;266.6882;-0.5203416;0.005930106;0;
683.8553;0;0;148.0829;3.028974;-10.54597;707.2626;701.2642;-0.2599494;-0.0590432;0;
395.0005;0;0;123.1965;2.624764;-8.994761;425.3808;417.6393;0.1950832;0.4607549;0;
150.8511;0;0;129.8194;4.229717;-7.177184;184.3243;178.8394;0.3248218;0.5902266;0;
182.4336;0;0;133.3121;2.751599;-4.624743;214.4988;211.3933;0.3244955;0.1348621;0;
-243.5982;0;0;-1.12935;14.80527;-11.05021;-205.3808;-210.6071;0.2592021;0.199694;0;
-683.6946;0;0;-283.4238;18.1393;-12.31179;-642.0798;-646.9261;0.1290069;0.52433;0;
-440.3171;0;0;-187.1873;8.275436;-7.744698;-404.4287;-406.8339;0.3237793;0.1339991;0;
-200.7449;0;0;26.08122;7.86498;-7.937864;-165.1424;-172.2303;0.2584867;-0.2559396;0;
-219.1588;0;0;-0.4941441;0.3549885;-7.260059;-182.3428;-193.4215;-0.2615118;-0.1257477;0;
239.0187;0;0;90.21076;-3.998649;-7.051816;267.8018;258.983;-0.3911837;-0.1256214;0;
693.9248;0;0;148.0285;-0.6457282;-9.79103;718.8058;708.809;-0.260856;-0.06052781;0;
399.75;0;0;123.0173;-2.52109;-11.05375;430.2907;417.9302;-0.1956265;-0.1904017;0;
145.6009;0;0;129.6403;-6.871837;-10.5069;175.9235;168.1981;-0.1304626;-0.125243;0;
190.3071;0;0;133.6954;-10.08011;-11.63493;219.4748;214.7556;-0.1952989;0.2646869;0;
-236.2948;0;0;3.001687;-1.764589;-12.22608;-198.2859;-204.8119;-0.3250373;0.004551555;0;
-682.458;0;0;-277.173;0.9165017;-11.94587;-639.9271;-645.2596;-0.3896781;-0.190355;0;
-438.582;0;0;-184.5034;-12.88217;-18.69902;-402.0283;-405.8563;-0.3243192;0.004738251;0;
-213.3793;0;0;19.32959;-15.48217;-20.28782;-177.6744;-185.8089;-0.1940586;0.1346682;0;
-231.2808;0;0;-13.04857;-10.50915;-16.04751;-194.2999;-205.4872;0.001038402;0.06956553;0;
241.9014;0;0;85.53999;-11.90608;-15.29469;270.974;261.2348;0.1959394;-0.4502431;0;
689.4332;0;0;149.172;-7.137721;-13.13587;714.3538;703.125;0.1307752;-0.319856;0;
396.0126;0;0;122.2231;-5.188165;-11.85;426.7802;414.1259;0.06567641;0.005302074;0;
152.8617;0;0;130.2212;-12.14918;-7.015441;184.348;176.0793;-0.2592263;-0.1896053;0;
188.69;0;0;131.2773;-12.60548;-4.999026;217.4585;212.5714;-0.1290311;-0.2543821;0;
-241.4084;0;0;-4.723851;-11.52109;-3.855294;-206.2971;-212.1788;0.3908373;-0.05922448;0;
-684.8179;0;0;-282.9543;-11.84528;-1.975898;-644.8068;-650.4327;0.0006404903;0.2007044;0;
-439.7526;0;0;-185.7811;-10.02472;-8.069237;-403.7173;-408.213;-0.4541315;0.07056806;0;
-204.6162;0;0;24.23756;-10.08102;-9.065873;-169.3667;-175.4197;-0.1288385;-0.2543396;0;
-234.0207;0;0;-7.770713;-5.985054;-8.587883;-198.057;-206.6651;0.261095;-0.254084;0;
228.4821;0;0;85.19037;-3.902935;-8.914168;256.6011;247.9391;0.3907673;0.1359754;0;
698.7035;0;0;148.5729;-8.453364;-8.101417;722.2965;713.0811;0.0005706234;0.9804142;0;
406.5229;0;0;122.749;-8.244776;-7.155515;436.2142;425.8835;0.06553739;0.8494943;0;
144.4335;0;0;128.9975;-5.95834;-4.603096;175.4692;169.022;0.3903083;-0.1258693;0;
187.4542;0;0;133.9278;-4.880626;-3.191829;217.2718;213.7671;0.1300467;-0.1907102;0;
-235.7715;0;0;2.671624;-5.546283;2.035925;-198.4252;-203.5505;0.129916;0.3941875;0;
-693.1171;0;0;-285.1239;-5.33964;3.373538;-651.4979;-655.8061;0.06481814;0.4587588;0;
-456.6642;0;0;-197.194;-1.985372;9.197541;-420.1468;-422.7639;-0.5849204;-0.1264083;0;
-215.3889;0;0;15.14755;-2.384542;12.06844;-180.0326;-185.6456;-0.7142674;-0.1912486;0;
-230.6022;0;0;-14.16545;5.923249;3.750678;-194.6568;-203.45;-0.4536803;0.3936496;0;
235.6453;0;0;83.23734;9.600993;3.411994;263.6211;255.5238;-0.5831591;0.06841739;0;
693.5532;0;0;149.1205;-1.393367;-4.495298;717.8777;708.0395;-0.06283442;-0.2564881;0;
405.5008;0;0;122.0467;-1.391967;-8.710584;436.1102;424.9075;0.5219348;0.00363901;0;
157.7801;0;0;129.5453;-6.079618;-1.132882;188.921;181.7276;0.1316063;0.06860271;0;
194.4781;0;0;131.7889;-8.952921;-1.466658;223.6511;218.8387;-0.06342796;-0.3862376;0;
-235.8761;0;0;-0.7769454;0.4331974;-0.4604408;-200.2357;-206.1677;0.1965051;-0.5807515;0;
-685.9752;0;0;-281.9473;0.6338329;0.5446438;-645.7479;-651.1742;0.1313403;-0.385266;0;
-448.0927;0;0;-191.8342;6.326623;1.481858;-411.2791;-416.2627;0.1961757;-0.4498462;0;
-211.6985;0;0;19.06516;8.864885;2.753044;-175.2968;-183.0864;0.1959786;-0.2544922;0;
-232.2879;0;0;-8.93993;5.507076;1.611568;-195.2355;-205.7659;-0.129055;0.005632896;0;
234.0862;0;0;84.83442;6.640618;1.877881;262.6056;252.9603;-0.3887947;-0.3192095;0;
704.4894;0;0;148.2797;-0.06385981;-0.4682869;728.7323;717.8474;-0.193502;-0.188954;0;
411.3661;0;0;122.5186;-1.806084;-2.075407;442.0813;429.2083;0.1964964;-0.0588295;0;
147.71;0;0;128.2051;-3.14344;1.744584;179.0191;169.0326;0.2612664;0.07116431;0;
196.6619;0;0;134.6355;-5.351084;2.345677;225.9406;217.8381;-0.2587349;0.2659948;0;
-225.5735;0;0;2.81639;0.415069;-2.948209;-189.8276;-198.0468;-0.3234423;0.07082553;0;
-687.3022;0;0;-285.479;1.88852;-3.615076;-647.7191;-653.7437;-0.1931826;0.005787009;0;
-447.0445;0;0;-192.9261;1.417132;-3.74541;-412.3113;-417.7051;-0.2579558;0.005781194;0;
-209.7144;0;0;17.59957;3.023299;-4.679408;-175.3909;-185.2145;0.1321074;0.1357101;0;
-235.0533;0;0;-15.71387;4.962644;-2.062371;-199.5774;-212.3897;0.2619094;0.005639023;0;
233.51;0;0;82.93983;6.297804;-2.462196;260.7669;249.5291;-0.3880272;-0.05933398;0;
697.2296;0;0;148.8233;8.636001;1.961029;720.7735;708.5475;-0.4526047;0.200595;0;
412.3594;0;0;121.5;9.69905;3.834581;441.2519;427.8513;0.1975235;0.1354261;0;
165.319;0;0;129.4988;10.76006;-2.934426;194.1825;185.2307;0.1323577;0.2652247;0;
198.761;0;0;130.8679;12.35683;-3.66829;226.596;221.0265;-0.2575793;0.3299256;0;
-230.7854;0;0;-0.3227016;4.977027;-5.807936;-195.857;-202.9201;-0.1273858;0.06972469;0;
-679.2654;0;0;-279.7444;2.627502;-8.146502;-640.0618;-646.6806;-0.3871272;0.1995893;0;
-445.6375;0;0;-190.9453;8.45201;-3.717566;-410.9085;-415.9589;-0.2568035;-0.06048062;0;
-212.0569;0;0;17.82919;8.176074;-3.512882;-179.0495;-187.4057;0.1332586;-0.3852566;0;
-232.2086;0;0;-13.29809;8.502651;-5.987598;-198.5472;-210.9554;-0.1267447;-0.5797715;0;
229.9175;0;0;81.85495;8.761552;-5.847616;255.7366;243.7156;0.06828467;-0.4492542;0;
699.6378;0;0;148.6141;7.078785;-5.506825;720.7457;707.8623;0.1981507;0.07093593;0;
413.7656;0;0;121.9781;6.736879;-4.295722;440.662;426.9169;-0.06191773;0.005897294;0;
149.6699;0;0;128.2898;3.24651;-5.965857;178.1009;169.3047;-0.2567575;-0.253978;0;
201.1811;0;0;134.1579;0.6312792;-5.423998;227.8969;222.8576;-0.1915322;-0.1887555;0;
-213.3753;0;0;5.650095;5.453416;-1.399694;-179.8773;-185.4737;0.003562273;-0.1235985;0;
-683.1122;0;0;-281.7736;6.050173;-0.3935441;-644.5254;-649.4915;0.06852604;-0.3183763;0;
-448.4809;0;0;-196.4707;-0.1842211;5.032225;-414.8679;-419.3917;0.3283266;-0.5779257;0;
-205.4647;0;0;18.93102;0.5519221;7.036656;-173.0099;-181.4022;0.5228987;0.00736103;0;
-239.0537;0;0;-11.57268;-4.471498;7.632432;-205.1323;-216.5147;0.002634523;0.3321904;0;
221.6425;0;0;81.14236;-4.936496;9.768217;247.8462;238.037;-0.4521395;0.007019847;0;
697.6804;0;0;148.277;2.369482;1.318674;720.4845;710.5601;-0.06188115;-0.05795455;0;
413.3095;0;0;121.7038;3.305106;-1.361846;443.1496;431.3611;0.3279851;0.07203838;0;
152.8374;0;0;128.8279;16.69837;2.926308;184.5216;175.9309;-0.06214854;0.1369333;0;
192.3514;0;0;131.2597;21.50339;1.784658;221.6299;216.3587;-0.3869228;0.1367957;0;
-224.445;0;0;2.7548;19.27196;1.916831;-191.3853;-198.5877;0.003270034;-0.05824374;0;
-673.4937;0;0;-278.1068;20.92655;2.383785;-638.5931;-645.9132;0.1981688;-0.1881199;0;
-441.808;0;0;-194.7441;17.4229;-0.7666859;-411.003;-417.0664;0.06803497;-0.3828329;0;
-205.4827;0;0;18.59443;17.27167;-0.4979838;-174.3338;-183.5145;0.2628686;-0.1875462;0;
-220.8933;0;0;-9.160312;3.925081;-0.09570787;-190.4004;-201.6334;0.1976372;0.2674136;0;
238.3479;0;0;81.74071;-2.04071;0.3062859;258.6278;248.7804;-0.3223002;0.2021776;0;
698.3771;0;0;148.0627;4.861193;4.057023;714.4512;702.4897;-0.3869437;0.1370071;0;
416.0669;0;0;121.6771;3.38244;4.521826;439.3712;425.2978;-0.06171814;0.1368694;0;
154.5925;0;0;128.239;3.379041;10.27757;180.5596;170.186;0.003311213;-0.05817012;0;
195.2917;0;0;132.6703;4.045231;12.20975;219.5459;212.4312;0.003307886;0.1367904;0;
-218.759;0;0;2.352469;6.385691;11.39369;-188.4072;-195.5773;0.1332392;0.3315549;0;
-678.4955;0;0;-282.5692;8.857521;14.2625;-643.3641;-650.0273;0.1980727;0.07135244;0;
-441.745;0;0;-196.7033;8.380107;1.588642;-411.1465;-417.2408;0.067939;-0.448458;0;
-194.1128;0;0;19.82314;9.643508;-0.757235;-163.9825;-172.8192;-0.06206395;-0.5129747;0;
-225.5894;0;0;-9.869364;11.91197;3.798243;-192.8031;-204.567;-0.1919363;0.2021815;0;
221.7251;0;0;80.47015;11.96637;1.985888;247.7318;236.417;-0.5165801;0.007076283;0;
693.3276;0;0;148.1053;15.77274;14.17454;714.623;701.9453;-0.4510937;-0.3827349;0;
418.956;0;0;121.3448;16.42648;16.97346;444.7278;430.8134;0.06909828;0.2673231;0;
161.8516;0;0;128.6566;10.98399;16.21959;188.1597;178.6321;0.004061507;0.2020872;0;
200.6694;0;0;131.1511;9.097919;18.01184;225.7016;219.0572;-0.1258773;-0.1879199;0;
-219.2588;0;0;2.583833;3.998563;12.76919;-187.0678;-194.705;0.06915125;-0.05779644;0;
-676.8708;0;0;-277.4655;0.04243057;11.48368;-638.9651;-645.3453;0.2639838;-0.2526404;0;
-449.4297;0;0;-197.8516;0.3771806;5.979666;-415.8724;-420.5595;0.3286859;0.07245019;0;
-208.5365;0;0;18.55105;-1.498232;2.356701;-177.1368;-184.3804;0.003518907;0.6570835;0;
-227.0051;0;0;-3.956286;-5.649913;1.349589;-194.575;-203.9977;0.06848271;0.2666192;0;
225.6206;0;0;83.12891;-6.715963;-0.9960474;250.6469;242.2955;0.2633159;-0.5132568;0;
694.5331;0;0;147.0757;-7.579871;-2.334705;714.5367;704.882;0.06814932;-0.5127411;0;
422.3467;0;0;121.6281;-7.907047;-3.605035;447.765;436.4333;0.1330482;0.2024149;0;
162.3028;0;0;128.2525;-3.880614;-0.1184221;189.4447;181.9349;0.1329145;0.007309433;0;
197.8718;0;0;131.4345;-2.470195;1.55627;223.3622;218.796;-0.1920558;-0.5124366;0;
-216.3064;0;0;6.427705;1.149609;-0.7225913;-184.7822;-190.3433;-0.0619281;0.1377517;0;
-674.921;0;0;-275.0623;3.090837;-0.5209164;-638.306;-643.2368;0.1330362;0.3325153;0;
-442.984;0;0;-193.3893;4.627973;5.775759;-410.9036;-414.705;-0.1269669;-0.05762288;0;
-192.4147;0;0;25.13278;6.633055;7.913409;-162.6153;-169.0366;-0.3217413;0.2023044;0;
-231.5141;0;0;-7.875895;0.5308208;4.221518;-200.1205;-210.0336;0.068386;0.3970031;0;
211.5585;0;0;77.21425;-1.344747;3.748396;235.924;226.7081;0.06831728;0.006800173;0;
701.7244;0;0;147.7887;1.871785;4.883217;720.9431;711.2366;-0.1916207;-0.1231413;0;
424.9706;0;0;121.7782;1.334041;4.208603;449.917;438.4087;0.06844117;0.2018191;0;
154.3669;0;0;126.9032;-2.619414;3.601528;180.2877;172.7265;0.1983071;0.2016163;0;
206.3106;0;0;133.5847;-4.425444;4.200756;231.0185;226.9631;-0.1267289;0.2014137;0;
-208.8757;0;0;8.638229;-2.880755;-3.506381;-176.0716;-182.0594;0.1332678;0.331146;0;
-682.4276;0;0;-278.5386;-3.882239;-5.780155;-645.4712;-650.6409;0.328036;0.265846;0;
-456.855;0;0;-199.6108;-3.476196;-0.2150076;-424.6833;-428.0987;-0.1920324;0.4604809;0;
-218.7654;0;0;13.17045;-3.271632;-1.085448;-186.501;-193.8485;-0.2568068;-0.05972058;0;
-239.6599;0;0;-16.95264;-4.742214;5.814641;-206.6159;-216.5173;-0.2565487;-0.5793993;0;
225.9095;0;0;79.39097;-3.330929;7.818286;250.7993;242.4697;-0.5161603;0.005888955;0;
695.4464;0;0;148.4015;-7.547141;6.20284;715.9384;706.2428;-0.385707;0.1358177;0;
414.9507;0;0;120.204;-7.071043;8.942907;441.0443;429.9217;0.06945194;-0.05922077;0;
157.7253;0;0;128.5789;-4.384621;-4.194489;184.8547;177.5539;-0.1255199;0.07077343;0;
197.5468;0;0;130.1364;-4.916079;-7.539299;223.5245;218.6047;-0.3202958;-0.1891671;0;
-219.4422;0;0;3.694088;10.76262;0.9748651;-185.6196;-191.8462;0.2647322;-0.0590423;0;
-676.9916;0;0;-275.7317;16.17682;1.241817;-639.205;-644.6757;0.3944008;0.005984361;0;
-451.2995;0;0;-197.4313;8.725822;2.513245;-420.0475;-424.0135;-0.1257342;-0.1239563;0;
-206.9686;0;0;22.84392;9.521338;3.180549;-177.1848;-183.9579;0.004326811;0.5258417;0;
-228.7496;0;0;-0.2924123;9.378049;8.468883;-197.1842;-206.4492;-0.06064488;0.4603459;0;
215.3197;0;0;81.85409;8.966484;10.80465;239.4196;231.913;-0.3854207;0.1350467;0;
692.176;0;0;146.3019;6.41188;6.306063;711.5042;703.1929;0.004770672;0.3947803;0;
422.2408;0;0;121.8546;6.539158;5.161017;448.3586;437.1198;0.004765879;0.004579602;0;
149.3285;0;0;126.6672;-2.643464;6.361524;177.2941;169.1275;-0.385043;-0.3202617;0;
194.2808;0;0;133.1616;-7.530928;5.551336;220.2193;215.6841;0.07011533;-0.2549726;0;
-209.0243;0;0;11.33896;11.43293;0.1872459;-175.8655;-181.583;0.4598489;-0.3196837;0;
-681.0768;0;0;-280.7131;15.17249;-1.085496;-642.6415;-647.6662;0.3294522;0.005474218;0;
-457.0048;0;0;-205.3438;9.731258;-6.710849;-422.6061;-427.001;0.004284437;0.07043608;0;
-206.7961;0;0;18.37516;11.99866;-9.517389;-173.0567;-181.3827;-0.3205566;0.005397943;0;
-238.8221;0;0;-11.56576;6.561593;-3.546468;-205.0541;-214.9335;-0.1253325;0.1353272;0;
212.6285;0;0;76.83893;4.545268;-4.145751;237.5545;229.6841;0.1346629;0.005256542;0;
692.2362;0;0;147.9135;9.698264;0.9489961;712.7019;703.6525;0.1345275;-0.05971608;0;
418.6778;0;0;120.4036;8.751491;2.086752;445.0574;433.8307;0.1993597;-0.05965608;0;
162.6981;0;0;127.6539;6.197101;1.816724;189.8633;182.0836;0.134192;-0.1895308;0;
201.9523;0;0;130.3367;4.918077;3.422489;227.2161;223.005;0.06908987;-0.5141771;0;
-218.6643;0;0;6.080645;0.2914346;-6.762112;-186.0546;-191.8857;0.6537265;-0.6435951;0;
-679.338;0;0;-275.6588;-1.852312;-8.563856;-641.4511;-647.7761;0.5881023;-0.188177;0;
-454.518;0;0;-201.2316;-3.458041;-13.3779;-421.5418;-426.736;-0.5819008;0.006914063;0;
-211.0585;0;0;15.11191;-4.458944;-17.45029;-179.7395;-187.8021;-0.5163487;-0.3828969;0;
-234.7719;0;0;-11.45243;-7.535923;-7.988411;-202.5474;-212.8507;0.4586802;-0.4474795;0;
212.2395;0;0;77.76424;-9.135942;-7.64547;236.3106;228.3915;0.003447951;-0.3820626;0;
692.5347;0;0;147.0887;-0.8877388;-3.150054;712.5212;704.485;-0.3863596;-0.251744;0;
419.913;0;0;121.1414;1.792471;1.340846;446.751;436.3491;0.1987347;0.138313;0;
147.128;0;0;126.4544;-0.754926;-8.77468;174.8136;167.2332;-0.2562363;0.07320672;0;
199.9535;0;0;133.5113;0.6523522;-9.033794;225.6123;221.3504;-0.840685;0.008165797;0;
-204.919;0;0;11.68828;1.388631;-1.924649;-171.8522;-176.6721;-0.4500362;0.1380923;0;
-688.9072;0;0;-283.3002;0.7840232;-0.04731474;-651.6258;-655.0665;-0.1897146;0.008018836;0;
-468.2631;0;0;-211.0517;9.089607;1.158426;-435.6418;-438.2044;-0.189524;-0.1868912;0;
-208.298;0;0;16.671;12.76417;3.099767;-176.3342;-183.4545;-0.05939888;-0.1217361;0;
-233.7633;0;0;-8.770471;-0.510545;4.503294;-200.8321;-211.1936;-0.1243065;0.07328825;0;
210.2486;0;0;77.81982;-1.917528;4.632734;235.4005;226.7361;-0.384051;0.3980513;0;
689.1714;0;0;147.3316;-1.312389;13.06769;708.9258;700.2701;-0.3186978;0.07281464;0;
420.801;0;0;120.3846;-4.191458;16.20263;445.4081;434.8246;0.2013612;-0.2520953;0;
160.0091;0;0;127.1352;7.669099;6.474069;186.6529;178.8911;0.006256848;0.07299478;0;
202.7018;0;0;131.3177;9.402705;4.993939;228.1944;223.6887;-0.3185861;0.1378888;0;
-207.0461;0;0;8.12266;9.995494;4.921938;-175.6445;-181.6449;0.006570678;-0.3819885;0;
-673.7908;0;0;-277.4919;13.60277;3.376507;-637.2984;-643.1053;0.1364988;-0.3166374;0;
-461.6576;0;0;-205.9364;-0.8792092;1.698541;-429.0749;-432.877;-0.1235078;0.1384522;0;
-220.4397;0;0;11.84862;-4.695743;0.02226101;-188.7019;-196.2483;-0.05841632;0.2682478;0;
-242.7694;0;0;-13.83788;3.815442;1.763795;-209.2518;-220.2264;0.07157706;0.3329456;0;
207.8732;0;0;76.31821;2.204018;0.2883981;232.6114;223.5219;-0.3182989;0.007774314;0;
695.8564;0;0;147.0184;6.086569;7.388177;714.3854;705.1801;-0.05810972;-0.1221682;0;
426.2299;0;0;120.8213;8.626049;10.52883;451.237;440.3543;0.5266547;0.2677586;0;
147.1292;0;0;126.1972;-4.175993;-1.94021;174.485;166.7991;-0.05858051;0.07258757;0;
197.0187;0;0;133.1293;-6.58367;-3.478868;222.7228;218.293;-0.1884563;0.007547276;0;
-199.2302;0;0;15.99184;1.058755;-3.274423;-167.7423;-172.9797;0.2665044;0.3973438;0;
-680.413;0;0;-274.6281;2.196767;-6.017311;-645.3961;-649.7537;0.2012693;-0.1877616;0;
-462.7759;0;0;-206.6987;2.127211;3.968948;-432.4168;-435.0209;-0.188737;-0.2525403;0;
-201.3796;0;0;17.02163;3.867362;6.51019;-172.3628;-178.0877;-0.1885473;0.1375176;0;
-236.6594;0;0;-12.16831;6.207025;-1.868975;-207.0471;-215.8897;0.5912502;0.07241204;0;
200.6712;0;0;74.23799;7.742005;-2.938823;222.82;215.6104;0.5256888;0.397176;0;
692.5972;0;0;147.7514;9.676609;0.413154;710.2885;702.7114;0.07038917;0.5916789;0;
422.9115;0;0;120.1168;9.264744;-0.1231246;446.5195;437.2633;0.2652205;0.5261171;0;
149.1239;0;0;127.055;15.75315;0.4798455;173.5828;168.3339;0.07005195;0.5255884;0;
194.0764;0;0;130.3007;17.07649;1.350142;216.7616;214.454;0.06998155;0.07028891;0;
-207.6043;0;0;8.043622;7.347414;-4.478608;-176.7585;-181.6875;0.2648133;-0.4495205;0;
-672.287;0;0;-271.1366;5.597743;-4.942989;-635.1629;-640.5242;0.06964515;-0.3841015;0;
-457.8439;0;0;-200.2122;-1.775273;-6.143593;-425.0675;-428.7367;0.3294445;-0.2537808;0;
-209.3211;0;0;16.94241;-4.854948;-7.544061;-178.8264;-185.0532;0.4590482;-0.05862379;0;
-235.1601;0;0;-9.186484;-4.983791;-0.7713267;-204.0715;-213.0406;0.1987176;0.2662718;0;
203.2309;0;0;76.02991;-6.184232;-0.8375346;226.5422;218.4567;0.003615877;-0.05883243;0;
687.908;0;0;146.543;-2.360601;5.72739;705.6362;696.3719;-0.3212245;-0.1237407;0;
424.7862;0;0;120.4713;-2.693022;8.534919;448.0562;437.302;-0.3209017;0.2661877;0;
152.496;0;0;126.0349;12.98345;-1.587836;176.9921;170.3091;-0.1906446;0.1359856;0;
197.695;0;0;132.0927;19.46811;-2.858916;219.7926;216.3023;0.06941636;0.005914254;0;
-200.4911;0;0;12.39504;9.199795;-8.013607;-171.9814;-176.7801;0.6540526;0.005908311;0;
-674.3014;0;0;-276.4722;10.46335;-11.01967;-641.6974;-646.1165;0.4584935;-0.1889997;0;
-458.1072;0;0;-207.2915;9.180037;-10.94161;-430.5334;-433.3864;0.06822871;-0.2537771;0;
-200.2763;0;0;17.179;8.367505;-13.20804;-173.8546;-180.1405;0.2630622;-0.1885547;0;
-235.4323;0;0;-11.44887;6.014573;-7.434354;-207.7878;-216.7535;0.3277652;0.07150409;0;
196.0251;0;0;73.33252;2.99442;-5.618344;216.8326;210.1873;0.1975012;0.591171;0;
690.8917;0;0;147.0967;10.29243;-8.492965;706.8683;700.3547;0.06736805;0.3956749;0;
430.4531;0;0;120.2748;11.15274;-8.149517;451.5361;442.905;-0.06263433;0.07044066;0;
149.9738;0;0;125.9636;8.930734;-2.648849;173.0346;166.1613;0.002395945;0.005402525;0;
200.6726;0;0;131.709;11.13256;-0.7706659;221.9611;217.9682;0.002393537;-0.2544723;0;
-192.5815;0;0;12.32413;5.695393;-4.119038;-165.0675;-169.5561;0.002391133;-0.1892492;0;
-673.0839;0;0;-275.1063;6.695024;-4.248865;-641.0374;-644.0846;0.4571601;0.00584295;0;
-462.7629;0;0;-207.4262;4.210051;-6.119996;-435.7461;-435.6669;0.06689671;0.07080443;0;
-208.2381;0;0;16.10744;0.5211492;-8.056352;-182.0605;-184.6675;-0.5828439;-0.1241687;0;
-235.1403;0;0;-11.58234;26.041;-5.302078;-206.8026;-213.405;0.002447799;-0.2539787;0;
206.6865;0;0;73.32413;32.1104;-5.162785;227.0622;221.4035;0.327282;0.2660153;0;
695.9828;0;0;147.0259;21.42724;-10.71694;711.6529;705.5001;-0.06285086;0.46065;0;
431.2912;0;0;119.8917;23.95131;-11.71091;453.817;445.609;0.002179638;0.0703831;0;
157.2453;0;0;126.3304;8.655621;-12.23501;181.3103;176.4838;0.06714479;-0.1245897;0;
202.8768;0;0;130.7012;2.686053;-13.36142;225.2934;224.095;0.002109981;-0.1894318;0;
-197.8132;0;0;11.69216;7.70622;-9.463111;-167.7355;-170.8068;0.3919119;-0.3841435;0;
-674.8746;0;0;-271.0525;2.339842;-9.587568;-639.3923;-643.6475;0.3265508;-0.1888555;0;
-465.114;0;0;-205.9377;11.2461;-4.956234;-434.9773;-437.5415;-0.06358139;-0.1236984;0;
-208.9627;0;0;15.78287;13.17718;-2.673835;-181.5424;-185.6033;0.2613192;-0.05860675;0;
-238.1754;0;0;-7.971054;-3.245779;-10.17311;-208.8461;-215.839;0.326024;0.4611909;0;
199.469;0;0;74.74538;-5.385972;-11.16751;222.6469;216.5357;-0.1940424;-0.05901127;0;
697.9554;0;0;146.4467;-8.729463;-9.682791;716.175;708.5707;-0.12888;-0.7086254;0;
434.2613;0;0;120.2501;-13.1423;-9.070215;457.1477;447.1772;0.2610535;-0.448044;0;
154.3404;0;0;125.6265;0.6696369;-13.21392;178.2034;172.4283;0.3257585;-0.1227571;0;
204.2227;0;0;131.9346;3.280932;-13.40159;227.5619;224.6662;0.2604639;0.2671703;0;
-193.7825;0;0;13.36155;-1.611508;-9.704187;-162.7207;-167.6125;0.1952348;0.07199985;0;
-676.6575;0;0;-274.9445;0.5335647;-9.828403;-641.379;-645.7037;0.260006;-0.3178765;0;
-470.9557;0;0;-211.6998;-5.026677;3.376867;-439.9604;-442.4067;-0.06509198;-0.1226551;0;
-212.6121;0;0;15.8361;-6.361773;8.731987;-181.8354;-185.9659;-5.922864E-05;0.3972069;0;
-234.8246;0;0;-4.419634;1.080335;1.824093;-202.7046;-209.1423;0.4547122;0.7216445;0;
200.63;0;0;75.73202;2.351071;3.42985;224.0972;218.5405;-0.0005160661;0.1362133;0;
687.746;0;0;145.8082;1.009538;2.689592;704.8802;698.9543;-0.5852216;-0.05882564;0;
429.8717;0;0;120.2369;1.87918;2.48594;451.9237;444.1297;-0.4546989;0.1361355;0;
158.5759;0;0;125.5509;0.738216;2.751374;181.9801;176.9426;-0.1294053;-0.05890332;0;
201.0826;0;0;130.9844;0.2689598;1.810849;222.5892;220.8051;-0.1942426;0.006123205;0;
-197.4817;0;0;12.16248;4.019734;5.292019;-169.6249;-172.5316;-0.1290801;-0.05885029;0;
-670.7952;0;0;-273.6436;5.221143;5.889548;-638.6561;-642.0597;0.2608536;-0.05879116;0;
-462.4756;0;0;-208.5262;0.527824;6.151562;-435.1164;-436.9548;0.0656895;0.006235259;0;
-207.8886;0;0;14.88362;-0.4780604;7.752972;-181.3065;-184.5174;-0.06431118;0.07119635;0;
-236.0405;0;0;-7.24522;3.006021;1.984771;-208.2357;-213.8172;0.1306555;-0.05880989;0;
194.8552;0;0;75.78283;3.605236;-0.160555;215.4482;210.1222;-0.2592799;-0.1237181;0;
691.0974;0;0;145.6715;1.525509;9.083007;706.3598;700.2271;-0.7137907;0.2662102;0;
436.7805;0;0;120.2254;1.657698;10.27945;456.9001;449.4617;-0.2583021;0.1360081;0;
150.6727;0;0;125.1645;3.665764;6.250268;172.8335;168.9008;0.2616962;-0.05903063;0;
197.2478;0;0;131.7229;4.532737;6.377954;218.6368;217.5816;-0.1283709;0.1359307;0;
-191.1303;0;0;14.77425;7.140151;2.08476;-163.0787;-165.3822;-0.3231439;0.0708268;0;
-676.5067;0;0;-278.5307;9.745921;0.4080916;-644.6102;-646.2867;-0.1279172;0.135723;0;
-467.2442;0;0;-213.9706;3.84163;0.943545;-440.7521;-441.1151;-0.4526253;-0.3841521;0;
