Fp1;Fp2;O1;O2;POLY3;POLY4;A1;A2;Video;Audio;event;
719.2902;0;0;621.7685;9.976698;-4.608573;689.5966;684.3189;0.1027783;0.02390799;0;12:37:31 Глаза открыты;
451.889;0;0;420.3072;6.68512;-3.532216;428.2847;421.7629;0.2326097;-0.3009528;0;
173.3247;0;0;169.3233;5.941468;-3.930564;151.3059;147.7267;-0.02749335;-0.3656177;0;
201.6363;0;0;191.8917;7.610437;-10.89272;179.2647;177.3757;-0.3523024;-0.1703483;0;
-197.4284;0;0;-166.3711;7.40172;-12.3554;-212.2812;-215.4801;0.03785561;-0.2351445;0;
-657.5611;0;0;-614.0413;8.063868;-20.7156;-668.8383;-670.2849;0.2976869;-0.2998755;0;
-440.5716;0;0;-459.3143;9.261214;-24.71364;-457.1473;-457.0307;0.2324205;0.09022984;0;
-183.1956;0;0;-231.2172;3.022618;-18.59349;-200.1919;-203.3238;0.2971543;0.2850412;0;
-200.94;0;0;-244.2282;2.148924;-18.37386;-215.2955;-221.2978;-0.027981;-0.1050493;0;
240.9149;0;0;153.3175;4.22287;-17.88651;219.5148;214.0183;-0.1578876;-0.1049437;0;
725.1793;0;0;622.8648;3.682763;-16.59599;697.6788;691.6256;-0.2226963;0.1550311;0;
455.8357;0;0;421.7148;10.10942;-12.02459;433.2978;425.8139;-0.09253781;0.08990799;0;
164.149;0;0;163.9828;12.44379;-9.266211;143.3205;138.1554;-0.02747749;0.08981765;0;
204.3388;0;0;197.9259;11.49328;-9.390865;181.7821;179.5582;-0.1573846;-0.2351093;0;
-178.0494;0;0;-145.288;13.22305;-7.706856;-193.6495;-197.1205;0.2325776;-0.2998404;0;
-653.5689;0;0;-608.0968;12.67487;-9.373686;-663.9684;-667.3734;0.1673766;-0.1696045;0;
-445.454;0;0;-462.2463;13.26437;-10.43599;-460.0284;-462.4305;0.1022411;-0.2993687;0;
-181.4514;0;0;-227.1498;10.70545;-6.071739;-197.7603;-202.9086;0.232073;0.1557035;0;
-205.0071;0;0;-247.2863;7.81528;-5.19486;-220.7374;-228.0045;-0.1579642;0.155547;0;
234.9154;0;0;149.0756;15.44324;-12.22273;212.3293;205.1945;0.2319985;0.0904234;0;
723.3712;0;0;625.3113;15.1593;-13.75093;696.0602;687.5582;0.5566021;0.2202672;0;
457.2153;0;0;423.0344;7.64198;-13.26823;436.0536;426.5607;0.03630414;0.09011122;0;
174.6476;0;0;169.7989;5.022333;-14.12568;155.6937;149.771;-0.02869968;0.4148574;0;
203.4576;0;0;194.6157;-3.421831;-11.29832;182.3988;179.4805;0.2961659;0.08960382;0;
-194.297;0;0;-161.0262;-8.710654;-9.947313;-208.713;-212.8152;0.4258029;-0.6900943;0;
-654.8702;0;0;-611.8877;-10.57694;-12.08077;-664.649;-668.4348;0.2954404;-0.2995969;0;
-443.6305;0;0;-463.6595;-14.45107;-12.87231;-458.3345;-460.3673;-0.02969314;0.09050824;0;
-185.3144;0;0;-230.2483;-15.84307;-1.94152;-201.5653;-205.9699;-0.09463065;0.415254;0;
-197.4969;0;0;-242.0733;-16.76516;1.878458;-213.1694;-220.3181;-0.2894376;0.6097388;0;
239.2945;0;0;147.4742;-17.01673;-5.156515;215.7044;209.8746;-0.4190814;0.02442003;0;
724.3102;0;0;621.0254;-13.85083;-3.543744;695.3714;688.9853;-0.158791;-0.1055392;0;
462.2138;0;0;422.8132;-19.79876;-7.62602;438.489;430.5475;0.4260747;0.3493383;0;
163.7117;0;0;155.6475;-19.91258;-8.690084;141.3225;137.1372;0.3606792;0.08911787;0;
198.0923;0;0;184.4765;-4.085092;-1.715371;173.0395;172.0443;0.03548006;0.02406098;0;
-181.666;0;0;-154.7884;-2.138605;-1.043818;-199.7596;-202.6903;0.1004118;0.2189388;0;
-660.4302;0;0;-619.3368;15.61341;3.444965;-673.3832;-675.4988;0.2302455;-0.1061179;0;
-448.6227;0;0;-473.9748;24.64005;4.51323;-467.3723;-467.3619;0.1650469;-0.1709786;0;
-176.6209;0;0;-232.1198;0.1676221;7.589911;-196.6635;-200.2139;-0.1599557;-0.1708068;0;
-208.5523;0;0;-258.1234;-2.645586;9.323718;-226.8881;-234.3079;-0.2247623;-0.2356025;0;
225.1268;0;0;131.7526;-2.642927;1.477591;199.8755;194.1497;-0.2245365;-0.1054311;0;
720.2142;0;0;614.8773;-5.989174;0.2034302;690.428;685.1453;-0.2892782;-0.1053252;0;
457.872;0;0;420.232;-7.590746;-4.954338;432.9883;426.2741;-0.02911816;-0.1701867;0;
173.4921;0;0;171.6845;-9.994993;-7.159797;150.3825;146.6111;0.1008458;0.02488638;0;
202.3032;0;0;199.8102;-4.157801;-8.023258;178.1549;176.886;0.03577711;0.2197634;0;
-194.2008;0;0;-154.8998;-3.281991;-9.957702;-211.2035;-214.2827;0.1007085;0.02464055;0;
-656.7731;0;0;-606.3922;5.897358;-1.374125;-668.5738;-672.1496;-0.02932738;-0.3002209;0;
-447.2182;0;0;-463.0421;12.32179;0.502778;-463.6921;-466.4523;0.03566943;-0.3648866;0;
-193.9584;0;0;-240.6259;4.941047;3.181468;-212.2274;-217.6084;-0.09430109;0.1552188;0;
-210.7549;0;0;-252.3156;7.81647;5.790606;-227.4439;-235.5057;-0.1591737;0.3499648;0;
231.0474;0;0;145.6755;11.69338;3.842282;207.9409;200.387;0.03588828;0.02477648;0;
723.8799;0;0;623.3514;13.82509;4.173336;695.9241;688.1904;0.2957216;-0.1051831;0;
470.2171;0;0;434.5072;18.70131;4.10216;447.7867;438.8738;0.3603918;-0.1700448;0;
174.0183;0;0;172.1398;18.7489;4.83485;153.9218;147.9538;-0.3546111;-0.03993922;0;
205.3901;0;0;199.9527;33.26474;-4.547374;184.3142;181.4758;-0.5491568;0.02506827;0;
-175.6249;0;0;-141.3268;38.32251;-7.623898;-190.745;-193.5807;-0.158801;-0.1048916;0;
-664.0778;0;0;-616.0085;20.80158;-1.253103;-674.7475;-676.5183;0.03626063;0.02514848;0;
-462.1992;0;0;-475.7098;16.69484;-1.519776;-477.2934;-478.6876;0.0362242;0.09009055;0;
-180.751;0;0;-227.4189;20.56283;2.56771;-197.7666;-202.9075;-0.02877954;-0.2348367;0;
-207.2434;0;0;-252.2403;19.00193;4.507514;-222.5553;-230.5646;0.2960861;-0.2995681;0;
215.4399;0;0;128.6968;6.591604;2.158704;193.5843;186.52;0.3607559;-0.2342997;0;
719.5325;0;0;619.8206;2.565517;1.486705;692.0766;685.1443;-0.09437796;-0.03916227;0;
469.2474;0;0;436.8519;3.166152;6.240878;447.0665;439.4541;0.03565155;0.3506811;0;
172.8622;0;0;173.4827;0.08151133;7.4403;152.3902;147.4716;-0.09431896;0.09045941;0;
202.5485;0;0;195.4222;10.7987;0.1318058;180.1605;177.3708;-0.5489956;0.2203032;0;
-185.5226;0;0;-152.0371;12.32809;0.1316733;-200.3918;-205.1777;-0.02870521;0.4799512;0;
-659.098;0;0;-611.5908;14.32543;-7.839184;-668.5176;-673.7984;0.2961603;-0.3001392;0;
-453.9136;0;0;-471.234;16.72194;-10.77856;-468.6335;-472.5347;-0.1589086;-0.3648049;0;
-192.0889;0;0;-242.1254;8.868254;-2.729896;-209.4801;-214.8767;-0.02881428;0.02536569;0;
-210.449;0;0;-258.8111;7.787616;-3.062068;-227.448;-234.2759;0.231084;-0.03962715;0;
221.9827;0;0;131.1906;2.221062;6.117427;198.0043;192.5575;0.1009172;0.1553147;0;
712.0757;0;0;609.006;-0.3941143;8.991425;682.5617;676.6207;0.1657831;0.2850933;0;
463.5472;0;0;424.7364;-2.804616;9.116356;439.2478;431.4387;0.03568184;0.2848069;0;
172.1027;0;0;167.6261;-5.0126;11.92048;150.4514;145.7735;-0.2891907;0.08961866;0;
203.1641;0;0;194.6315;0.7532124;0.9905268;180.1602;178.1732;-0.4838022;-0.4302101;0;
-174.4753;0;0;-142.7695;2.561117;-1.488837;-191.1468;-194.756;-0.1584793;-0.2998432;0;
-658.2443;0;0;-609.8912;3.965063;-1.621307;-669.9639;-672.5075;-0.1583201;-0.1696072;0;
-459.9947;0;0;-477.3447;6.104533;-3.896976;-476.3252;-477.7419;-0.02822633;-0.2344041;0;
-184.2333;0;0;-238.7348;12.46141;-4.495906;-202.6714;-208.272;0.5565081;0.4155048;0;
-212.7838;0;0;-264.9816;15.86514;-6.098979;-230.7036;-238.8598;0.4260142;0.6099893;0;
210.5298;0;0;118.1547;15.31334;-0.935287;185.5691;179.1078;0.2306842;0.2195724;0;
717.5634;0;0;612.5375;17.17298;0.4053114;687.9425;681.4877;0.2954197;0.02444974;0;
470.1538;0;0;429.9509;13.40468;1.543614;446.3099;438.5497;-0.2246159;-0.04054219;0;
172.9556;0;0;168.5876;11.9847;4.288241;151.4469;146.2557;-0.4842595;0.08943325;0;
201.4549;0;0;193.2807;14.71932;-0.9406143;178.4061;176.3436;-0.2888709;-0.1055587;0;
-181.6176;0;0;-152.1775;14.23602;-1.475533;-197.8341;-200.7691;-0.353548;-0.1704199;0;
-654.1974;0;0;-611.4186;10.2696;3.080667;-664.963;-667.3328;-0.2882254;0.4144574;0;
-457.5137;0;0;-476.3719;8.517964;2.876623;-472.8285;-473.3844;-0.02806644;0.08920424;0;
-195.4979;0;0;-245.6339;8.844198;5.687016;-211.9843;-215.9754;-0.2229403;-0.1057874;0;
-213.1675;0;0;-259.1302;7.02665;6.55208;-227.5134;-235.0612;-0.09278157;0.4140576;0;
211.4583;0;0;126.3115;10.77063;1.78983;189.8805;183.9645;0.2971157;0.2837069;0;
703.6234;0;0;606.8805;12.30005;0.3813898;676.7574;670.0353;0.0369478;0.3483891;0;
459.851;0;0;428.5475;4.785605;0.2470407;438.4469;429.4201;-0.1579913;0.4130064;0;
169.5972;0;0;172.4329;4.647075;-0.5570027;149.8387;144.694;0.3619061;-0.04217996;0;
199.5366;0;0;198.1217;2.833745;-4.575297;179.1108;177.3447;0.4914772;-0.1071049;0;
-182.5344;0;0;-143.2184;0.7547923;-5.910358;-194.5689;-198.3948;0.3610486;-0.04202996;0;
-661.5477;0;0;-607.4661;12.34196;-3.827949;-668.8849;-672.7069;0.5555879;-0.04198773;0;
-456.5481;0;0;-464.7396;14.47301;-3.020307;-469.8125;-472.1939;0.6199969;0.08798916;0;
-177.417;0;0;-218.4587;14.12368;-4.55788;-192.4172;-197.17;0.1646026;0.1528681;0;
-210.7219;0;0;-249.2236;16.38666;-5.223129;-224.5201;-230.7673;0.03450253;-0.04218756;0;
199.7212;0;0;119.3417;11.01156;4.226469;178.4406;174.0112;0.1644025;-0.4319492;0;
709.4517;0;0;614.2229;11.26794;6.365675;682.8201;677.2708;-0.03066467;-0.04171114;0;
466.7979;0;0;437.5068;7.640272;6.225313;445.0033;437.5229;-0.0956012;0.4780695;0;
166.1048;0;0;173.4497;6.560868;8.965237;145.8937;142.4189;-0.09550514;0.2826871;0;
205.7304;0;0;207.7581;9.970527;-2.698436;184.0404;183.63;-0.5501806;-0.107401;0;
-173.6608;0;0;-134.0915;10.36167;-5.575991;-188.8322;-191.1162;-0.3547257;-0.04232572;0;
-662.0532;0;0;-607.4063;14.4371;-1.953432;-671.3998;-673.0568;-0.02953258;0.2825535;0;
-467.298;0;0;-473.8628;14.55729;-4.429716;-480.3834;-480.3521;-0.02950291;0.4122043;0;
-196.0895;0;0;-236.5682;23.51764;1.536095;-211.3481;-214.5653;0.1004614;0.1519208;0;
-214.0709;0;0;-255.5083;25.97226;2.807227;-228.0648;-234.7144;-0.1595089;-0.1081013;0;
208.432;0;0;121.3091;18.44407;-0.8126723;187.5806;181.8746;-0.224316;0.2168441;0;
706.597;0;0;604.7567;17.35382;0.7287517;680.2068;673.6321;-0.02918854;0.2815935;0;
469.0686;0;0;433.1725;8.160326;-6.238083;448.3271;439.3851;-0.1590939;0.1513759;0;
177.9933;0;0;177.9278;3.865219;-8.44213;159.8339;154.1493;0.1009353;0.2811585;0;
204.6135;0;0;201.5495;0.9809472;2.216395;185.098;183.1048;-0.09406811;0.4108106;0;
-178.9619;0;0;-141.5431;-1.833078;4.692414;-191.8985;-194.3271;-0.09397359;0.1505285;0;
-658.1036;0;0;-604.9179;-5.648653;1.606606;-666.4046;-667.9562;0.2959249;0.2153446;0;
-461.4784;0;0;-469.8152;-9.059229;2.542753;-475.5181;-475.9437;-0.09417652;0.5399649;0;
-190.7131;0;0;-233.774;4.613904;6.157155;-207.2999;-211.723;-0.02911454;0.4094877;0;
-211.0736;0;0;-255.7779;7.824449;7.557609;-226.2695;-234.7486;0.4906535;0.1492068;0;
210.1144;0;0;121.5395;6.208997;7.282084;188.1872;180.9659;-0.0295783;0.2140243;0;
720.0219;0;0;616.4186;9.284217;7.944474;693.8688;685.7803;-0.1594833;0.3437439;0;
482.2925;0;0;445.0725;5.189051;6.396006;461.6005;451.8334;0.4253831;0.2134638;0;
171.2765;0;0;172.8244;6.054493;5.920699;151.6048;146.6576;0.1650863;-0.1115874;0;
200.4022;0;0;197.076;3.234394;6.785528;179.6258;177.6196;-0.484753;-0.24141;0;
-170.1131;0;0;-135.7673;2.159417;6.845692;-183.4348;-188.0002;-0.2893639;-0.2411674;0;
-662.0073;0;0;-612.6411;7.583231;4.963292;-669.8184;-673.5046;-0.0292038;-0.3058924;0;
-469.8134;0;0;-483.3402;8.647339;4.087526;-482.4267;-483.7354;-0.2890438;-0.3705524;0;
-185.4215;0;0;-230.4814;10.17889;8.102273;-200.4585;-204.9518;0.03608332;-0.5001147;0;
-208.6609;0;0;-247.2413;11.64253;9.232841;-222.4959;-229.4834;0.1010144;-0.2397428;0;
204.9034;0;0;124.6953;13.23842;6.812301;184.2733;178.4797;-0.2239238;0.08533477;0;
713.6917;0;0;614.2614;13.82833;7.207354;687.6476;680.4855;0.1661052;0.2151837;0;
475.9687;0;0;439.5442;17.63186;6.463299;455.1356;446.4815;0.100971;0.2149675;0;
173.6422;0;0;172.7364;19.62387;6.054907;154.2043;149.4944;-0.2889345;-0.1100852;0;
203.4527;0;0;198.2999;12.839;10.73751;181.7855;180.8284;-0.1587095;-0.3048767;0;
-171.7508;0;0;-134.0449;12.49131;12.87017;-186.0874;-187.9805;0.1662867;0.02026642;0;
-653.8983;0;0;-601.4877;8.191847;6.694932;-663.098;-664.7394;0.03618491;0.0852134;0;
-467.8969;0;0;-478.3824;5.235879;5.080614;-482.0849;-482.6627;-0.4186229;-0.1747416;0;
-198.9367;0;0;-238.0847;14.3403;12.77842;-214.2974;-217.998;-0.1583328;-0.1095987;0;
-211.8552;0;0;-247.5906;14.9291;13.30133;-225.4513;-231.7094;0.2965977;-0.1744559;0;
211.0202;0;0;133.5292;17.19127;13.08701;190.6912;185.5013;-0.09350443;-0.2392479;0;
714.6799;0;0;624.7731;19.98704;14.14559;689.3113;683.0648;-0.1583778;0.02086183;0;
476.1438;0;0;450.0453;11.66156;6.026685;456.2355;447.7463;0.166618;-0.04412649;0;
174.0045;0;0;182.9146;10.1096;3.609243;156.3026;150.0084;-0.2233534;-0.1090495;0;
210.0615;0;0;213.5903;14.58645;5.615105;191.128;188.0259;-0.1581617;0.2158968;0;
-161.9627;0;0;-120.5814;14.63914;4.738685;-174.4429;-177.4169;0.166834;0.1507125;0;
-658.4878;0;0;-599.2196;13.41898;4.465991;-665.3958;-668.0544;-0.2231377;-0.04434095;0;
-467.3594;0;0;-471.6813;13.67294;5.06435;-478.2584;-479.9774;-0.09297883;-0.1092637;0;
-184.7191;0;0;-224.9561;13.12334;2.313083;-197.044;-201.4473;0.4918207;-0.3690233;0;
-214.9557;0;0;-249.4677;13.37857;0.9041176;-225.5815;-233.2913;0.2314571;-0.6934892;0;
195.2417;0;0;117.8485;13.03034;11.3523;176.8805;170.1779;-0.4184489;-0.4978904;0;
709.4119;0;0;614.6053;11.6771;13.68518;685.2596;678.6263;-0.5479631;-0.107586;0;
477.8777;0;0;450.5074;19.83704;9.719555;459.2468;450.871;-0.2875431;0.02245676;0;
176.1114;0;0;185.3753;21.69312;10.58057;159.6857;154.4418;-0.09235217;-0.1724678;0;
211.0418;0;0;213.2999;15.70947;3.737798;194.3203;192.1425;0.16761;0.08757483;0;
-159.4216;0;0;-119.5597;16.22955;0.3850175;-169.3173;-172.4923;0.2324089;0.2174215;0;
-655.1372;0;0;-597.6992;7.573054;3.867621;-660.5876;-662.4476;0.167208;0.02230103;0;
-476.4434;0;0;-479.1579;3.747051;2.189284;-486.4486;-486.4326;0.16704;0.08724596;0;
-198.5416;0;0;-234.1743;11.3791;0.1106129;-210.4108;-214.0181;0.3617742;-0.04277641;0;
-212.8348;0;0;-243.5592;10.89915;-0.02346413;-223.1929;-230.1073;0.1665087;0.1521686;0;
199.172;0;0;127.1868;11.02192;-6.989543;181.3282;176.2323;-0.4183647;0.3469177;0;
704.4678;0;0;613.8768;11.61406;-8.656972;681.0197;675.8665;-0.09310763;-0.04323491;0;
481.3718;0;0;450.5917;8.253484;-6.303992;463.5694;456.6722;0.1668553;-0.1081588;0;
178.9149;0;0;183.7729;7.038765;-7.771161;163.4417;159.5499;0.03675296;-0.2379848;0;
206.1588;0;0;207.8885;11.38595;2.417809;188.5773;187.9378;0.1666507;-0.1727783;0;
-158.3028;0;0;-119.406;13.51796;5.630439;-170.2444;-172.7574;0.03654858;0.2171993;0;
-655.7061;0;0;-601.1688;2.318596;0.4002346;-662.6383;-666.0233;0.1014792;0.3469158;0;
-475.9498;0;0;-482.8739;-0.2293289;1.94044;-487.4352;-488.3805;0.03640988;0.2815998;0;
-188.1784;0;0;-229.6407;6.468707;-2.482383;-201.4015;-204.2198;-0.2234961;0.1513822;0;
-213.4765;0;0;-252.8982;5.324107;-3.484511;-224.8747;-231.6258;0.1015652;-0.1736066;0;
196.407;0;0;113.1721;13.15564;-0.6008657;177.4616;171.7168;-0.09343886;-0.1084648;0;
720.7585;0;0;619.9286;15.82174;-0.3993132;695.5228;689.7838;-0.483149;-0.1733232;0;
486.839;0;0;450.6404;9.040685;-1.001758;466.7511;459.5186;0.1020425;0.1516877;0;
175.6935;0;0;178.5117;9.701186;-2.34041;157.9371;153.7104;0.491744;0.02160059;0;
218.5578;0;0;217.8749;2.524143;7.03943;198.6329;197.6587;0.3613153;-0.4331925;0;
-152.9751;0;0;-116.8633;-0.5588765;9.644568;-166.5707;-168.7933;0.1660502;-0.0429532;0;
-656.6307;0;0;-603.4388;5.87107;2.200016;-662.7789;-665.8737;0.03594864;-0.1078774;0;
-473.75;0;0;-478.8947;5.93252;2.130823;-483.2653;-484.9827;0.1008799;-0.302671;0;
-195.4136;0;0;-231.6001;2.175515;-3.095865;-207.0433;-211.6326;0.2307132;0.08743718;0;
-213.6455;0;0;-247.9216;-0.1711956;-5.839054;-223.3895;-231.7847;0.2304814;0.02238198;0;
201.2357;0;0;122.6414;10.21145;-3.15387;184.4426;177.6175;-0.289489;-0.04260787;0;
710.4025;0;0;617.4569;12.88051;-4.624325;687.7542;682.1229;-0.5490674;0.152337;0;
483.4899;0;0;455.4801;0.5427077;-2.81114;467.0487;460.0488;-0.09374436;0.2821186;0;
183.5296;0;0;189.9057;-1.131801;-2.674349;169.6037;164.9221;0.03628452;0.3468025;0;
210.5815;0;0;213.4529;-3.743608;-5.484945;194.5457;192.2426;-0.2885886;0.2814867;0;
-161.4432;0;0;-118.3449;-6.887678;-6.685127;-170.9662;-174.204;0.03653804;0.2162365;0;
-654.8454;0;0;-594.6115;-3.866647;-4.133058;-658.2993;-661.1591;0.2963707;-0.2387522;0;
-477.3388;0;0;-478.697;-5.13556;-3.660024;-484.4124;-486.6446;0.3610402;-0.368447;0;
-189.3162;0;0;-226.4051;-3.991324;-11.15831;-198.5067;-203.5477;0.2307428;-0.1731748;0;
-214.1759;0;0;-244.231;-3.71987;-13.69233;-222.4826;-229.3301;-0.1592931;-0.2379681;0;
178.9668;0;0;112.3353;-5.390095;-9.659719;164.1718;159.5175;-0.2890677;0.08710776;0;
712.2688;0;0;625.402;-4.782443;-9.248115;691.9914;687.4667;-0.3537446;-0.1078818;0;
495.0994;0;0;468.1648;-7.658026;-14.19544;479.7149;473.1334;-0.02855248;-0.3676428;0;
168.141;0;0;175.7786;-7.716703;-14.851;155.3332;151.3819;0.3612803;0.08749803;0;
207.8271;0;0;206.7113;-6.503501;-11.28611;193.5329;193.0838;-0.09385414;0.02244277;0;
-146.6412;0;0;-107.526;-5.692683;-10.53795;-154.6742;-156.1848;-0.1587272;-0.3673838;0;
-655.5505;0;0;-594.6106;-2.405409;-6.91041;-657.6409;-660.1494;0.2312364;-0.04217798;0;
-481.4789;0;0;-482.5692;-0.2595386;-4.760013;-487.8151;-489.4466;-0.0938327;0.2177338;0;
-195.7635;0;0;-232.4597;0.8124491;-3.348588;-204.9044;-208.0959;-0.2886404;0.02261297;0;
-216.4313;0;0;-248.1557;1.414845;-0.5320621;-223.6265;-229.5635;-0.09344839;-0.3672138;0;
193.7051;0;0;121.3456;10.25468;-4.885296;180.0204;173.8396;-0.2232892;-0.3018775;0;
706.7525;0;0;617.5992;13.727;-5.215302;686.335;679.1608;-0.3529995;0.0882299;0;
477.0949;0;0;453.5607;6.412192;0.5503485;461.9453;453.0292;-0.2227101;0.2180759;0;
172.8932;0;0;187.6759;6.339376;1.420574;161.4444;154.6612;-0.2874537;0.2828242;0;
205.2031;0;0;213.7866;3.519968;2.758683;192.7039;188.4887;-0.2221975;0.4124746;0;
-158.0081;0;0;-112.5768;1.238279;3.827638;-164.5602;-169.021;0.1678298;0.08722349;0;
-646.4787;0;0;-583.6018;4.653286;2.149341;-647.5895;-650.8589;0.4275305;-0.5625376;0;
-473.8531;0;0;-472.6959;4.246469;1.745283;-479.2106;-480.2903;0.2971663;-0.4320377;0;
-192.3932;0;0;-227.1566;1.831305;0.4708539;-199.432;-202.7595;0.03699831;-0.1067668;0;
-205.1933;0;0;-236.8608;0.5566669;-1.60609;-209.9137;-216.6737;-0.2229082;0.2181772;0;
195.8114;0;0;123.4462;3.101703;0.9408751;184.5365;178.7204;-0.4175863;0.4128599;0;
714.5413;0;0;624.2578;3.031237;0.5380321;697.5306;691.7203;-0.3521993;0.1525757;0;
487.6245;0;0;460.65;0.2825014;-4.954987;475.2536;467.95;-0.2219108;0.02248775;0;
167.4203;0;0;176.5172;-0.5220657;-5.485872;155.9988;151.2637;0.1031489;-0.0425022;0;
219.3508;0;0;221.6296;-2.866066;-12.3125;206.3167;203.6478;0.1030453;-0.1723942;0;
-139.002;0;0;-92.7477;-4.403427;-15.4482;-143.3399;-146.7558;-0.221895;-0.367123;0;
-664.4731;0;0;-590.9041;-6.743527;-6.323244;-660.5609;-662.5989;-0.1567047;-0.1068847;0;
-492.9539;0;0;-478.3041;-8.946578;-4.910248;-491.4818;-490.7692;-0.2215146;0.4129614;0;
-198.9811;0;0;-224.4509;-5.990828;-3.833587;-199.3845;-200.5467;-0.2862593;0.3475791;0;
-220.3328;0;0;-247.4012;-5.783737;-1.284506;-222.1101;-226.8319;-0.02610232;0.1523279;0;
188.7456;0;0;117.0393;-9.060455;-3.895428;174.6012;170.8212;-0.09104343;0.08720746;0;
716.0408;0;0;620.731;-8.716558;-4.092463;691.2285;688.1395;-0.3508213;0.02215249;0;
487.3109;0;0;453.6909;-12.19042;0.5333501;466.3966;462.1863;-0.2205341;-0.04283712;0;
176.04;0;0;182.2463;-13.91949;1.068678;159.1447;156.8126;-0.09037784;0.02217328;0;
221.0279;0;0;220.6687;-4.259959;0.3977745;202.2755;203.3191;-0.4151237;0.08711834;0;
-145.3851;0;0;-108.0754;-1.643711;1.737033;-159.3086;-157.0791;-0.3497393;0.2169655;0;
-651.8594;0;0;-595.4092;-6.933345;-9.249669;-660.5839;-657.6696;-0.1544858;0.3466822;0;
-478.1664;0;0;-484.2415;-7.127449;-13.05828;-492.1295;-487.5939;0.04057141;0.1514318;0;
-193.3913;0;0;-233.131;-3.637663;-4.940468;-209.4644;-207.3696;0.4303347;-0.1735571;0;
-208.5018;0;0;-242.8917;-3.098144;-6.007231;-222.8096;-225.2147;0.1050656;0.2164214;0;
198.1909;0;0;121.4818;-4.30048;-2.652048;175.4642;174.0611;-0.479746;0.4111059;0;
723.2277;0;0;628.5424;-3.425503;-1.041915;693.9647;692.6879;-0.1544273;0.08585613;0;
497.8639;0;0;468.4909;-7.105756;-5.595585;473.6903;471.1029;0.3654666;-0.1091322;0;
174.5884;0;0;182.1014;-7.032243;-4.451253;152.6879;154.2261;0.300132;0.02091218;0;
214.8302;0;0;212.0907;-5.417587;-12.21668;192.0771;196.9246;-0.02500624;-0.04407619;0;
-137.9585;0;0;-104.3384;-4.80893;-15.08455;-154.067;-151.0985;0.1699209;-0.1739666;0;
-643.4407;0;0;-587.9279;1.224121;-6.093921;-654.6605;-651.1952;0.3646522;0.0860776;0;
-471.7551;0;0;-472.9572;2.830482;-5.752883;-488.7108;-482.8127;-0.02551826;-0.04394359;0;
-180.1774;0;0;-215.8609;8.186273;-3.000803;-198.9901;-196.2214;0.1044421;-0.3687361;0;
-201.5481;0;0;-236.4461;10.12043;-0.9884214;-218.9675;-219.6998;0.03936978;-0.1734636;0;
197.0167;0;0;122.7985;10.31133;-5.475163;171.8062;172.5114;-0.2855065;-0.04335463;0;
719.8058;0;0;628.7333;11.64014;-5.603627;690.4978;691.3896;0.0396171;0.08662363;0;
493.2586;0;0;464.2464;2.653464;-5.397048;471.1014;470.743;0.03957729;0.1515039;0;
177.6714;0;0;185.7322;0.9758586;-5.525591;158.2226;160.5507;0.1694722;-0.1085177;0;
215.911;0;0;215.8428;-6.191442;-8.132251;194.2954;199.8695;0.2992366;-0.2383433;0;
-144.4999;0;0;-106.2123;-11.14269;-9.664687;-159.0973;-154.9655;-0.02590078;0.02176555;0;
-642.7916;0;0;-582.9908;1.193366;-5.636122;-650.5029;-646.9374;-0.1558094;0.1516784;0;
-473.4805;0;0;-471.7107;3.268272;-5.161578;-485.4944;-479.2464;-0.2855875;-0.04337609;0;
-189.6472;0;0;-221.1125;-3.566539;-6.094153;-203.8354;-199.7176;-0.1553659;0.2815042;0;
-206.9478;0;0;-234.9457;-4.367239;-5.351217;-219.0603;-218.6948;-0.09024246;0.3461887;0;
186.9372;0;0;118.8626;5.752182;-7.690121;167.9029;169.2051;-0.2850538;-0.1089306;0;
709.2992;0;0;623.9268;9.027956;-8.486189;685.0367;686.0252;-0.08986536;-0.1737884;0;
494.5691;0;0;471.1263;0.6461405;-3.721996;477.5773;476.8157;-0.08977507;-0.1086465;0;
174.108;0;0;188.1075;-0.4926085;-2.378597;161.2562;163.7437;-0.3495542;-0.238472;0;
213.2258;0;0;222.3386;1.918784;-6.864064;198.3879;204.3087;-0.154301;-0.2382324;0;
-139.4988;0;0;-92.91391;1.247271;-7.928771;-148.6996;-143.3469;-0.08917858;-0.1080583;0;
-657.9105;0;0;-590.258;-1.70172;-4.504797;-660.7302;-654.321;-0.08908898;-0.3678191;0;
-496.0179;0;0;-488.2784;-2.972807;-4.768203;-501.9583;-494.431;0.1059026;-0.5623515;0;
-197.4194;0;0;-228.1058;-4.241642;-4.428497;-205.1653;-201.5812;-0.08910587;-0.04204775;0;
-216.0865;0;0;-243.1814;-5.979668;-3.486286;-222.2005;-222.4306;-0.1539837;0.2828312;0;
178.8072;0;0;111.2599;-1.150889;-9.377159;166.515;167.5345;0.04107307;0.1526123;0;
708.6736;0;0;622.4536;0.7262778;-10.03757;691.5836;692.4148;-0.2188376;0.2174263;0;
491.8202;0;0;471.0914;-8.45148;-8.687821;480.9942;480.013;-0.4135197;0.02230584;0;
170.7371;0;0;189.197;-11.38975;-8.545126;163.2329;165.7509;-0.2831695;-0.2375859;0;
209.9833;0;0;222.0528;-0.7957329;-5.455447;200.1128;206.1889;-0.3478523;-0.3672819;0;
-136.9285;0;0;-89.7012;0.0766988;-4.579187;-141.3542;-136.721;0.1722359;-0.04207615;0;
-645.5976;0;0;-579.7397;-2.871115;0.6499606;-643.3973;-638.7062;0.5618669;0.1528682;0;
-491.3386;0;0;-481.956;-1.662782;2.390864;-492.8262;-486.6406;0.1714983;-0.1721222;0;
-202.8647;0;0;-225.9752;-8.962129;3.527049;-206.4747;-201.9195;0.1063586;0.4127569;0;
-218.6528;0;0;-237.8046;-10.02485;4.99713;-219.3856;-217.5836;0.3661211;0.9320809;0;
177.4304;0;0;115.4444;-9.344215;1.643084;170.9512;173.8134;0.3657533;0.2165036;0;
705.8615;0;0;623.6354;-9.535897;2.780143;693.8915;697.1256;-0.154353;-0.173518;0;
493.8209;0;0;477.5819;-5.306757;-6.868071;487.4227;488.2173;-0.2841326;0.02155834;0;
173.423;0;0;199.4291;-4.162349;-10.00925;169.8424;173.5097;0.4307937;0.2164387;0;
205.2327;0;0;224.6534;3.878809;-1.559583;200.9685;208.0054;0.5602955;0.2162212;0;
-145.1725;0;0;-91.03873;7.358512;-1.89293;-141.6239;-136.8429;0.1699285;-0.1738001;0;
-653.0213;0;0;-577.3903;6.413113;4.673177;-643.2918;-638.8904;0.03982303;-0.3685275;0;
-492.5705;0;0;-474.2991;7.478396;6.47702;-487.411;-481.3274;-0.155119;0.08661421;0;
-197.4736;0;0;-215.7023;7.06874;5.7337;-194.943;-191.8015;-0.0899958;0.2164619;0;
-221.9503;0;0;-237.0372;6.995265;6.330785;-217.5481;-217.5957;0.169964;0.02134234;0;
167.3896;0;0;111.3385;-1.250787;0.8319456;165.478;167.4295;0.03985853;-0.04364646;0;
704.5139;0;0;629.8409;-5.335367;-0.7764807;696.4198;698.6192;-0.2200509;-0.1085699;0;
486.7901;0;0;478.159;-3.588694;-6.938008;485.2633;484.1497;0.1699743;0.02147384;0;
156.6541;0;0;187.3245;-6.129707;-9.074368;158.2523;159.8259;0.4296728;0.2163543;0;
203.7855;0;0;227.9907;-6.190897;-14.42376;201.9463;208.3909;0.2993064;-0.1086998;0;
-138.8722;0;0;-76.52293;-5.782535;-17.28954;-134.7125;-129.0865;0.558875;-0.36846;0;
-655.0356;0;0;-572.1968;-13.9484;-7.626743;-644.196;-638.5132;0.3634115;-0.04325303;0;
-495.3324;0;0;-473.0464;-16.54733;-5.74368;-487.8769;-479.826;0.1031769;-0.04320957;0;
-199.6081;0;0;-213.7637;-7.01888;0.357416;-193.9092;-189.0523;0.2979753;-0.2380682;0;
-223.3954;0;0;-230.5404;-5.873727;4.777809;-216.7028;-215.2241;-0.09212817;-0.1078943;0;
159.3243;0;0;113.456;-4.326608;3.701281;159.326;162.4274;-0.351905;-0.1727532;0;
689.6475;0;0;620.7744;-1.911363;5.439118;684.7767;687.3128;0.03825268;-0.237547;0;
488.6178;0;0;479.9711;-9.344182;7.845038;489.9362;489.6587;0.2331163;-0.1073736;0;
168.5374;0;0;201.0663;-11.61197;9.243675;173.2904;175.5743;0.2978494;-0.04229837;0;
203.0382;0;0;231.8487;-5.906874;4.880619;206.7243;212.5667;0.1676154;0.02271149;0;
-139.6187;0;0;-74.79277;-5.968287;4.875714;-129.4395;-125.2896;-0.09242237;-0.04227869;0;
-651.2212;0;0;-566.7203;-10.85143;0.04816607;-636.3046;-632.3463;0.03760517;-0.04223621;0;
-499.0805;0;0;-474.447;-11.44374;-2.296163;-488.3643;-482.411;0.1675021;0.08774093;0;
-204.227;0;0;-213.7885;-17.39312;3.131518;-193.5215;-190.4478;0.03739908;0.1526201;0;
-228.8218;0;0;-230.815;-20.72552;1.654869;-215.1911;-215.1814;-0.02760584;-0.04243528;0;
154.9653;0;0;111.8073;-12.39832;13.04006;162.0231;163.657;-0.09254544;-0.3672293;0;
696.4124;0;0;632.4332;-11.91735;17.38073;697.4661;698.5361;-0.4172892;-0.3668604;0;
488.6917;0;0;489.057;-13.71404;3.899937;495.0542;493.3745;-0.2869352;0.2182143;0;
152.8692;0;0;192.2145;-12.89597;2.690447;161.849;162.5448;0.1031572;0.2829624;0;
196.8184;0;0;229.3151;-16.43299;0.9461876;203.3529;207.9836;-0.02688115;-0.1720933;0;
-136.6493;0;0;-66.01694;-16.95234;-2.135856;-123.1249;-118.6238;-0.1567888;-0.106953;0;
-655.5011;0;0;-566.1367;-15.66251;1.215315;-634.3691;-630.4973;0.2331728;-0.1068456;0;
-499.7954;0;0;-474.7385;-14.77611;0.008400721;-482.6826;-478.5648;0.6227425;-0.04177086;0;
-201.7553;0;0;-213.1427;-18.51231;-0.1255736;-187.7831;-185.8559;0.2972801;0.08820581;0;
-228.2891;0;0;-236.1044;-19.63279;-0.05846447;-213.1441;-213.5301;-0.02785534;0.02314983;0;
155.9972;0;0;106.7106;-12.91525;-3.541396;164.193;165.8689;0.03713999;-0.04184078;0;
688.1354;0;0;622.9689;-12.7012;-3.872752;690.5759;692.9996;-0.09283201;-0.1067661;0;
482.8593;0;0;483.4127;-5.453797;-5.20852;490.9819;491.2169;-0.09273873;0.02327589;0;
156.4754;0;0;197.1331;-1.296108;-6.007082;167.8383;170.2594;0.2321912;0.6729259;0;
186.4906;0;0;220.2359;-13.81976;-2.383967;196.5926;202.0098;0.1020232;0.3474131;0;
-152.7139;0;0;-85.45689;-14.74388;-1.37695;-136.0628;-131.4632;0.1019207;-0.4325441;0;
-658.6186;0;0;-570.0649;-16.06824;0.9688365;-635.6124;-630.5176;0.03685091;-0.4970769;0;
-509.5939;0;0;-478.2879;-19.33462;3.981973;-490.234;-484.0199;-0.5478922;-0.3666427;0;
-216.8537;0;0;-223.81;-8.798993;-2.31818;-199.7622;-195.9906;-0.4823743;-0.1713723;0;
-234.5019;0;0;-235.8914;-7.182561;-3.722492;-216.0532;-213.7222;0.2977185;-0.04126541;0;
145.168;0;0;109.3597;-9.45252;7.266205;157.1639;161.679;0.1674846;-0.1711586;0;
682.3771;0;0;628.4888;-7.099473;9.201287;688.7387;692.687;-0.09255303;0.1538501;0;
488.2262;0;0;495.2364;-15.53146;7.517591;499.9537;500.962;0.2323767;0.5434995;0;
152.1543;0;0;199.4497;-17.79303;8.648624;166.8685;170.3121;0.1671758;0.2181167;0;
187.2961;0;0;231.7955;-9.603475;3.348405;201.0586;208.3718;-0.2877635;-0.4317759;0;
-135.6673;0;0;-55.23078;-9.928617;1.402657;-115.4844;-107.9912;-0.1575397;-0.3014073;0;
-656.4567;0;0;-556.9231;-7.039229;0.3295208;-631.0467;-622.8738;-0.02744672;0.1536669;0;
-513.3062;0;0;-473.78;-5.692009;-2.952852;-491.7323;-482.6306;-0.2872885;0.08854517;0;
-206.257;0;0;-204.0018;-14.39383;1.470867;-186.0166;-180.3599;-0.3519672;0.2833582;0;
-233.4734;0;0;-224.6613;-17.66189;1.73732;-210.13;-207.7898;-0.4165809;0.4779755;0;
142.5098;0;0;112.52;-12.88775;-5.02958;159.7078;163.7948;-0.2862276;0.3475606;0;
682.595;0;0;630.6465;-12.8748;-4.756594;693.0917;697.1746;0.2337987;0.02237464;0;
481.7598;0;0;491.0826;-24.115;-9.842396;497.5557;499.0733;-0.02630555;-0.4324192;0;
156.8763;0;0;206.7319;-26.9038;-11.0382;175.7797;179.9819;-0.4810505;-0.4969521;0;
188.7026;0;0;235.3222;-25.20281;-2.922294;206.0253;213.4717;-0.1557304;-0.3665181;0;
-151.691;0;0;-68.19933;-26.45028;-1.512838;-127.0144;-120.8874;-0.02563928;-0.04131308;0;
-658.7836;0;0;-554.5738;-20.93037;7.39729;-626.5731;-620.7021;0.3641905;-0.04127157;0;
-508.5719;0;0;-461.8129;-18.76589;11.47569;-480.2043;-472.4651;0.4937593;-0.4310341;0;
-218.269;0;0;-207.414;-18.41224;11.53115;-192.866;-187.6958;-0.09144293;-0.4306011;0;
-238.1646;0;0;-223.8222;-16.92085;14.86858;-211.0379;-210.0583;-0.09135105;-0.3002337;0;
149.8798;0;0;125.4147;-11.88;6.347055;171.0447;173.0228;-0.02629191;0.02490471;0;
687.084;0;0;644.5277;-9.188746;3.795326;702.8554;703.957;-0.1562002;0.3497164;0;
489.1179;0;0;506.5116;-14.33708;9.217009;510.8703;508.3476;-0.02610854;0.08949563;0;
158.3549;0;0;210.4013;-15.12598;8.671884;182.3968;183.125;-0.4158864;0.154373;0;
194.4276;0;0;239.5501;-13.50319;3.438623;216.2589;221.5466;-0.2205665;0.2841526;0;
-135.4771;0;0;-52.60636;-14.09283;1.291836;-106.5462;-101.8886;0.4293286;-0.2358717;0;
-661.6389;0;0;-555.988;-16.28948;4.57258;-625.8031;-621.1501;0.3639299;-0.3655693;0;
-519.1703;0;0;-472.2211;-17.41121;5.036866;-486.494;-481.0336;0.1036948;-0.0403653;0;
-215.9259;0;0;-206.4425;-16.25561;2.151661;-185.9685;-183.1373;-0.2212461;0.02464262;0;
-246.1311;0;0;-231.0351;-15.70342;2.350448;-214.9544;-215.312;-0.2210238;-0.2352515;0;
131.8014;0;0;106.59;-19.43868;3.486674;157.3245;157.8419;0.104035;-0.7547539;0;
682.3921;0;0;633.7803;-20.82567;3.751102;701.2679;702.4095;-0.0260042;-0.4291588;0;
484.1183;0;0;499.0234;-12.63307;9.44076;507.5353;507.4264;-0.09094542;0.09101118;0;
145.1145;0;0;202.046;-10.34222;12.37852;172.3186;175.0208;0.104048;-0.233917;0;
178.0146;0;0;226.5181;-11.87305;9.083921;203.5047;209.3901;-0.09095858;-0.1037473;0;
-155.3094;0;0;-72.18448;-9.04808;10.07954;-124.1602;-119.2802;0.1690022;0.3511284;0;
-670.0195;0;0;-564.6769;-15.33465;11.54303;-633.4669;-627.4048;0.2987671;0.1558735;0;
-526.4181;0;0;-479.0273;-16.65939;11.53144;-494.1501;-485.8453;0.2984669;0.02578224;0;
-233.2862;0;0;-221.2377;-7.064458;17.21328;-202.6748;-197.5018;0.493069;0.155691;0;
-254.1038;0;0;-237.5072;-6.253077;19.4063;-221.3991;-219.8545;0.1027695;0.02559989;0;
130.5833;0;0;108.4327;-3.567476;14.63113;157.3206;159.4883;-0.1572031;0.02557417;0;
681.9249;0;0;641.056;-2.559513;14.75039;702.8882;704.3666;-0.0271105;0.1554832;0;
495.7704;0;0;515.5996;-3.628669;14.13273;521.96;521.313;0.03788408;0.2852616;0;
157.2547;0;0;216.7939;-2.284876;12.84597;186.8537;189.2684;0.232748;0.284975;0;
188.5184;0;0;242.4381;-15.74652;15.64622;215.8388;222.1241;-0.02735519;-0.2350501;0;
-138.944;0;0;-51.84519;-20.75356;14.49179;-105.2793;-99.74995;-0.09229505;-0.1048793;0;
-671.2867;0;0;-560.35;-13.29797;15.74991;-629.8472;-623.6988;0.03773237;0.2200629;0;
-534.5556;0;0;-478.2654;-14.69112;15.39917;-497.0308;-488.2649;0.1026618;0.08990705;0;
-223.1123;0;0;-205.7341;-15.74809;9.355353;-188.5612;-182.5527;0.2324933;0.1547841;0;
-247.0634;0;0;-227.8286;-15.79961;7.336586;-210.8604;-208.2312;-0.3524463;0.2195959;0;
125.1853;0;0;104.4834;-15.85011;1.166907;154.9177;158.6687;-0.6769289;-0.04049417;0;
672.8467;0;0;632.6753;-14.36129;-3.054068;696.0524;700.3619;-0.15651;0.02451388;0;
484.4525;0;0;507.6646;-18.83386;0.3650081;513.2571;515.938;0.2334513;0.2843586;0;
149.8836;0;0;215.7385;-19.75294;-0.5061368;182.4699;187.8967;0.4281188;0.08917087;0;
181.2172;0;0;241.0089;-10.75812;-6.266038;211.5843;220.7538;0.2327866;0.2839833;0;
-150.6732;0;0;-58.83266;-7.665848;-8.470057;-115.4016;-106.9909;0.102618;0.5435673;0;
-673.8837;0;0;-557.7727;-11.74398;-3.504931;-632.5256;-623.936;0.03754751;0.0232824;0;
-532.3399;0;0;-473.5043;-11.0626;-2.563648;-494.709;-484.9411;-0.1573922;-0.04170835;0;
-229.5194;0;0;-210.9103;-6.898295;-6.312117;-194.3002;-187.5406;0.23257;-0.3665031;0;
-250.3407;0;0;-222.1302;-5.953359;-5.903877;-210.0969;-206.7174;0.4922056;-0.6260042;0;
128.1582;0;0;122.4824;-4.072343;-7.237603;166.9873;170.4258;0.101907;-0.3005385;0;
668.1954;0;0;642.0981;-2.795453;-7.766072;701.5507;704.0488;-0.1580648;0.08956751;0;
478.7439;0;0;509.3318;-6.67741;-2.734671;512.3156;513.187;-0.02797124;0.5442489;0;
157.9863;0;0;218.5909;-7.541357;-1.191438;188.151;192.3323;-0.2228452;0.2188653;0;
193.0599;0;0;243.2338;-7.533779;-1.257223;216.635;224.123;-0.6124253;-0.04122397;0;
-140.2167;0;0;-53.98632;-8.665285;0.4855962;-112.7922;-106.9359;-0.2220059;0.4135889;0;
-663.6876;0;0;-554.8678;-8.053366;-1.323431;-629.6065;-623.3813;0.1030539;0.02336924;0;
-525.4024;0;0;-477.4738;-8.380067;-1.255118;-494.6039;-486.386;-0.02698433;-0.301491;0;
-210.3451;0;0;-207.0048;-9.644444;2.56417;-184.1378;-178.8017;0.3628468;-0.1712533;0;
-235.4335;0;0;-228.5359;-9.969545;3.231301;-211.1266;-208.9817;0.5573843;-0.3010159;0;
123.4977;0;0;94.53148;-9.759434;4.50073;140.7838;142.8015;-0.1578165;-0.2357461;0;
680.8434;0;0;628.1057;-9.883349;5.567935;692.2401;693.6935;-0.4824947;0.08932745;0;
500.5621;0;0;506.5354;-7.528893;3.485869;514.7584;515.3359;-0.2871079;-0.040697;0;
155.7322;0;0;202.1167;-5.712667;4.085213;169.7892;173.3022;-0.3517867;0.02431125;0;
187.4347;0;0;225.3393;-8.989457;1.267946;197.3547;204.4873;-0.4813679;0.1542215;0;
-135.7163;0;0;-64.1167;-8.444561;0.1279626;-119.8717;-113.9957;-0.4808842;-0.1058028;0;
-657.5051;0;0;-563.7386;-5.555687;4.146688;-634.8674;-629.7468;-0.02562964;0.08920551;0;
-517.6644;0;0;-483.3373;-4.88052;3.807607;-501.6711;-494.869;0.03936346;0.2840179;0;
-210.236;0;0;-214.6739;0.5503677;5.746286;-199.2563;-194.7099;0.0393239;0.08883049;0;
-233.3255;0;0;-233.2613;2.424849;5.47258;-220.7951;-218.4398;0.4290884;0.2186759;0;
136.2233;0;0;95.0582;2.221341;5.868979;141.7446;146.3465;0.1038206;0.08852151;0;
683.5612;0;0;617.3251;3.157115;6.197997;681.2059;686.4904;-0.4160225;-0.2364042;0;
497.9048;0;0;493.954;1.747423;-1.109249;500.7368;504.2668;-0.3506371;-0.1711993;0;
161.1361;0;0;202.9787;2.147808;-1.911929;168.7128;174.3007;-0.02544808;-0.1060599;0;
190.147;0;0;229.6987;-1.739116;-9.545818;197.2789;205.7972;0.4293489;0.2188834;0;
-137.0047;0;0;-63.69722;-2.13951;-13.0862;-124.1954;-116.0604;0.2340154;0.2836308;0;
-654.9816;0;0;-563.2571;-4.414536;-2.690941;-637.5;-628.936;-0.0910564;0.08844376;0;
-517.2049;0;0;-482.9812;-6.688252;-1.080769;-503.6139;-493.5592;0.2988392;0.0883549;0;
-211.3387;0;0;-210.9449;5.241187;0.7288565;-198.0737;-190.3405;0.2335715;0.1532335;0;
-233.615;0;0;-226.2251;7.781516;3.005422;-216.6777;-212.1382;-0.3513692;-0.2367246;0;
127.6882;0;0;97.71446;4.492143;5.413787;139.2987;144.7082;-0.4809509;-0.6262907;0;
676.0342;0;0;622.9772;5.089866;6.61404;681.5735;686.7903;-0.2205982;0.02401197;0;
493.8836;0;0;499.1007;2.740227;5.937565;504.7273;507.7523;-0.0904419;0.2188899;0;
148.3109;0;0;197.1257;1.197232;4.926855;164.0161;169.8492;0.2344857;-0.3660362;0;
181.3327;0;0;229.0365;-1.148496;1.773829;197.2095;206.66;0.4941194;-0.2357337;0;
-135.6278;0;0;-51.98998;-3.424517;-0.1704584;-113.0827;-104.0791;0.2987209;-0.1705295;0;
-658.4162;0;0;-552.811;-7.707984;-7.940063;-629.5844;-619.278;0.0385514;0.02454391;0;
-526.1333;0;0;-478.1053;-10.31221;-10.67839;-500.2665;-488.6586;-0.02645468;0.4143233;0;
-216.6349;0;0;-206.3237;-10.36919;-15.28936;-192.3559;-184.4452;0.1035066;0.02410293;0;
-237.844;0;0;-223.8575;-10.22505;-17.88621;-211.7153;-206.9985;0.03843524;-0.300758;0;
120.8398;0;0;95.20715;-13.96485;-11.23717;141.2577;146.9692;-0.2214727;-0.2354885;0;
662.696;0;0;617.4114;-13.88444;-10.02018;677.8459;683.5518;-0.1562829;0.02461754;0;
482.4329;0;0;502.9733;-7.507479;-3.244961;503.3772;507.3281;0.1687109;0.2194948;0;
154.8625;0;0;218.9854;-5.623926;0.643188;179.3465;185.4174;0.1685414;0.2842416;0;
187.378;0;0;244.8772;2.553399;4.192515;209.7759;219.214;0.1034047;0.2189887;0;
-141.52;0;0;-50.6579;6.502948;8.810002;-112.8978;-104.1563;-0.09160127;0.1538013;0;
-658.243;0;0;-549.1064;5.960551;3.71057;-622.7155;-614.7324;-0.02654188;0.3485488;0;
-525.3356;0;0;-475.404;7.963317;4.108739;-493.8418;-485.4919;0.4932235;0.2832312;0;
-223.6466;0;0;-210.0594;2.865101;4.77444;-194.4958;-188.5281;0.1678912;0.08804459;0;
-236.6028;0;0;-219.2186;0.3166269;2.693293;-205.1699;-201.3946;-0.09214684;0.4777602;0;
125.8904;0;0;104.3391;2.861904;8.986739;151.9819;156.6904;0.03788043;0.5422475;0;
661.9943;0;0;619.5378;1.787302;9.379606;682.9996;687.2661;-0.1570597;0.4117679;0;
484.7304;0;0;505.4098;-4.310063;2.203252;510.2748;512.9753;0.03800018;0.2814195;0;
146.0384;0;0;209.8628;-5.109039;0.2585332;174.4307;179.5647;0.232864;0.151202;0;
172.4408;0;0;230.3915;-14.8168;-2.554888;199.3053;207.8075;-0.09220667;0.1510501;0;
-144.1984;0;0;-51.1986;-20.62906;-4.896723;-111.239;-102.8078;-0.02714668;0.085931;0;
-669.9766;0;0;-554.5816;1.362072;-5.762581;-630.1788;-621.5062;0.1028153;0.150812;0;
-541.4927;0;0;-484.7467;6.249847;-6.895501;-504.5459;-494.6951;0.03774463;0.02072577;0;
-222.2963;0;0;-204.9;-4.406353;-9.16587;-187.0733;-179.4812;-0.3520973;-0.3041318;0;
-244.6241;0;0;-220.3738;-2.660613;-11.03218;-207.25;-202.6017;-0.2218089;-0.1738915;0;
101.8227;0;0;90.50402;-4.532974;-3.921028;133.4121;138.8678;-0.09165131;0.2810546;0;
660.0023;0;0;624.9569;-4.99791;-2.376481;685.1256;691.2006;0.03837546;0.3457396;0;
497.9202;0;0;524.754;0.164676;-4.718495;527.3287;531.7109;0.4281409;-0.0444119;0;
153.2179;0;0;224.7522;1.906799;-3.307113;185.3454;191.4724;0.2977761;-0.369204;0;
183.6736;0;0;247.0151;-0.7080615;-8.528337;214.2071;223.2014;-0.02735985;-0.1089636;0;
-135.9129;0;0;-38.33979;-0.9084209;-9.859426;-98.10125;-89.86557;0.03763499;0.3459173;0;
-666.3221;0;0;-545.2964;3.915263;-5.763682;-622.1143;-613.2621;-0.09233751;-0.04423438;0;
-536.8424;0;0;-476.3454;4.046027;-5.422976;-497.489;-487.0216;-0.1572121;-0.3040593;0;
-230.6441;0;0;-208.9384;7.457237;-5.082612;-194.0164;-187.0578;-0.02711942;0.215985;0;
-253.1509;0;0;-226.1572;8.521471;-3.938795;-215.2482;-212.1696;-0.09205952;0.08583326;0;
109.5463;0;0;98.34452;2.149896;-2.997077;141.7888;145.4265;-0.02699967;0.02077967;0;
665.844;0;0;633.9764;1.209731;-1.185648;693.0566;696.9406;0.0379948;-0.04420857;0;
498.4463;0;0;529.2667;-7.297951;-1.854286;530.629;533.3846;-0.2219127;-0.3690009;0;
156.7419;0;0;228.0735;-12.31446;-1.249576;191.5785;196.6427;-0.2216898;-0.2386954;0;
190.0051;0;0;253.1441;-2.656544;4.646055;222.8077;231.3026;-0.1564997;-0.2384555;0;
-123.9031;0;0;-24.53327;-1.046285;6.449926;-84.82413;-77.08746;-0.09137508;-0.1732486;0;
-665.8186;0;0;-541.2489;-11.29301;8.519794;-620.2822;-612.8032;-0.02631592;0.1517622;0;
-545.3348;0;0;-477.7991;-12.82191;11.05658;-503.4049;-494.2467;0.1686126;-0.1082597;0;
-220.3874;0;0;-191.5877;-5.776425;6.892655;-181.2482;-173.8484;0.2334105;-0.3030529;0;
-247.9021;0;0;-213.9463;-5.368479;6.818747;-207.1155;-203.034;-0.2215955;-0.1078464;0;
97.73593;0;0;92.36478;1.736862;7.280776;133.9837;137.6864;0.03849657;-0.1727054;0;
669.6627;0;0;636.6858;5.552534;5.866818;699.9396;703.1387;0.1683926;0.2172722;0;
507.8208;0;0;536.721;-1.218199;11.21944;542.3151;544.0743;-0.1566133;0.5418906;0;
151.3645;0;0;227.3994;-0.1452485;11.87799;189.5723;194.2657;-0.2863907;-0.04335996;0;
178.1364;0;0;246.1614;-5.369039;10.05752;214.4317;222.5562;-0.4160376;0.02165096;0;
-135.3227;0;0;-36.1317;-9.048316;11.32009;-93.06683;-86.01245;-0.09078283;0.1515639;0;
-663.9209;0;0;-539.7172;2.683399;5.012439;-614.7111;-607.7887;-0.09069161;0.08644426;0;
-538.8788;0;0;-469.3351;3.081869;4.203608;-493.1542;-484.1773;-0.2205352;0.1513247;0;
-231.1168;0;0;-201.9976;1.805974;5.405077;-187.9368;-181.4053;0.0395558;0.08620535;0;
-247.8136;0;0;-219.5357;4.349755;4.327919;-204.0523;-201.1505;-0.02545129;0.2810208;0;
115.1281;0;0;103.8974;-10.79251;11.9595;152.0363;155.435;0.1694763;-0.04409834;0;
659.9885;0;0;629.4663;-14.46537;12.81826;690.8627;693.6332;0.55911;-0.3688907;0;
487.9115;0;0;517.2024;-5.542222;16.75725;523.1899;524.8957;0.1687442;0.08625133;0;
154.1513;0;0;222.3307;-4.867068;18.88375;191.7056;197.0328;0.1036073;-0.1087374;0;
180.3582;0;0;242.5345;-5.129622;11.76483;216.1256;224.0087;0.2334379;-0.3035301;0;
-135.7892;0;0;-39.31763;-4.924373;11.21714;-94.18572;-87.74729;-0.221568;0.02161157;0;
-660.4515;0;0;-539.4017;4.257603;4.842615;-614.0173;-606.3984;-0.02644339;0.02158986;0;
-538.9111;0;0;-474.2672;7.468506;2.426485;-497.4586;-487.0363;0.3633872;0.02156816;0;
-221.6539;0;0;-196.4926;3.576236;1.821201;-181.7422;-174.2663;0.1681201;-0.3032902;0;
-246.5435;0;0;-215.7853;4.108506;-0.1901171;-204.2981;-200.8903;0.1029838;-0.5628548;0;
95.03265;0;0;85.6551;3.702236;6.642211;130.9887;135.8299;0.1678477;-0.1724852;0;
661.0276;0;0;625.0479;4.501823;8.042056;689.8886;694.6625;0.03774433;0.08755745;0;
503.1299;0;0;529.5925;-6.152621;11.852;535.96;538.2927;-0.222163;0.2174042;0;
150.9886;0;0;223.6514;-10.43335;14.72024;187.2214;192.8627;-0.09200505;-0.04268367;0;
180.2596;0;0;248.1642;-1.179462;12.56212;214.7069;224.3405;0.2978914;-0.4324448;0;
-131.9521;0;0;-32.69412;-1.714141;13.2192;-91.3551;-83.54278;0.2326248;-0.367043;0;
-668.9246;0;0;-549.9012;1.837555;13.80876;-620.4973;-614.5044;-0.2223804;-0.1068048;0;
-553.3727;0;0;-492.4398;4.448653;14.46472;-508.8046;-501.0062;-0.3520916;0.02323722;0;
-234.9139;0;0;-216.9583;-2.723113;7.752013;-195.2008;-188.2222;0.03806625;-0.3016228;0;
-243.1112;0;0;-223.112;-2.854098;5.198994;-202.5009;-198.5903;0.1029953;-0.5611891;0;
106.2077;0;0;92.45363;-5.195755;8.274863;141.3424;146.0611;-0.2219449;-0.3657232;0;
653.9506;0;0;618.9086;-8.405715;6.123216;682.8656;687.5796;-0.02681982;-0.04051905;0;
493.0615;0;0;518.087;2.989586;12.34635;526.1954;528.9681;-0.2216949;0.08945636;0;
154.1112;0;0;220.9655;5.331106;14.20935;189.5856;194.4794;-0.4163742;-0.1705029;0;
184.3786;0;0;243.4196;-6.061105;6.224346;217.8808;226.0805;0.1687503;-0.2352989;0;
-129.3366;0;0;-33.56086;-7.528883;6.486024;-90.12097;-81.55463;0.4934174;-0.1051278;0;
-665.7495;0;0;-542.6462;-10.80287;1.72384;-620.3889;-611.3314;0.2980196;-0.04005484;0;
-552.2622;0;0;-488.0032;-15.01255;-0.1534138;-510.1955;-500.8348;0.0378508;0.2198548;0;
-230.2439;0;0;-208.653;-5.686718;8.554277;-190.7807;-184.3654;0.1027801;0.4145359;0;
-250.6272;0;0;-223.4358;-4.609277;10.89009;-209.3296;-205.7318;-0.02725785;0.15425;0;
85.7682;0;0;79.69895;-14.58498;11.8169;121.7145;126.1207;-0.1571651;-0.235709;0;
658.4566;0;0;625.6569;-16.51271;14.21629;687.6826;691.7097;0.0378948;-0.3654069;0;
506.8708;0;0;527.952;-15.8929;17.35021;540.003;542.2769;-0.09207796;-0.1701377;0;
145.293;0;0;212.2675;-16.81494;19.00723;181.3279;186.1607;-0.2219201;-0.1049994;0;
177.5058;0;0;241.4144;-16.86539;21.73443;211.0682;220.0815;-0.02679511;-0.2348286;0;
-122.3969;0;0;-25.56908;-16.31258;22.85118;-83.30852;-74.99142;0.1031665;-0.29956;0;
-659.6288;0;0;-537.1612;-18.90816;19.54617;-613.6457;-606.274;0.1680302;-0.2342916;0;
-543.4616;0;0;-477.5887;-20.09461;18.45481;-501.1478;-492.4092;0.2328287;0.09078052;0;
-225.7624;0;0;-201.06;-12.84075;14.61836;-186.3648;-179.3216;0.03769271;0.1556566;0;
-251.0228;0;0;-221.4102;-12.35933;11.92447;-209.3533;-205.6281;-0.0273125;-0.2992712;0;
93.3065;0;0;86.28275;-8.394799;10.43887;128.7497;132.4712;0.03768228;-0.4938725;0;
653.4312;0;0;621.3646;-4.769042;8.284924;681.9672;685.1852;-0.1572576;-0.2335069;0;
500.0388;0;0;524.4136;-19.6347;7.405821;533.2938;534.822;0.03780243;0.09156448;0;
157.146;0;0;225.4742;-22.29429;6.393757;193.4285;197.7038;0.1027318;-0.03846223;0;
181.3509;0;0;245.9872;-18.25243;7.191128;215.5979;223.9293;-0.02730612;-0.03842358;0;
-121.9915;0;0;-26.31072;-19.64061;7.518695;-81.46951;-74.08351;0.102656;0.1565171;0;
-652.4772;0;0;-534.2789;-16.54039;7.779072;-605.2493;-598.6204;-0.1573165;0.09139246;0;
-552.9963;0;0;-489.2644;-17.12601;8.374102;-509.3766;-501.1301;-0.2221258;-0.03863407;0;
-239.223;0;0;-213.6611;-11.01323;10.91104;-197.9585;-191.4694;0.1679015;-0.1035626;0;
-250.6018;0;0;-222.192;-9.194477;12.30672;-207.7546;-204.8327;0.2327001;-0.03849119;0;
90.72854;0;0;81.25381;-12.132;11.75849;126.8486;130.1423;0.1025316;-0.2333545;0;
654.4789;0;0;622.7749;-10.11008;12.81828;683.5662;687.169;-0.02750612;0.09171666;0;
500.4609;0;0;527.072;-19.47802;11.80078;533.9542;535.9916;0.3623256;0.2215592;0;
140.7636;0;0;208.4522;-20.12803;11.92288;176.5971;181.0063;0.6218308;-0.1684675;0;
175.9794;0;0;236.6035;-22.92085;13.31742;209.2157;217.4934;0.1664347;-0.1682982;0;
-117.9248;0;0;-24.19074;-26.64886;13.23706;-78.28766;-70.08066;0.1013001;0.02677292;0;
-659.3466;0;0;-539.4699;-6.192898;13.02281;-614.0022;-605.616;-0.02873639;0.1566807;0;
-544.6164;0;0;-480.4572;-1.96614;11.20131;-503.7528;-495.0003;-0.1586422;0.3514253;0;
-216.5463;0;0;-193.1811;-2.366306;17.4862;-177.4104;-172.3523;0.2962886;0.1561702;0;
-242.0033;0;0;-213.6641;2.592564;19.14321;-201.7199;-199.1656;0.2310236;-0.0388888;0;
94.50832;0;0;84.2759;-10.33714;7.134271;128.5669;132.5554;0.03588939;-0.2987191;0;
658.9421;0;0;621.4836;-12.87234;5.251702;687.1569;691.2038;0.2957227;-0.4283536;0;
505.0445;0;0;527.0938;-8.840923;1.696452;537.2289;540.0849;-0.02941116;-0.1030865;0;
153.2136;0;0;219.4061;-11.17656;-1.185519;188.1143;193.3412;0.03558573;-0.03801558;0;
181.1706;0;0;240.4874;-6.275214;3.37039;214.0372;222.2574;0.3603867;0.09195732;0;
-121.7968;0;0;-27.24478;-4.125455;2.764157;-82.77879;-75.31651;0.3600246;0.2217996;0;
-658.7794;0;0;-537.5234;-14.16899;8.99067;-612.8666;-605.7242;0.2946955;-0.03829265;0;
-550.4841;0;0;-487.2583;-15.22648;11.39302;-509.1151;-500.7305;0.229432;-0.1681889;0;
-233.8398;0;0;-212.2192;-7.239604;8.635274;-196.0107;-190.0708;0.1642341;-0.4278892;0;
-251.8457;0;0;-225.9364;-5.088876;9.631341;-212.9926;-210.432;-0.09580024;-0.2975246;0;
96.8572;0;0;86.00889;-3.610871;5.870741;129.4868;132.3573;-0.4205407;0.2225131;0;
655.479;0;0;619.7791;-2.334445;3.855354;682.5787;685.7585;-0.2901835;0.09235484;0;
493.6514;0;0;512.9597;4.634126;5.727003;525.4089;527.8985;-0.4198266;-0.4274767;0;
147.5791;0;0;207.0978;7.040367;4.716504;182.4282;186.7893;-0.28947;-0.03724312;0;
183.5377;0;0;240.8726;7.033293;1.630672;216.0404;223.2706;0.03565754;0.287631;0;
-117.4955;0;0;-21.11283;10.17503;1.361102;-79.52825;-73.11734;0.03562171;-0.03749472;0;
-661.6664;0;0;-542.642;-6.245886;-4.802574;-616.4909;-610.3363;0.03558592;-0.1673917;0;
-558.678;0;0;-501.8045;-12.00039;-7.209134;-517.7957;-509.0861;-0.3542539;-0.4270929;0;
-229.032;0;0;-213.1326;0.6049505;2.443408;-192.0639;-184.7998;-0.2239632;-0.2317617;0;
-245.9808;0;0;-224.4127;-1.003248;5.120271;-206.8009;-203.4172;0.3609679;0.1582752;0;
84.10061;0;0;68.22835;0.3369309;1.029289;117.6814;121.6864;-0.09416623;-0.1667205;0;
651.1685;0;0;611.3867;1.207248;0.8942888;678.2813;682.782;-0.4838757;-0.2315204;0;
506.4616;0;0;526.8146;-6.563497;8.194285;538.4197;539.73;-0.1585528;0.09354899;0;
151.3185;0;0;216.1287;-6.757972;8.721915;185.6807;187.9268;0.2314106;0.1584223;0;
180.2144;0;0;238.9624;-14.0522;8.914101;212.1682;217.9103;-0.158626;-0.2315409;0;
-114.6311;0;0;-21.77176;-16.91847;9.307041;-75.40051;-70.10153;-0.5482706;-0.4911776;0;
-653.1827;0;0;-532.9929;-10.20269;0.9920499;-607.932;-601.264;0.03698636;-0.10088;0;
-552.5766;0;0;-490.1036;-10.39351;-0.2146397;-512.7437;-504.2084;0.2318512;0.2890254;0;
-236.7423;0;0;-218.9347;-4.28847;-11.60128;-199.011;-194.6696;0.1016836;0.2237676;0;
-255.1201;0;0;-233.3324;-2.340802;-16.54624;-215.4901;-213.6519;0.2964834;0.09360811;0;
86.58961;0;0;74.55991;-1.736213;-7.889057;120.5576;124.5804;-0.2235532;0.02854671;0;
648.9074;0;0;614.0887;-0.1268784;-8.952734;678.406;682.05;-0.2233286;0.4183221;0;
499.83;0;0;525.0786;-4.279937;-1.709826;536.233;538.499;0.3616019;0.3529344;0;
151.0029;0;0;223.8897;-4.074565;0.5693117;192.2418;197.0042;0.2313039;-0.167159;0;
178.3998;0;0;246.2783;-11.70628;2.779054;215.3494;222.9806;0.1011368;-0.1020237;0;
-115.8816;0;0;-20.52264;-14.44021;6.39334;-78.34444;-71.97028;0.1660025;0.1579482;0;
-654.4319;0;0;-539.2413;-10.80935;-4.999938;-613.809;-609.5027;0.1008683;0.1577895;0;
-556.6357;0;0;-501.9054;-11.66915;-6.870436;-522.0506;-516.7491;0.03579965;-0.03727107;0;
-228.616;0;0;-220.2299;-6.231439;-5.18896;-198.1261;-194.7665;-0.094171;-0.1671683;0;
-243.5661;0;0;-230.316;-4.483866;-6.389439;-210.9829;-211;0.0358583;0.09286905;0;
89.32389;0;0;68.70276;-1.933765;-5.713189;116.3771;116.9223;0.165757;-0.232061;0;
662.8208;0;0;616.5458;0.8812173;-5.774431;683.1627;683.9572;-0.09427897;-0.03692579;0;
518.8519;0;0;530.7191;-3.741369;-2.888485;542.2343;541.5287;-0.2241189;0.6777521;0;
156.8247;0;0;212.5955;-4.2071;-2.215753;181.8078;183.9141;-0.4837631;0.092365;0;
187.6516;0;0;237.1194;-1.255135;3.881798;210.4856;216.5253;-0.4183097;-0.5574012;0;
-103.3908;0;0;-18.30304;-1.187501;7.293905;-74.20787;-68.98637;0.2317841;-0.3619391;0;
-647.201;0;0;-532.7136;-2.792922;2.664876;-611.0509;-606.3969;0.7512898;-0.4265428;0;
-550.9738;0;0;-493.1354;-2.590021;3.934874;-518.6081;-512.1472;0.360731;-0.5560489;0;
-230.0811;0;0;-217.7156;-7.14177;2.256347;-200.6216;-196.416;-0.09440289;-0.2956208;0;
-242.8434;0;0;-228.2414;-9.612841;1.919287;-212.1016;-211.6484;0.1655613;0.02951296;0;
91.73254;0;0;70.4004;0.3771534;5.735263;115.447;117.1491;-0.02950705;0.02948331;0;
654.6074;0;0;608.9339;2.92237;6.064415;671.6138;673.6266;-0.09444474;0.02945369;0;
514.7072;0;0;529.1119;-5.052145;11.48382;537.3187;537.4554;0.2954542;-0.1654779;0;
167.4267;0;0;224.9204;-6.118796;14.28544;193.5138;195.9617;0.1002553;-0.425181;0;
190.8716;0;0;240.6239;-1.088806;8.041795;214.4962;220.9397;0.3600239;-0.2298518;0;
-108.7946;0;0;-24.67219;-0.01598498;6.426246;-78.9469;-72.82227;0.6844989;0.03024854;0;
-643.4165;0;0;-532.2673;-2.896357;12.24706;-606.2275;-601.046;0.2290397;-0.09971655;0;
-549.6293;0;0;-495.1258;-2.222885;11.16315;-517.5376;-510.9246;-0.2259618;-0.1645837;0;
-227.8635;0;0;-215.706;-1.618415;10.34814;-198.5527;-193.8828;-0.6155388;-0.09945098;0;
-239.8784;0;0;-220.6117;0.05815007;10.00282;-206.0993;-205.3697;-0.355051;0.03058365;0;
83.76258;0;0;68.77712;-1.348428;-1.260115;111.6357;112.9893;-0.0298575;-0.2293165;0;
659.6389;0;0;615.1833;-1.749215;-4.808822;678.7384;681.2151;-0.1597622;-0.4889554;0;
522.2948;0;0;535.0427;9.906841;-7.617273;545.8104;547.3475;0.2951697;-0.3585294;0;
149.5196;0;0;209.6683;12.97835;-10.69071;176.9471;180.5441;0.8795792;-0.1632672;0;
183.4772;0;0;237.0063;14.90769;-9.474277;209.1905;215.7824;0.4888914;-0.2280704;0;
-94.81734;0;0;-10.17022;18.9112;-11.60821;-63.50773;-57.79698;-0.09630594;-0.09790659;0;
-645.1329;0;0;-534.5214;8.510694;-1.415386;-607.483;-602.2152;0.2286275;0.03212649;0;
-558.4654;0;0;-502.1254;6.693481;2.202992;-524.2266;-517.8397;0.2933652;0.1620289;0;
-234.3169;0;0;-218.2008;9.097653;-5.033134;-202.7362;-198.3547;0.09816835;-0.03303596;0;
-244.5762;0;0;-224.3533;6.2091;-4.157298;-211.0907;-209.7121;0.2929717;-0.3578395;0;
90.56373;0;0;73.65992;12.49852;-5.291831;118.8932;120.3953;-0.03215935;-0.1625779;0;
655.6886;0;0;613.4396;12.68704;-5.621428;677.4929;678.8685;-0.2919964;-0.1624145;0;
516.7867;0;0;534.6125;4.703686;-4.209138;542.1298;541.5051;0.0331337;-0.5520554;0;
164.8816;0;0;231.29;2.086991;-3.936977;193.0728;195.6346;0.3579371;-0.1616966;0;
186.5175;0;0;249.9231;0.2088839;-1.521758;213.9307;220.9877;0.1626754;0.2282699;0;
-107.1474;0;0;-15.56969;-2.335945;0.3552935;-73.7023;-68.02672;-0.09735738;0.03313852;0;
-640.7715;0;0;-528.1714;-6.420411;-1.252654;-600.8632;-596.0054;-0.03229222;0.09807257;0;
-550.9849;0;0;-491.5963;-8.490065;-1.318378;-514.3027;-507.6382;-0.1621945;0.1629414;0;
-234.2152;0;0;-214.4289;-14.24133;7.122552;-201.0681;-196.7216;0.03287055;-0.09709174;0;
-246.7235;0;0;-220.023;-18.17914;9.593763;-212.1729;-211.0791;-0.03212982;-0.03202684;0;
80.73495;0;0;71.92642;-10.85985;6.436048;109.6911;112.0331;-0.2919669;0.3578094;0;
659.6128;0;0;617.8922;-11.25108;7.166271;681.6059;682.7586;0.1630979;-0.03235419;0;
525.7045;0;0;540.6848;-8.895255;5.149704;552.9853;551.4507;0.2928686;-0.4221257;0;
145.4921;0;0;210.932;-5.403692;4.876598;177.9304;179.5833;0.03270501;-0.03189753;0;
175.6432;0;0;234.3332;-19.19601;1.053793;205.6126;211.0119;-0.09726253;-0.09683282;0;
-90.52458;0;0;-1.159009;-20.98539;-1.693566;-56.39988;-52.13041;-0.2920668;-0.3566049;0;
-642.4686;0;0;-523.8951;-15.87409;5.07329;-601.3818;-597.3665;-0.03190399;-0.2263119;0;
-564.1121;0;0;-499.6931;-16.66144;5.00121;-526.9396;-520.1172;0.03309541;0.09875224;0;
-231.1499;0;0;-209.3367;-8.339307;3.589543;-197.8878;-193.1337;-0.4866766;0.03368567;0;
-241.4124;0;0;-215.4357;-6.454917;3.719902;-205.9972;-205.8707;-0.3562529;-0.3561522;0;
85.04124;0;0;73.07339;-3.903812;-0.7715704;115.6732;116.1744;-0.09602555;-0.03095767;0;
656.6684;0;0;618.4758;-1.220572;-1.775539;680.5854;682.1481;-0.1608964;0.2289428;0;
520.9515;0;0;541.3303;-5.907419;-3.113414;548.1553;548.2797;0.4239713;-0.2260586;0;
162.6703;0;0;225.5073;-4.696034;-3.244129;193.1577;195.4683;0.2936106;-0.1608641;0;
185.9951;0;0;242.9594;-10.71953;-6.723982;215.2024;221.2589;-0.2264231;0.03419953;0;
-103.4839;0;0;-12.78133;-11.78049;-8.123867;-69.3709;-64.13262;0.09864111;-0.03080219;0;
-644.7328;0;0;-525.9481;-8.487101;-0.1448575;-604.782;-599.549;-0.2912621;-0.355608;0;
-560.2521;0;0;-495.3097;-8.544946;0.9939979;-524.1521;-516.488;-0.2260021;-0.5501527;0;
-237.4761;0;0;-217.5764;1.91249;6.552461;-204.7857;-199.0659;0.6188004;-0.02986113;0;
-246.108;0;0;-224.1668;6.197476;10.16283;-212.6384;-210.6099;0.1634073;0.2300383;0;
82.03693;0;0;66.84976;7.195627;2.717638;108.4765;110.4404;0.03330844;-0.03006227;0;
654.1669;0;0;611.8211;10.20251;2.513958;674.0831;676.3574;0.5530137;-0.03003206;0;
518.6398;0;0;536.1816;11.59877;1.238879;543.3462;544.3688;0.2276213;0.09993281;0;
152.1152;0;0;215.991;12.25768;-0.4369396;180.0451;182.9407;-0.2273788;0.0998324;0;
185.3206;0;0;241.3236;11.97694;1.572987;210.4738;216.6149;-0.4870197;-0.03020261;0;
-89.47759;0;0;-2.733809;11.09425;0.7676117;-59.85192;-53.59204;-0.3565956;0.03479509;0;
-645.1083;0;0;-531.7151;6.461407;0.163994;-607.3915;-602.075;-0.03140062;0.1646948;0;
-566.9991;0;0;-509.8166;4.244111;-0.5060001;-532.1937;-526.1329;-0.1613037;0.2294967;0;
-235.6581;0;0;-224.8848;-2.8601;0.03037181;-204.7608;-200.6425;-0.226109;0.2292661;0;
-250.5387;0;0;-238.9017;-7.009436;-0.3715563;-218.7979;-217.9946;-0.1609145;0.294003;0;
72.2384;0;0;50.31808;-4.390425;0.5665781;97.88791;100.0022;-0.7454588;0.1637729;0;
650.5626;0;0;605.7383;-5.792532;2.24046;670.0019;672.1766;-0.4198731;-0.09626099;0;
522.5979;0;0;535.6021;-4.648612;-7.206141;547.0776;546.1891;-0.02964717;-0.4859683;0;
161.0043;0;0;217.2862;-3.772309;-9.610164;189.3325;191.0685;-0.09458473;-0.2256106;0;
187.2042;0;0;234.5591;-4.773873;-1.294867;212.8803;219.1124;0.1653797;0.09945277;0;
-95.65428;0;0;-17.23769;-3.831071;-0.7577029;-65.25639;-59.46788;0.2951482;-0.1605165;0;
-644.2823;0;0;-536.2095;-2.28698;1.386512;-606.981;-601.0734;-0.09495243;-0.09538791;0;
-567.5482;0;0;-511.308;-1.346677;2.657673;-533.5327;-525.5695;-0.5496284;-0.2901941;0;
-245.1397;0;0;-230.0603;-0.273597;1.985173;-214.1569;-208.7629;-0.2242394;-0.4848045;0;
-253.2017;0;0;-233.5773;-0.2059731;1.983178;-221.6253;-220.1723;0.1008226;-0.1594807;0;
73.20126;0;0;53.76313;1.334475;-0.2961121;98.31166;100.2629;-0.2890828;-0.4841571;0;
644.0283;0;0;594.0625;0.9983417;-1.56849;662.9915;665.0033;-0.1588576;-0.4187033;0;
518.2565;0;0;526.999;-0.409181;-4.380075;541.7609;542.084;0.1661387;0.1664235;0;
156.9796;0;0;214.6887;-0.9446333;-5.514384;184.146;186.5928;0.1010044;-0.2235478;0;
178.9357;0;0;232.8387;-9.584848;-9.996577;203.7635;209.9559;-0.1589664;-0.6131272;0;
-95.41873;0;0;-7.399592;-13.86213;-11.52714;-65.86826;-59.86951;-0.4836434;-0.2227071;0;
-639.112;0;0;-522.3208;-8.690633;-8.903224;-603.3444;-597.7889;-0.2232881;0.2322881;0;
-561.0088;0;0;-502.3683;-9.016693;-8.425397;-529.1501;-522.2884;0.3616424;0.2320547;0;
-234.6713;0;0;-222.5039;-17.24568;-4.866958;-204.7812;-200.1128;0.4262463;0.1018868;0;
-251.9892;0;0;-233.7121;-19.90767;-3.723358;-219.6929;-217.7777;0.1009813;-0.2230523;0;
69.47755;0;0;54.25312;-14.32894;2.710501;95.61951;97.7201;-0.02905481;-0.3527628;0;
650.3032;0;0;607.7953;-13.77867;5.454078;669.1101;670.334;0.1009091;-0.02757168;0;
523.2134;0;0;537.0324;-15.37242;3.238161;544.75;544.6608;-0.02912701;-0.09251132;0;
154.8101;0;0;215.2792;-14.55269;4.775515;179.4484;181.7332;-0.4189018;-0.2873204;0;
181.1412;0;0;236.5521;-14.87286;-4.405702;204.5054;209.474;-0.2235789;-0.2870317;0;
-90.90417;0;0;-9.87432;-14.18833;-7.884387;-61.87874;-58.53932;0.3613519;-0.2867433;0;
-639.6619;0;0;-535.4752;-13.63821;-4.259387;-603.6068;-600.0833;0.2310541;0.1033489;0;
-566.9929;0;0;-513.0107;-12.95492;-6.398561;-534.4722;-528.4535;-0.09401477;0.1682124;0;
-239.4001;0;0;-227.326;-12.33869;-3.913763;-210.5977;-207.0213;0.1009817;-0.02685865;0;
-254.8391;0;0;-237.4674;-12.66109;-3.039174;-223.317;-223.2425;0.03591291;-0.02683166;0;
63.25716;0;0;48.2527;-6.687494;-9.868135;90.06243;90.8865;-0.1590252;-0.1567394;0;
648.0871;0;0;602.8005;-4.268901;-11.19788;667.4941;668.0675;-0.02893073;0.03832015;0;
528.6206;0;0;538.2269;-11.96777;-8.909207;551.7563;551.0797;0.101033;0.2331837;0;
163.3353;0;0;221.8448;-13.42961;-9.838017;189.5087;192.331;0.03596416;0.1030147;0;
189.408;0;0;243.4859;-11.40639;-6.211174;212.4941;218.8743;0.2957974;-0.1569582;0;
-87.7681;0;0;-1.635616;-13.13624;-5.334156;-59.20794;-54.33339;0.4904022;-0.1568005;0;
-641.0892;0;0;-524.871;-11.5828;-7.539232;-604.2495;-600.0045;0.3599748;-0.0916756;0;
-571.7296;0;0;-508.3516;-12.44182;-6.392947;-537.3631;-530.4987;0.2296784;0.1033185;0;
-243.195;0;0;-224.1709;-14.43905;-12.81676;-211.2993;-206.066;0.03454557;0.4280514;0;
-250.8217;0;0;-226.1321;-14.49091;-14.67929;-215.9595;-214.1048;-0.1603912;0.2327193;0;
64.33458;0;0;56.39076;-22.24686;-7.631571;94.41407;97.82866;-0.355132;-0.2222859;0;
642.6042;0;0;605.6205;-24.76912;-6.217261;665.0948;669.3805;-0.4847099;0.1027741;0;
530.9518;0;0;548.228;-20.59203;-7.081792;555.7936;556.9516;-0.09441879;-0.09223116;0;
165.4768;0;0;228.0878;-20.57133;-6.00295;191.8553;193.262;0.2305128;-0.6768445;0;
184.4259;0;0;238.9156;-18.67465;-2.245996;207.7169;213.0578;0.1653138;-0.1564257;0;
-84.18699;0;0;-2.016026;-17.11565;-0.4351995;-56.67147;-50.96122;0.2950824;0.03863348;0;
-634.1384;0;0;-524.314;-15.82565;-0.3007964;-600.8409;-595.9485;0.2298186;-0.3512094;0;
-567.5344;0;0;-510.7937;-14.20216;0.9051986;-538.2059;-531.7567;-0.2251838;-0.02601979;0;
-233.5067;0;0;-223.0498;-12.24551;-1.507096;-208.3931;-203.6371;-0.4198595;0.1689084;0;
-240.3935;0;0;-228.198;-10.69296;-2.711275;-213.556;-212.178;0.1003011;-0.02616337;0;
74.93963;0;0;54.63927;-9.945284;1.444391;97.81464;99.8784;0.1651677;0.1037976;0;
650.2001;0;0;604.3705;-8.729841;2.045786;667.2426;668.9294;-0.2248024;0.1686607;0;
528.4202;0;0;538.1712;-11.53411;-3.247799;548.9437;547.9428;0.1652276;0.1035239;0;
166.7583;0;0;223.1635;-12.72797;-4.584194;190.3222;191.6335;0.1650616;0.3632892;0;
188.5797;0;0;237.2446;-7.691337;-3.507861;210.933;216.1161;-0.03000632;0.4278915;0;
-88.90795;0;0;-10.24451;-6.611882;-3.839251;-60.70505;-56.46416;0.2298932;-0.2222119;0;
-631.7332;0;0;-522.7891;-9.820419;-4.974103;-596.4373;-592.0757;0.03476017;-0.481858;0;
-557.5729;0;0;-501.3993;-9.007244;-5.371003;-524.5613;-518.5175;-0.2251441;0.03836496;0;
-232.1759;0;0;-217.5379;-11.47644;-2.351496;-202.5083;-198.2197;-0.3548526;0.2981958;0;
-247.8721;0;0;-225.5027;-11.53128;-0.9424917;-217.7346;-215.5742;-0.2245613;0.2978961;0;
67.40607;0;0;53.33385;-7.969721;-2.482152;92.26601;94.4867;-0.09440102;0.4275315;0;
656.5422;0;0;609.6881;-7.626921;-2.144743;676.0048;676.6616;-0.4841102;0.2321999;0;
537.6294;0;0;546.4194;0.01655305;-0.2670662;561.8201;559.9775;-0.4186564;0.03706455;0;
161.528;0;0;218.535;3.030646;-0.6017125;188.3806;189.2259;-0.2233337;0.03702731;0;
190.3511;0;0;241.9285;1.822152;1.810278;214.0533;219.8952;-0.158142;-0.02797725;0;
-74.1448;0;0;7.553094;4.097497;1.406561;-45.84379;-40.63237;-0.09301575;-0.09291648;0;
-632.9144;0;0;-523.0003;-1.398976;1.070233;-597.3954;-593.5636;-0.1578896;-0.1577905;0;
-565.562;0;0;-505.8582;-2.80409;1.738987;-532.7649;-526.7504;-0.09276364;-0.2875666;0;
-226.7887;0;0;-208.8114;0.2792101;-10.31944;-196.8356;-192.3265;0.03726425;-0.352245;0;
-246.1759;0;0;-223.5941;-1.193963;-13.79207;-214.8787;-213.6849;-0.09270787;-0.2219564;0;
61.04211;0;0;48.30654;1.821347;-10.63013;86.31093;88.12819;-0.02764738;0.1031034;0;
649.8098;0;0;605.4779;2.220682;-12.02609;667.9318;669.5598;0.1023151;0.4278365;0;
538.6499;0;0;551.4589;-4.144562;-8.128998;561.1265;560.504;0.1671796;0.2325046;0;
173.2296;0;0;234.9386;-6.149153;-7.116208;199.6816;201.3711;0.03707696;-0.2225005;0;
187.2359;0;0;243.8854;-3.865799;-3.759911;212.0371;217.8479;-0.09289498;-0.2222769;0;
-89.12593;0;0;1.449583;-3.326051;-1.344869;-58.85236;-52.92255;-0.09280164;-0.02715152;0;
-631.1389;0;0;-512.8558;-9.552;-2.214296;-594.3365;-588.4127;0.1021936;0.1677778;0;
-566.162;0;0;-504.7194;-10.34669;-0.8054295;-532.8325;-525.8526;0.2320256;0.03767454;0;
-240.3192;0;0;-223.2909;-7.52325;-2.211262;-210.3964;-206.1097;-0.1580116;0.102604;0;
-241.1397;0;0;-219.0061;-7.715785;-1.874125;-210.5598;-209.7132;-0.5476568;0.1025009;0;
71.38316;0;0;59.51156;1.065878;-1.403362;95.623;97.28087;-0.3522045;-0.2224388;0;
648.5213;0;0;604.6777;4.012544;-0.3302246;665.428;667.8338;-0.09198126;-0.0922806;0;
540.0489;0;0;546.8489;3.606371;-1.334637;560.4368;560.6537;-0.4167255;-0.09218788;0;
162.3208;0;0;218.2143;5.612479;-0.4625176;185.8117;187.0904;-0.1564375;0.1028068;0;
181.6479;0;0;234.9865;2.056866;2.552057;202.7413;207.5795;0.3634585;0.4275402;0;
-69.90826;0;0;13.67403;1.518936;2.48251;-43.58864;-38.50545;-0.1566455;-0.3524975;0;
-627.1204;0;0;-512.6376;-0.2912514;14.1348;-593.7058;-588.6902;-0.3513901;-0.482078;0;
-567.4575;0;0;-506.8752;-1.697478;17.67057;-537.0749;-531.4396;0.1687017;0.1031125;0;
-220.9986;0;0;-208.1408;-3.035919;11.02175;-193.4577;-189.8896;0.2984669;0.1679762;0;
-238.9549;0;0;-219.3634;-5.042601;10.87671;-210.0674;-209.0016;0.298167;-0.2219966;0;
56.88661;0;0;44.34956;-1.151792;5.172354;79.87307;81.68743;-0.02696932;-0.09183888;0;
648.0323;0;0;606.5224;-0.4810493;1.684166;664.374;666.8737;-0.4817136;0.4279921;0;
540.7473;0;0;556.6877;-5.235988;0.4767811;561.8826;562.8805;-0.2863276;0.1676927;0;
165.6422;0;0;227.9808;-6.973015;-2.269998;190.8792;193.1255;-0.1561052;-0.2222798;0;
183.4667;0;0;237.8092;-2.544403;-5.482776;206.492;211.9844;-0.02601364;-0.2220565;0;
-81.58453;0;0;1.438898;-2.541847;-7.285806;-54.27205;-49.22243;-0.0259875;0.1679707;0;
-627.4156;0;0;-516.6146;-2.875061;-8.149141;-594.321;-588.9642;0.03900595;0.1678019;0;
-562.6299;0;0;-503.4144;-0.3939258;-9.279663;-533.1918;-525.4665;0.6236728;-0.4170728;0;
-232.9176;0;0;-217.2397;-14.05756;-4.313724;-206.8198;-201.601;0.6230461;-0.286719;0;
-244.74;0;0;-225.0174;-17.05754;-2.969731;-216.7319;-214.8292;0.1026814;0.03840581;0;
63.35119;0;0;47.75922;-6.657929;-0.8234148;86.45857;89.23395;-0.0923238;0.03836722;0;
648.6808;0;0;603.6193;-6.58389;2.258505;665.3931;667.9158;0.102671;0.1682633;0;
546.3301;0;0;556.0989;6.349822;-3.437069;566.4614;566.5453;-0.02736686;0.2980289;0;
174.093;0;0;231.6404;13.37604;-3.031718;197.8898;198.7857;-0.4171434;0.1677948;0;
189.0979;0;0;244.4636;-1.909022;-1.756118;211.1841;216.3895;-0.09188756;-0.02727583;0;
-68.83752;0;0;17.89421;-4.519072;-2.82608;-42.71305;-36.70086;0.2330415;0.03771894;0;
-626.1132;0;0;-510.1084;9.618013;5.817436;-593.2059;-588.0118;0.2977747;-0.02728632;0;
-572.6356;0;0;-507.4094;10.21156;7.887939;-542.3851;-535.1348;0.3624428;-0.1571936;0;
-229.7323;0;0;-209.1742;6.718677;5.870647;-203.3852;-197.9538;0.2321439;-0.2869703;0;
-246.1806;0;0;-221.5827;8.118445;7.807131;-217.7361;-216.9952;0.1669433;0.1031221;0;
49.10595;0;0;35.01108;-7.831894;0.2974424;72.58691;73.327;0.1667756;0.4278552;0;
644.5698;0;0;592.1958;-11.64144;-1.712344;660.4684;661.2703;0.2965427;0.03762122;0;
544.5345;0;0;545.5614;-9.620989;2.241247;565.2274;563.9044;-0.02859198;-0.1573186;0;
168.4886;0;0;220.8637;-12.75915;0.8324755;192.5964;193.836;-0.2884326;-0.02722586;0;
183.6866;0;0;233.4478;1.186117;6.123168;205.209;210.008;-0.09324078;-0.09216584;0;
-78.55372;0;0;4.078411;4.801272;7.925433;-51.24344;-47.69855;-0.1581144;-0.2220079;0;
-627.5113;0;0;-514.6649;5.60073;0.8845059;-593.2944;-590.003;-0.2229229;-0.1568175;0;
-572.5331;0;0;-513.6481;9.748289;-0.4560415;-541.9113;-536.999;-0.2876662;-0.02672525;0;
-244.7473;0;0;-231.2736;3.441854;0.3482119;-217.6545;-214.8711;-0.1574425;-0.09166574;0;
-250.4359;0;0;-231.0412;2.099225;-1.460677;-221.9336;-221.8391;-0.287219;-0.09157363;0;
62.28369;0;0;47.05125;9.531856;-0.2535167;85.50999;85.85428;-0.4168651;-0.02651428;0;
651.6748;0;0;604.2864;10.79508;-0.9230912;667.6939;668.2252;0.1032925;0.1034471;0;
551.2576;0;0;558.4519;3.616932;-4.07024;570.4465;570.4151;-0.221648;0.2332778;0;
179.1405;0;0;233.7412;4.01544;-4.200116;201.5585;204.0883;-0.4812946;0.2980107;0;
189.2678;0;0;238.6288;-2.753749;-10.89407;209.5393;215.315;0.2338297;0.3626786;0;
-76.85117;0;0;4.256672;-5.162856;-13.29438;-52.47711;-47.26946;0.2985621;0.1024449;0;
-633.744;0;0;-521.7332;7.300913;-7.453754;-603.0851;-598.0076;0.1683274;-0.2874621;0;
-575.6985;0;0;-516.5238;9.705451;-7.379282;-547.5067;-541.3724;0.103191;-0.02730394;0;
-227.6697;0;0;-217.155;14.38377;-5.027464;-201.8801;-199.3126;0.1030873;0.2325929;0;
-248.5554;0;0;-233.8658;17.38343;-4.553532;-220.6052;-221.4136;0.167951;0.03745715;0;
37.23836;0;0;20.36648;17.43331;-2.606574;60.10049;60.72966;-0.09208709;-0.2224499;0;
640.7726;0;0;592.3085;17.14738;-1.666194;656.6777;657.4312;-0.1569619;0.03764303;0;
545.6137;0;0;552.3582;19.4083;-7.491913;564.6263;563.8798;0.1680325;0.557344;0;
165.2564;0;0;222.7186;19.78996;-8.555989;187.6232;189.3137;0.1678637;0.2319472;0;
187.4541;0;0;240.6107;1.685416;-14.10685;208.674;214.1109;0.1027277;-0.2230573;0;
-72.04141;0;0;10.60938;-5.081432;-17.03993;-45.59549;-41.10107;0.03765711;-0.1578658;0;
-626.6902;0;0;-514.2625;-4.473114;-13.53969;-593.3369;-589.4716;0.03761927;0.03719487;0;
-571.463;0;0;-510.4349;-9.023947;-13.32514;-539.6423;-534.2817;-0.02738587;-0.0927772;0;
-240.7422;0;0;-225.3151;-8.277946;-13.44572;-210.3903;-207.2215;-0.157293;0.1671854;0;
-248.4963;0;0;-227.3375;-8.537071;-11.89172;-214.989;-215.1342;-0.2221023;0.2969521;0;
54.03899;0;0;40.50638;-8.46212;-9.468387;81.64052;81.43298;-0.1569118;-0.223085;0;
636.5668;0;0;587.6906;-5.7743;-7.851405;653.2711;652.7515;-0.1567542;-0.09292619;0;
539.913;0;0;541.8728;-4.361979;0.1943142;557.1627;555.2067;-0.1565966;0.1020692;0;
171.6178;0;0;221.9264;-1.208788;4.012024;192.7233;193.268;-0.02650461;0.03699933;0;
187.3124;0;0;237.3206;6.49461;1.39578;208.3966;212.0643;-0.2863474;0.2318642;0;
-70.62124;0;0;10.32108;9.636892;2.332017;-44.68567;-42.396;0.03877708;-0.02823819;0;
-627.0206;0;0;-517.7364;18.33475;3.267435;-595.7388;-593.5764;0.5584769;-0.2880792;0;
-578.1648;0;0;-519.8398;21.8663;3.398118;-549.9753;-545.941;0.1681116;0.03704701;0;
-232.0075;0;0;-221.2798;20.10204;0.4475761;-206.0953;-205.126;0.03800804;-0.1578923;0;
-237.3966;0;0;-221.8695;21.42199;-0.9595152;-209.3865;-212.2912;-0.02699749;-0.417603;0;
50.82219;0;0;35.7865;12.35813;-1.427432;73.182;71.34216;-0.2868397;-0.09234665;0;
643.5981;0;0;596.8435;10.67077;-2.564707;658.002;657.5383;-0.09164949;-0.2221885;0;
552.8093;0;0;559.2624;0.07748026;-3.633735;570.5719;568.7969;-0.02659006;-0.02706327;0;
168.884;0;0;223.8687;-6.687752;-4.835777;190.6268;189.978;0.038404;0.167866;0;
183.7692;0;0;234.9506;7.518862;-1.013012;203.6786;206.716;0.1683001;-0.4170088;0;
-67.22685;0;0;15.94949;7.242887;0.6625788;-42.1526;-38.43104;0.2980657;-0.02678574;0;
-627.0654;0;0;-514.7997;11.054;-4.629617;-595.3947;-591.8642;0.3627335;0.03820854;0;
-575.3984;0;0;-518.0306;15.19608;-5.093845;-548.1323;-543.2311;0.1024997;-0.5465359;0;
-228.6193;0;0;-217.286;1.917948;-1.806685;-203.8169;-202.169;-0.027538;-0.2211501;0;
-236.1357;0;0;-218.5044;-0.2274335;-1.80487;-207.6101;-210.8364;0.03745701;0.1039089;0;
52.26924;0;0;40.14771;5.734642;0.2734145;75.39391;73.91994;-0.2874173;-0.02613025;0;
635.2986;0;0;593.7041;4.858224;0.6750373;650.9663;650.6807;-0.2871285;-0.02610399;0;
548.1413;0;0;559.1246;4.853342;0.4064273;567.8536;565.5693;-0.1569054;0.2337916;0;
178.2761;0;0;236.9745;4.312602;0.6069677;201.5294;201.8711;-0.221715;-0.02631268;0;
190.7157;0;0;241.0467;3.906127;-3.479479;212.6337;216.161;0.1683118;-0.3511229;0;
-66.40932;0;0;14.66815;4.236995;-4.748659;-38.26641;-35.5548;0.2980774;0.03903393;0;
-622.6879;0;0;-507.3342;-0.255241;-7.624153;-587.4519;-584.5556;0.03790849;-0.09093999;0;
-568.9015;0;0;-507.8864;-1.058292;-10.6306;-538.0737;-534.2432;0.2327724;-0.54562;0;
-230.5621;0;0;-215.9601;-0.6560627;-5.931237;-204.3879;-202.0606;0.1675712;-0.2852024;0;
-245.6353;0;0;-224.801;-1.25764;-5.99226;-217.6758;-218.037;-0.09246656;0.0399209;0;
45.90262;0;0;32.6081;4.704495;-9.603196;69.58615;68.22585;-0.157341;-0.1550213;0;
635.9349;0;0;592.294;7.781227;-9.526564;652.848;652.1138;-0.2871176;0.04003655;0;
545.6534;0;0;557.2162;9.313649;-13.73679;565.9229;564.5647;-0.09192705;0.6896697;0;
172.4175;0;0;232.6941;15.53358;-15.19662;195.9774;195.9324;0.233002;0.4940747;0;
193.2962;0;0;245.8286;6.676714;-12.3012;214.8334;217.2872;-0.1570361;-0.02616046;0;
-58.39661;0;0;22.38128;6.670006;-13.02553;-31.44625;-29.49468;-0.286813;0.03883318;0;
-622.1795;0;0;-509.0616;26.35555;-7.988846;-587.6975;-585.1232;0.03831187;-0.2860426;0;
-578.0762;0;0;-517.4206;29.41053;-5.971453;-546.7523;-542.369;-0.1566287;-0.09085312;0;
-230.6697;0;0;-217.8635;43.64822;-11.39095;-203.2503;-200.7455;-0.09150393;0.4289769;0;
-240.2455;0;0;-221.3927;50.77068;-11.17855;-211.2919;-212.7251;-0.2213467;0.4935132;0;
39.04316;0;0;28.76659;36.11861;-13.71255;62.90765;61.53836;-0.4160263;0.3630826;0;
633.0178;0;0;593.2664;36.14869;-15.37335;649.1747;648.5565;-0.2207062;-0.1570209;0;
551.5474;0;0;562.0607;23.72113;-10.93715;570.9989;568.8195;-0.2204845;-0.02692847;0;
171.8088;0;0;229.1005;16.53;-10.99314;195.0513;194.8731;-0.1552956;0.4928373;0;
186.004;0;0;239.6149;23.81441;-11.38399;207.4115;210.7942;0.03976248;0.1025381;0;
-62.55809;0;0;20.29676;20.70902;-11.43954;-36.04961;-33.23253;0.2995919;-0.3523363;0;
-617.3413;0;0;-503.2105;17.94253;-15.4469;-583.3008;-581.2361;0.4941929;-0.4169497;0;
-571.2439;0;0;-508.2646;15.17783;-18.31152;-540.1111;-536.3619;-0.02604241;-0.286596;0;
-229.7787;0;0;-214.1514;17.44073;-12.2649;-202.9251;-200.6165;-0.1559509;-0.02643869;0;
-238.9182;0;0;-217.0597;16.35148;-11.24783;-211.0295;-212.3464;-0.02585955;-0.02641212;0;
43.49258;0;0;31.72096;13.78945;-24.8337;66.66804;65.29005;-0.5455723;-0.02638558;0;
635.0265;0;0;587.4722;13.57453;-28.29174;651.8694;649.4933;-0.6099914;0.03860829;0;
556.8024;0;0;564.5806;5.791357;-25.6511;577.314;572.629;-0.02467245;-0.2862672;0;
179.6198;0;0;239.8638;5.182325;-26.83101;204.2337;202.1145;0.300189;0.03885713;0;
194.994;0;0;247.6812;-3.865212;-25.0625;217.9589;220.3397;0.2998874;0.1687528;0;
-47.6426;0;0;33.60232;-8.684099;-23.69766;-20.82765;-18.94905;-0.1551853;-0.2212209;0;
-609.1874;0;0;-492.9793;9.275564;-22.73621;-575.4654;-574.4008;-0.3499314;0.03887081;0;
-573.7178;0;0;-506.8517;11.94556;-20.83784;-541.7788;-538.7787;-0.2846124;0.3636685;0;
-228.5646;0;0;-210.4286;15.95205;-17.33391;-201.0305;-199.72;-0.3492938;0.168401;0;
-233.3324;0;0;-213.0283;22.23266;-15.7089;-205.2637;-207.3904;-0.08907346;0.1032645;0;
43.20067;0;0;30.56342;11.29198;-10.33461;67.24315;64.80626;0.04095072;0.03819337;0;
632.0488;0;0;586.5032;12.21864;-7.912836;649.1955;646.1989;-0.02405776;-0.02681237;0;
555.5768;0;0;562.4882;13.14436;-10.51722;575.8298;571.3369;0.3008031;0.1031493;0;
175.8966;0;0;235.3996;11.18877;-9.702856;199.7524;197.8252;0.1055988;0.2979476;0;
189.6504;0;0;246.22;25.31008;-15.25257;211.0459;213.0562;-0.08940929;0.03777891;0;
-58.10326;0;0;28.76932;28.56717;-17.11276;-31.91912;-30.34813;0.1055826;-0.5469651;0;
-619.7001;0;0;-498.6195;24.519;-15.68893;-586.3583;-584.8514;0.1704438;-0.2215788;0;
-580.3469;0;0;-511.7991;26.57145;-16.61092;-549.9122;-546.0954;0.2352399;0.1684479;0;
-246.8685;0;0;-229.6139;21.25347;-15.52251;-219.1506;-217.7115;0.2350035;0.233246;0;
-253.3671;0;0;-234.5056;20.69625;-16.04277;-223.9279;-225.4887;-0.02510196;-0.09182514;0;
38.92819;0;0;24.41246;19.93852;-9.864346;62.09095;62.3433;-0.6097828;-0.6764389;0;
628.1554;0;0;582.4199;17.64131;-6.907307;643.6737;641.8019;-0.8690395;-0.09105318;0;
552.312;0;0;561.5949;25.32576;-13.39747;571.6878;565.7574;-0.02359081;0.6886464;0;
183.5671;0;0;241.816;25.43404;-13.45099;205.1098;203.4957;0.3012696;0.3631178;0;
193.69;0;0;243.1348;27.95408;-12.56669;212.6498;214.723;-0.2187718;-0.02705117;0;
-53.88029;0;0;21.93904;30.47158;-13.82674;-28.88004;-28.87044;-0.08861735;-0.09199133;0;
-614.4194;0;0;-508.1291;17.91504;-10.32986;-582.4478;-581.3762;0.1713411;-0.0918989;0;
-581.7556;0;0;-527.0463;15.01665;-11.12327;-553.1894;-550.1199;0.04123422;-0.2217412;0;
-233.5958;0;0;-225.5429;17.74822;-9.906405;-208.0568;-207.5516;0.1061601;-0.2864858;0;
-240.0452;0;0;-226.3158;15.65429;-9.025674;-212.7827;-215.0892;0.1710208;0.03863881;0;
33.74601;0;0;15.47767;18.51797;-18.39397;55.98358;54.2417;0.04091427;0.1685347;0;
638.0333;0;0;585.9254;19.16992;-19.71515;654.0017;651.5744;-0.08906152;0.03843064;0;
563.8043;0;0;566.5336;14.05947;-22.84341;583.1923;578.3937;0.04096265;-0.2214774;0;
170.7475;0;0;228.3215;12.63882;-25.29883;192.7398;190.5072;0.4307255;-0.1562875;0;
189.1916;0;0;242.8347;18.11848;-17.70446;208.7255;210.4931;0.5602275;-0.02619575;0;
-50.69054;0;0;31.1345;18.83721;-17.08394;-26.17876;-24.60033;0.3647625;-0.2210715;0;
-622.7895;0;0;-510.4371;18.75191;-11.30637;-590.5563;-588.4797;0.364396;-0.09091464;0;
-591.3667;0;0;-529.3519;21.14396;-8.146811;-561.9145;-558.4656;0.1041605;-0.1557906;0;
-245.9458;0;0;-231.1572;10.00428;-10.75096;-220.2088;-219.637;-0.02587889;-0.3505361;0;
-246.7607;0;0;-231.2997;6.108489;-8.9986;-218.5508;-222.3524;0.03911446;-0.2852165;0;
37.59447;0;0;20.61871;20.63801;-14.2141;61.21581;57.1057;-0.4806636;-0.0250606;0;
627.9474;0;0;581.3786;22.55966;-15.60646;643.8614;640.5675;-0.4152133;0.234834;0;
553.2287;0;0;559.3677;18.65223;-13.24638;572.4375;567.7101;0.2998447;-0.1552061;0;
182.9836;0;0;238.4667;20.04;-14.17083;205.9837;202.1982;0.1046414;-0.1550501;0;
193.9817;0;0;246.2855;15.79933;-12.549;214.6473;214.3638;-0.1553331;0.2998771;0;
-55.40049;0;0;24.77426;15.18122;-12.46941;-30.94503;-30.35371;-0.02524235;0.1046738;0;
-608.1295;0;0;-502.5481;19.45287;-12.25593;-576.8895;-575.9865;-0.1551517;0.1695359;0;
-578.0333;0;0;-523.9696;21.64315;-11.70787;-548.5738;-546.6097;-0.09002843;0.4942023;0;
-247.2434;0;0;-238.3364;15.86161;-12.4328;-221.4992;-221.3486;0.1699314;0.2338363;0;
-247.3698;0;0;-235.2859;14.3718;-11.7506;-220.7144;-224.6245;0.1047933;0.03869934;0;
35.98647;0;0;17.32371;29.09312;-13.54721;57.36769;53.14923;0.03972066;0.03866046;0;
634.3995;0;0;583.1469;33.28344;-13.46662;647.8882;644.5485;0.1046481;-0.1562804;0;
568.0451;0;0;568.3806;28.56193;-11.30975;585.3932;580.4328;0.2344776;0.03877864;0;
178.8571;0;0;233.2276;30.14082;-10.56158;200.873;197.979;0.234242;0.2336417;0;
188.5475;0;0;238.8653;29.17253;-8.943374;208.4173;210.3987;-0.2857321;0.2334069;0;
-41.27656;0;0;35.66483;28.07149;-8.666455;-17.11634;-16.13641;-0.3504123;0.2981398;0;
-606.7633;0;0;-496.1037;31.32581;-4.504928;-575.1312;-576.5885;0.2346459;-0.09196389;0;
-583.8524;0;0;-521.2173;31.8302;-3.763589;-555.1255;-555.3945;0.1694427;-0.4816755;0;
-237.8768;0;0;-221.8439;24.22878;-4.697568;-213.3642;-214.7574;0.1043051;-0.3512568;0;
-237.8252;0;0;-219.8718;21.85991;-4.156985;-210.776;-215.0413;0.234135;0.1038675;0;
41.33607;0;0;25.41341;24.24981;-11.65477;64.11019;60.91116;0.03899774;0.1037631;0;
632.3099;0;0;585.7937;23.15372;-13.3845;647.1277;644.9938;0.1688932;-0.1562105;0;
557.0871;0;0;561.9667;20.45114;-16.3183;575.8879;570.9451;0.3636256;-0.02611887;0;
177.0306;0;0;230.8183;16.81327;-18.91411;200.0604;196.8092;0.2982928;0.1038421;0;
190.0961;0;0;241.0186;20.27997;-11.72818;209.8544;211.354;0.3629605;-0.02619697;0;
-50.724;0;0;28.75799;16.03906;-10.17579;-26.48782;-26.05159;0.2326611;0.03879671;0;
-609.2048;0;0;-497.5064;19.50655;-10.0316;-577.4967;-577.6232;0.1674599;0.3635944;0;
-579.8571;0;0;-514.6851;21.02719;-8.145994;-550.992;-548.1198;-0.2874797;-0.02657497;0;
-236.884;0;0;-219.1912;-9.269737;-5.525597;-211.7336;-210.9258;-0.4820929;-0.6762217;0;
-236.7085;0;0;-217.2219;-15.08757;-3.443574;-209.2095;-213.3375;0.1030976;-0.1558035;0;
33.95592;0;0;21.00177;-24.58326;-2.502353;57.49175;52.93063;-0.02694067;0.1691898;0;
630.1846;0;0;581.1366;-34.53889;-0.758404;645.326;641.2692;-0.481685;0.5588238;0;
563.3971;0;0;564.7481;-3.090288;-2.900974;580.9596;575.4701;-0.09139694;1.142968;0;
170.5282;0;0;226.2255;2.070381;-3.099008;192.8206;189.7729;0.2335316;0.3622119;0;
188.5977;0;0;239.2416;1.130295;-0.2157497;209.4934;210.5092;0.1033623;-0.09292351;0;
-35.85408;0;0;38.22709;7.62687;0.3873135;-10.9189;-11.71569;0.1032584;0.2320066;0;
-606.7811;0;0;-498.0418;0.4519106;0.9227877;-574.5621;-576.6075;0.03818731;0.1018388;0;
-583.058;0;0;-520.3424;1.925325;1.59169;-553.4326;-554.1016;0.1680836;-0.02819825;0;
-230.7114;0;0;-218.7209;0.04738038;2.25992;-205.7385;-208.5932;0.1679147;-0.2230719;0;
-238.7879;0;0;-223.9359;-0.8896962;3.128427;-212.1535;-218.1912;-0.02715601;-0.3527825;0;
29.44229;0;0;12.67031;-3.367049;1.517693;51.55227;46.33267;-0.2220307;-0.157526;0;
630.548;0;0;577.6236;-6.445125;0.5784073;644.3275;639.7378;-0.6765791;-0.222335;0;
567.4459;0;0;566.5485;2.268889;5.333492;585.147;578.1257;-0.4160298;-0.1571443;0;
184.5054;0;0;235.8326;3.673129;6.39986;207.686;202.3583;0.1690942;-0.1569864;0;
194.6898;0;0;239.4687;-1.085984;3.647129;216.2229;214.6487;-0.1559124;-0.02689396;0;
-42.07442;0;0;31.33261;-1.01852;4.514243;-16.87733;-18.13755;-0.4156251;0.03810041;0;
-606.6858;0;0;-497.0583;-0.6153552;-1.786445;-575.2047;-575.5891;-0.2203054;-0.3517419;0;
-585.649;0;0;-522.7332;-0.6147369;-4.53095;-557.0106;-555.583;0.2996547;-0.2214538;0;
-241.9205;0;0;-226.5441;-3.025017;4.516055;-216.3719;-217.5069;0.6241902;0.1685728;0;
-238.1792;0;0;-219.2575;-5.099058;5.248329;-210.4073;-216.039;0.1038244;0.2333707;0;
34.48571;0;0;22.59138;0.7341906;4.573226;57.54451;51.16887;-0.2211167;0.2981036;0;
627.403;0;0;578.9765;2.139972;5.908289;643.5046;637.2603;-0.1559271;-0.09200003;0;
565.9282;0;0;567.4628;-4.426261;1.347636;585.6368;577.8995;-0.4806072;-0.4167443;0;
178.4915;0;0;234.6221;-3.752228;0.8774009;202.1158;196.1979;-0.2202549;-0.09148884;0;
192.8673;0;0;241.6951;-9.039743;0.07272413;214.0316;212.9298;-0.1550662;0.03853779;0;
-31.02653;0;0;44.11398;-11.30881;-1.267008;-6.385234;-6.798842;-0.4147798;-0.2863376;0;
-605.0818;0;0;-493.5351;1.764345;0.8107364;-573.7811;-575.5062;-0.1544936;-0.02618058;0;
-589.3564;0;0;-527.0222;4.844031;-0.9316345;-561.2106;-561.0598;0.1704983;0.1037804;0;
-231.3189;0;0;-218.21;3.767437;4.025917;-207.0119;-208.7979;0.1053596;-0.4810299;0;
-231.7736;0;0;-216.9913;5.371242;4.624718;-205.3047;-212.2737;-0.02468091;-0.4805466;0;
26.20472;0;0;6.552003;7.509298;-3.149705;46.89993;40.50013;-0.1545908;0.039675;0;
624.5651;0;0;572.386;8.03664;-4.553182;636.6813;631.5374;-0.3493375;-0.09029956;0;
565.1546;0;0;566.5635;6.890465;-11.1798;581.3191;573.9938;-0.4139538;0.1046932;0;
174.4703;0;0;226.4149;6.816193;-14.18267;194.2417;188.9853;-0.02373382;0.4943921;0;
186.5388;0;0;231.4348;-1.764472;-14.30239;203.2295;202.2887;0.2361594;0.2340259;0;
-45.65696;0;0;24.86843;-5.312672;-16.09656;-23.61083;-25.11289;0.04102007;0.1688234;0;
-610.2023;0;0;-507.7638;-2.628017;-10.85583;-580.807;-583.2446;0.3008482;0.3635558;0;
-585.9136;0;0;-530.6169;-3.763476;-9.237336;-559.7962;-561.3568;0.2355786;0.03835382;0;
-240.2483;0;0;-231.7962;-3.424901;-6.548859;-217.6554;-221.2134;-0.3493642;-0.3514888;0;
-239.5071;0;0;-229.3768;-2.28336;-2.992183;-214.6881;-221.8032;-0.6088825;-0.2212009;0;
29.47344;0;0;6.922468;-4.423544;-4.060904;49.89476;42.91171;-0.5433034;-0.1560113;0;
625.0819;0;0;571.3193;-4.553797;-1.846386;636.9245;630.6981;-0.3478554;-0.2208219;0;
564.1716;0;0;564.4359;4.69418;1.504494;577.6265;570.2819;-0.2825386;-0.02569799;0;
177.8612;0;0;229.7242;7.436129;3.78028;194.9882;190.587;-0.15232;0.2341972;0;
191.2381;0;0;238.0516;8.299314;6.053901;207.4734;207.3245;0.1726698;0.4938312;0;
-38.02639;0;0;35.78895;11.63988;7.588425;-15.93541;-17.52094;0.04256159;0.6232697;0;
-610.4504;0;0;-501.477;6.269546;9.657149;-581.0728;-582.8442;-0.1523832;0.2978068;0;
-596.3438;0;0;-535.7681;7.133903;9.98236;-570.5565;-568.8903;-0.1522301;-0.3521659;0;
-243.7965;0;0;-235.0681;5.988635;11.04406;-222.2205;-222.305;0.0428249;-0.4817467;0;
-241.6775;0;0;-229.5846;4.977263;10.16218;-218.1241;-222.8313;0.4325859;-0.02649128;0;
22.55764;0;0;2.841908;11.73742;9.549125;41.40221;36.20002;0.3671839;0.10347;0;
625.8567;0;0;571.1159;11.05604;8.936683;636.374;631.2396;0.04197826;0.2982681;0;
572.0046;0;0;569.3552;21.96327;-0.3156973;585.5723;578.1317;-0.2829006;0.4279031;0;
182.2505;0;0;231.1403;26.16076;-3.32949;200.5522;194.3059;-0.2826164;-0.09226563;0;
193.0618;0;0;237.7171;12.00193;-6.474342;209.596;207.7912;0.172439;-0.4170096;0;
-34.58034;0;0;39.89005;10.71707;-9.816861;-13.4401;-14.68082;-0.2175383;-0.2866559;0;
-602.635;0;0;-491.8203;5.414039;-4.984348;-574.2697;-575.8215;-0.02241771;-0.2214006;0;
-590.5353;0;0;-529.6193;1.591182;-5.381238;-564.5098;-564.1235;0.8871475;-0.09124341;0;
-253.2362;0;0;-244.8551;5.876491;-0.9550791;-230.86;-231.661;0.2365828;-0.1561191;0;
-252.482;0;0;-240.1113;4.73151;1.859164;-229.7534;-233.802;-0.5432631;-0.2209295;0;
25.31973;0;0;8.005384;7.473422;-3.166302;42.77804;38.9834;-0.4127825;0.3639985;0;
626.617;0;0;575.0873;8.671362;-2.359326;637.9984;634.0826;-0.282433;0.4286001;0;
569.7032;0;0;570.324;9.734375;-3.294716;585.9456;579.4101;-0.02227989;-0.02660193;0;
190.0088;0;0;243.1651;11.33218;-4.229167;210.2329;206.0153;0.04270984;0.1033595;0;
202.1867;0;0;250.0422;9.512136;1.334544;218.8297;219.8637;0.04266693;0.363125;0;
-30.46214;0;0;44.33176;9.034064;2.739845;-9.900273;-9.492;0.3674608;0.03792343;0;
-604.2056;0;0;-497.6904;10.63258;0.4596723;-575.0438;-576.2601;0.2371569;-0.2869514;0;
-595.0403;0;0;-539.7939;9.817611;1.263006;-568.0941;-568.3722;-0.08791815;0.103141;0;
-242.4319;0;0;-237.2783;10.74575;0.2569925;-219.1359;-221.9125;0.04210487;0.4278741;0;
-238.5026;0;0;-230.0434;12.14147;0.3907002;-213.1062;-218.691;0.3019319;0.2975095;0;
19.42001;0;0;-2.926259;-0.7314498;0.9261711;38.79395;35.58854;-0.1531428;0.03734115;0;
626.4703;0;0;569.414;-4.681854;-0.1464865;637.2042;634.5017;-0.6077604;0.03730363;0;
579.7391;0;0;573.527;3.694619;5.614071;593.523;587.3251;-0.4122477;-0.02770121;0;
177.7958;0;0;226.6248;2.016943;6.345242;196.0012;190.5591;-0.2818987;-0.2225754;0;
186.6751;0;0;231.582;8.846444;3.994464;203.3005;200.9248;-0.3465828;-0.09241708;0;
-27.15512;0;0;42.50669;10.78091;4.660279;-6.673382;-8.984214;0.1085368;0.03761048;0;
-598.903;0;0;-494.9534;5.746239;-3.784009;-570.5707;-572.3795;0.3682971;0.297442;0;
-592.1168;0;0;-534.1236;7.883919;-6.191592;-565.6871;-565.7449;-0.02187699;0.5570126;0;
-247.1324;0;0;-237.8606;-5.252169;-4.309849;-225.6018;-227.3463;-0.08682235;-0.02825322;0;
-243.3858;0;0;-234.748;-8.462072;-5.243279;-220.8149;-226.1183;0.3680363;-0.3530616;0;
26.97294;0;0;1.306832;0.9909016;-1.754898;46.21032;40.78734;0.1727645;-0.02787008;0;
623.8958;0;0;565.9592;2.128006;-0.07868356;636.2423;631.1371;0.04265617;0.361962;0;
571.7323;0;0;566.515;8.689951;-0.8154168;585.5656;577.5295;0.36745;0.4265656;0;
186.6011;0;0;235.2994;13.30292;-0.4796828;203.8563;196.3905;0.3670808;0.1013003;0;
188.4751;0;0;235.6877;13.42327;7.491646;204.5261;201.3156;0.2367773;-0.2236382;0;
-36.78867;0;0;36.73823;15.01738;10.29728;-16.69336;-19.46328;-0.08829735;-0.3533482;0;
-595.9081;0;0;-490.846;26.45649;4.660489;-568.774;-571.0414;-0.02324129;-0.2230584;0;
-587.6257;0;0;-531.2073;30.44839;3.985976;-563.3925;-563.0964;0.04174941;-0.09289963;0;
-244.0827;0;0;-237.0086;23.85372;4.316886;-224.0592;-224.7629;-0.1531946;0.03712841;0;
-239.9019;0;0;-227.775;25.10255;3.307926;-217.5247;-221.3511;-0.02310595;0.03709111;0;
15.58586;0;0;-2.034479;13.89154;-0.17851;34.00504;29.37038;0.0418846;-0.2877829;0;
618.5796;0;0;562.3713;9.389603;-1.651833;629.0468;624.7291;0.04184252;-0.157559;0;
576.7913;0;0;571.6139;17.55184;-1.851122;589.3718;584.2464;0.1067678;0.1024687;0;
176.1628;0;0;229.4612;16.99834;-1.916245;192.7287;189.8573;-0.1532088;0.167333;0;
187.9797;0;0;233.6034;15.70944;-3.655876;201.8428;203.3471;-0.2180222;-0.1576718;0;
-14.48249;0;0;54.02136;14.42086;-4.322031;2.615083;3.368238;-0.1528358;-0.2224807;0;
-590.5533;0;0;-484.4498;21.17152;4.389848;-565.477;-565.9115;-0.2176496;0.1025795;0;
-595.8945;0;0;-536.3117;22.22198;7.131738;-572.405;-570.965;-0.1524636;0.1674438;0;
-237.9753;0;0;-229.8016;17.57795;6.85664;-218.445;-218.5057;-0.282245;0.3621776;0;
-229.7402;0;0;-218.7012;17.56028;9.528946;-208.9802;-212.2267;-0.6067982;0.2968463;0;
20.365;0;0;2.032749;8.634032;6.371295;36.04427;32.36371;-0.2163844;-0.093256;0;
615.6703;0;0;561.7494;6.012412;6.565842;624.0875;619.7234;0.1736371;-0.02819496;0;
572.7604;0;0;568.3063;5.203063;9.305423;584.9172;578.6211;0.1084953;-0.1581013;0;
183.7552;0;0;232.4663;3.925038;9.630987;200.2726;196.1691;0.1083863;0.03695958;0;
183.3831;0;0;226.9854;6.734133;10.62605;198.2597;197.971;0.1082774;0.4267265;0;
-36.25334;0;0;32.85477;7.598022;11.01727;-16.39418;-17.43224;0.6279072;0.2313957;0;
-590.2509;0;0;-489.1034;14.28917;11.67603;-563.7276;-564.952;0.4973417;0.1012285;0;
-583.0986;0;0;-529.0291;16.88678;12.20016;-560.1627;-558.5748;-0.3477335;0.1660941;0;
-243.4332;0;0;-235.145;24.63934;12.25489;-223.7061;-223.6815;-0.02254738;0.1009599;0;
-231.0072;0;0;-219.479;29.8395;13.04637;-209.6133;-213.087;-0.1524594;0.2307931;0;
27.65752;0;0;8.626991;21.63784;10.48791;44.34475;41.31184;-0.6070776;0.1655939;0;
612.3983;0;0;560.9032;21.34768;9.941508;622.3221;619.6671;-0.5415003;0.1654275;0;
571.1159;0;0;570.5845;23.93917;11.00325;584.4656;579.1895;-0.3460541;0.3601633;0;
177.9893;0;0;231.119;23.84777;9.3846;196.0732;191.7395;0.109065;0.3598014;0;
178.6226;0;0;226.9512;18.33145;15.33653;194.0646;194.1705;-0.2158813;0.03460317;0;
-15.39695;0;0;55.74664;15.09785;15.52207;2.903094;3.696036;-0.5405011;-0.09536629;0;
-585.1576;0;0;-479.7902;20.77611;12.35839;-559.0673;-559.0873;-0.345056;-0.1602378;0;
-604.9968;0;0;-545.3999;19.48244;12.68089;-581.619;-580.0147;-0.2147746;0.03482524;0;
-244.8821;0;0;-235.6948;21.07045;1.61621;-226.0255;-225.7972;0.2402126;0.1647249;0;
-233.3917;0;0;-221.9023;22.65687;-1.26568;-212.68;-216.4499;0.3049386;0.03462473;0;
13.2814;0;0;-8.349029;7.898346;-3.742655;29.78694;25.58356;0.2396648;0.09955728;0;
617.3394;0;0;559.6238;3.20136;-7.556799;626.8943;623.5073;0.4992934;-0.3553142;0;
572.8037;0;0;567.7447;11.2361;3.971492;586.0972;581.5266;0.3038897;-0.4848918;0;
172.554;0;0;221.5355;10.62257;6.244921;189.5822;186.3906;-0.1511871;-0.02963321;0;
178.8149;0;0;222.4373;7.530437;4.095192;192.6401;193.2623;-0.08606783;0.03536392;0;
-27.13633;0;0;41.17978;7.120728;6.100565;-8.952217;-8.143303;0.04395334;0.1652631;0;
-584.8912;0;0;-481.5988;5.840776;5.156675;-558.542;-558.3585;0.04390918;0.165097;0;
-590.1755;0;0;-533.0888;4.696807;5.687357;-566.2891;-563.732;0.2387671;0.09996378;0;
-251.8148;0;0;-244.6354;6.4334;5.346727;-231.9503;-231.0825;0.3034945;-0.03007136;0;
-239.9426;0;0;-229.2722;5.154138;5.00644;-218.5988;-223.1042;-0.0866145;-0.2899105;0;
17.79404;0;0;-1.218803;6.756549;5.00141;33.43172;29.1183;-0.2164622;-0.2246519;0;
611.2278;0;0;555.5026;7.017204;4.728453;618.1042;615.7317;-0.5410814;-0.09449145;0;
570.6962;0;0;563.0029;-0.7593789;4.522753;580.6891;577.0696;-0.410603;0.1005055;0;
173.7596;0;0;221.3586;-1.896716;4.853123;188.6149;187.2479;-0.02038636;0.0354372;0;
180.2066;0;0;222.573;-8.258799;3.240778;193.1106;195.5555;-0.4751373;0.2952709;0;
-17.43769;0;0;49.12388;-11.5994;2.768641;-0.1114361;0.8942441;-0.6695619;0.4898763;0;
-596.9413;0;0;-492.5907;-3.081281;6.181867;-571.5741;-571.5064;-0.08418302;0.09958002;0;
-615.7068;0;0;-558.7498;-2.273902;6.309621;-593.426;-591.2345;0.5006077;-0.3552915;0;
-257.3305;0;0;-250.5929;0.3403515;10.0542;-239.07;-239.1921;0.2402353;-0.5498365;0;
-250.5127;0;0;-239.4716;2.483463;11.85264;-230.8963;-234.7039;-0.3447122;0.03542209;0;
-4.134716;0;0;-24.27652;3.08418;5.946354;10.02723;7.28546;-0.4093332;-0.2244829;0;
609.1237;0;0;554.9567;4.889742;4.80167;616.5248;614.4729;0.1108169;-0.4841267;0;
583.3368;0;0;580.5734;4.348966;3.32322;594.9783;590.6172;0.1756728;0.1010659;0;
187.8242;0;0;239.7861;6.286979;0.4397371;202.8898;200.3446;-0.1493404;-0.2238724;0;
191.6334;0;0;237.6711;0.1850929;3.654354;203.6229;204.3912;0.2406137;0.03622191;0;
-19.26572;0;0;50.90105;-0.7530981;2.780026;-2.415706;-2.960088;0.5002413;0.3610222;0;
-594.5822;0;0;-489.2536;5.745369;0.7007617;-568.6912;-570.2969;0.174902;-0.3539813;0;
-603.2925;0;0;-546.5455;6.676625;2.039716;-578.427;-578.1572;-0.08514313;0.03617844;0;
-257.4849;0;0;-250.5198;13.03391;-10.62186;-236.4549;-237.2473;-0.02009024;0.2960114;0;
-249.1052;0;0;-238.0242;16.03492;-14.29513;-226.7846;-231.1993;0.04489729;-0.4838941;0;
11.45172;0;0;-6.9636;16.62104;-3.697707;30.31418;25.40412;-0.3449519;-0.4184405;0;
615.0743;0;0;563.694;18.68142;-4.430804;626.4216;622.5784;-0.4745399;0.361588;0;
579.5363;0;0;578.4949;15.31277;5.687827;593.3709;588.4697;-0.1492264;0.2962574;0;
184.3399;0;0;237.3349;13.6898;10.16985;203.0331;200.0733;0.04582555;0.1010577;0;
177.2831;0;0;227.2888;19.43682;1.050193;193.7712;195.2496;-0.1491225;0.3608255;0;
-29.97846;0;0;45.02692;21.69446;2.656728;-10.25858;-9.281388;-0.019038;0.4254303;0;
-593.2277;0;0;-484.0649;7.807563;-4.312044;-567.5306;-567.429;0.3058178;0.03519874;0;
-605.1878;0;0;-543.7358;4.91933;-6.384182;-582.0778;-580.6644;-0.0842935;-0.3546407;0;
-246.947;0;0;-239.4046;12.41648;-1.287187;-227.6083;-227.8205;-0.01924146;0.1004871;0;
-237.3286;0;0;-226.4205;12.47135;-2.089566;-216.1977;-219.2833;0.1756799;0.4252228;0;
-2.395561;0;0;-17.92264;17.28159;7.557831;14.84099;12.38322;-0.4092027;0.09995882;0;
609.1744;0;0;554.9324;18.80446;11.36814;617.8979;615.6925;-0.2138895;-0.160011;0;
591.6958;0;0;583.3602;23.87578;8.610419;603.2216;598.8945;0.3710315;-0.2248176;0;
185.9299;0;0;235.4487;27.20167;11.41505;202.5041;200.1179;-0.01914538;0.1652124;0;
183.2444;0;0;229.9647;20.54291;10.46582;197.8654;198.7299;-0.1490608;-0.02985564;0;
-12.96622;0;0;55.3838;20.58961;11.99591;5.138348;4.940011;0.240893;-0.5495644;0;
-586.7273;0;0;-480.465;19.69729;12.11782;-561.2696;-561.4678;0.6954224;-0.2241755;0;
-603.504;0;0;-539.9521;19.8122;11.77073;-579.1339;-577.1454;0.1749848;-0.1589829;0;
-254.3853;0;0;-241.9966;16.97828;18.52394;-234.1001;-232.9882;-0.4748644;-0.09385578;0;
-251.3811;0;0;-235.6939;15.89047;18.97421;-230.1792;-232.3793;-0.01961586;0.1011406;0;
0.370114;0;0;-16.75455;24.64841;21.03161;16.49068;13.23087;0.1103385;-0.02889576;0;
609.501;0;0;552.851;26.7671;21.61333;616.9847;613.4159;-0.08467436;-0.02886672;0;
587.0246;0;0;577.6577;28.81631;13.62076;597.3743;591.8726;-0.01962193;-0.1587724;0;
198.8796;0;0;242.0582;30.19485;10.32503;213.7791;209.907;-0.3444389;-0.3535149;0;
186.8107;0;0;228.3217;34.51779;8.774051;199.1965;200.0135;-0.3440928;-0.1582576;0;
-26.08258;0;0;41.49862;36.96135;6.688885;-10.14848;-9.332371;0.3059263;-0.02816395;0;
-588.0239;0;0;-485.1534;26.40801;-3.632963;-563.9224;-564.5439;0.890325;0.101799;0;
-600.8013;0;0;-542.4493;23.50109;-8.117047;-578.7231;-577.4074;0.3047243;0.2316314;0;
-249.3115;0;0;-243.8666;25.21976;-3.889089;-231.3159;-231.6882;-0.2802879;0.3613334;0;
-239.066;0;0;-232.1273;23.85428;-5.425788;-219.2769;-224.2715;-0.08510427;0.0361336;0;
2.365451;0;0;-18.75123;16.93143;0.005159126;16.88733;12.08514;0.2398179;-0.3537068;0;
612.9312;0;0;555.6039;13.09603;2.215591;619.1301;615.5197;0.434479;0.0364527;0;
592.2004;0;0;586.7797;22.46097;1.87845;602.2662;597.1601;0.3041078;0.4262201;0;
184.9972;0;0;237.8027;23.71119;4.957655;200.1129;197.1983;0.1089002;0.2308898;0;
182.3126;0;0;228.8182;18.66353;-0.4058388;195.1642;196.5004;0.1737581;0.1007231;0;
-10.46127;0;0;57.73663;18.4437;-0.5393969;5.563284;6.585848;0.2385508;-0.02931276;0;
-585.2244;0;0;-481.3005;19.76434;4.283794;-562.2819;-561.5102;0.2383111;0.4254881;0;
-602.3149;0;0;-544.16;20.3477;4.413455;-581.6443;-579.3118;-0.08676504;0.6199626;0;
-239.142;0;0;-233.0818;17.04472;10.97323;-222.4277;-222.4713;-0.2815799;-0.03033378;0;
-233.6543;0;0;-224.8517;16.6928;14.11028;-215.7699;-218.812;-0.08639492;0.03466406;0;
1.21253;0;0;-18.91662;17.74776;8.134739;13.89403;11.66718;-0.1512755;0.1645639;0;
612.2792;0;0;554.5641;17.99834;8.46148;617.2643;614.6024;-0.08615611;0.1643986;0;
593.548;0;0;582.3677;19.25305;8.72091;602.0264;596.3687;-0.0211022;0.1642334;0;
191.0911;0;0;234.6445;19.23371;7.774508;204.371;200.9679;-0.08604833;-0.2907031;0;
185.0271;0;0;224.4762;22.0938;11.51762;196.0448;197.7675;0.04397281;0.2293278;0;
-14.55861;0;0;49.2761;21.53573;11.37208;-0.7408898;0.9175994;0.3687653;0.03419533;0;
-584.3201;0;0;-483.4432;24.39448;12.43238;-562.5203;-562.4876;0.4333621;-0.6155124;0;
-597.601;0;0;-543.1771;24.83946;13.08972;-577.2598;-575.7905;-0.08681203;-0.03018791;0;
-241.3668;0;0;-239.4088;18.18307;7.985983;-225.3564;-225.0129;0.04320988;-0.09512492;0;
-235.9393;0;0;-230.1727;18.36587;6.906232;-216.9466;-220.9763;0.3680032;-0.224964;0;
2.677903;0;0;-18.67264;2.07044;4.755839;18.09087;13.44056;0.04279669;0.4249355;0;
609.4952;0;0;553.2462;-4.763167;3.14347;616.3345;612.3135;-0.3470504;0.09967177;0;
591.2042;0;0;582.4253;10.98175;5.283765;600.5978;594.8317;-0.216767;-0.2252651;0;
190.8735;0;0;235.7016;10.837;5.278456;203.8809;200.4945;0.1082876;0.1647653;0;
184.5598;0;0;226.8441;14.44343;4.53634;195.5551;196.6074;-0.02175594;0.1645997;0;
-6.904474;0;0;61.26175;17.57675;3.661003;9.139734;9.191421;-0.08670142;-0.2903371;0;
-578.3603;0;0;-474.0932;12.6026;8.814889;-554.3987;-555.7838;0.4331244;-0.225078;0;
-601.6422;0;0;-542.5197;13.99645;10.01172;-580.016;-579.2133;0.5626239;0.03501757;0;
-236.8457;0;0;-230.0689;10.69986;4.911084;-219.2392;-219.7492;0.2372219;-0.3548217;0;
-229.4238;0;0;-221.7793;10.55538;4.370286;-210.5857;-215.2805;-0.02288585;-0.2245305;0;
-3.869046;0;0;-24.6554;7.664391;2.222562;10.01515;5.075112;0.04210448;0.2304665;0;
604.8914;0;0;547.7692;4.174065;1.617483;610.3908;605.7681;-0.2178072;0.1652676;0;
594.7258;0;0;585.5745;19.30777;-2.269031;603.2808;596.6636;-0.2825557;0.4899383;0;
198.0149;0;0;245.5317;22.63727;-4.142273;211.4962;207.0722;-0.1523371;0.2295766;0;
186.5716;0;0;230.8548;12.83526;2.560061;197.3532;197.4938;0.1076854;-0.4203275;0;
-15.57689;0;0;52.08754;12.62129;3.696076;-1.870079;-1.854537;0.4324138;-0.3549378;0;
-580.6522;0;0;-475.5121;11.06837;5.099004;-558.7133;-559.26;-0.08775937;-0.2896138;0;
-597.435;0;0;-535.5664;10.18659;6.634488;-576.3928;-575.627;-0.4125079;0.0355139;0;
-245.5738;0;0;-235.3664;9.372074;7.967358;-227.4887;-228.7852;0.23758;0.2303803;0;
-238.2056;0;0;-225.3848;8.960516;10.03582;-218.3895;-221.8712;0.3023086;-0.1596553;0;
1.288486;0;0;-14.95148;8.951512;4.265329;16.52443;13.29617;-0.4776032;-0.2894296;0;
607.6699;0;0;555.0895;8.139211;3.05535;615.7067;611.9819;-0.6720253;-0.09423672;0;
596.1273;0;0;593.5121;15.3647;4.994785;607.1545;601.4969;-0.2165787;-0.1591094;0;
202.9131;0;0;257.6468;16.95685;3.114244;217.5524;213.8996;0.173443;-0.2239168;0;
189.5284;0;0;241.0836;16.60502;9.005491;200.6547;201.9405;0.1083013;-0.09375717;0;
-6.626045;0;0;63.55551;17.72741;10.53705;8.612017;8.959517;-0.02174216;0.2311738;0;
-576.333;0;0;-474.8628;14.69549;1.751942;-552.4271;-553.954;0.04324703;0.2309415;0;
-608.2376;0;0;-548.7233;15.01552;0.2765574;-586.2298;-585.8186;0.1081709;0.1007747;0;
-245.1836;0;0;-236.8908;9.574446;0.9461088;-227.3833;-228.5343;-0.2167745;0.2306082;0;
-232.506;0;0;-222.7223;8.627796;0.141363;-214.3488;-219.0593;-0.08662198;0.1654091;0;
-11.82069;0;0;-28.03377;9.556156;0.007255068;1.133399;-3.010179;0.04339974;-0.4194632;0;
602.0076;0;0;548.9544;9.145388;-0.3276669;608.7643;604.6874;0.4331602;-0.3540744;0;
601.6526;0;0;595.1293;18.44597;2.954704;612.5879;606.0788;0.7575616;-0.09384922;0;
202.2485;0;0;252.6407;21.70997;4.358377;217.2333;212.5423;-0.02280766;-0.2886569;0;
193.737;0;0;243.7037;21.08494;3.550202;206.3329;206.2068;-0.2176868;0.1014372;0;
-6.169783;0;0;70.17091;20.9964;3.948533;9.911695;9.598342;0.4322054;0.426172;0;
-577.5638;0;0;-463.194;29.88392;5.552155;-554.1897;-556.5018;0.4967384;-0.1589624;0;
-602.6581;0;0;-534.3176;31.59618;5.61356;-581.3065;-581.9295;0.1064353;-0.2887373;0;
-257.6632;0;0;-248.9864;19.77543;5.540936;-239.6438;-240.3912;-0.3484431;-0.09354517;0;
-244.4108;0;0;-240.8652;17.0089;5.200454;-223.7234;-228.5305;-0.3480929;-0.09345117;0;
0.274409;0;0;-27.23042;6.877749;0.7744769;16.6307;10.89143;0.3019302;0.4263815;0;
605.9072;0;0;540.0743;1.512203;-1.503721;613.2516;608.3302;0.4315615;0.5558877;0;
599.239;0;0;581.4481;-1.436077;-0.4304832;609.2621;602.3466;0.1062912;-0.09434426;0;
209.395;0;0;250.28;-5.654193;-0.8319482;224.0932;218.6839;-0.0237503;-0.02928212;0;
193.505;0;0;232.5998;-0.4909476;-6.926437;206.4393;205.6581;-0.3485631;0.3605514;0;
-5.402098;0;0;56.2046;-0.6251522;-8.928843;10.95502;9.924767;-0.2182782;0.1003197;0;
-574.8604;0;0;-476.2718;3.461313;-5.905762;-551.8981;-554.2391;0.1717452;-0.2895851;0;
-608.5156;0;0;-551.8799;4.931704;-7.038538;-587.5128;-588.7896;0.0416379;-0.4192289;0;
-244.8367;0;0;-238.9824;8.811514;-0.8021743;-228.1029;-230.5652;-0.08833861;-0.2888729;0;
-228.5987;0;0;-218.44;11.95147;1.810966;-209.9452;-215.3411;0.4964562;-0.0287133;0;
-14.22662;0;0;-29.8152;2.025497;-3.214452;0.9723557;-3.855912;0.5609247;0.2961523;0;
600.4162;0;0;545.1757;0.5505695;-1.670736;607.3541;602.9055;0.1055897;0.360822;0;
608.5585;0;0;595.7897;0.3489455;-6.960587;618.0506;611.2327;0.1054836;0.2305248;0;
197.8407;0;0;240.8067;-0.8568539;-8.828993;212.0084;206.6341;0.3002796;0.2952605;0;
184.8983;0;0;226.3219;-2.329861;-2.322899;197.2402;196.1191;-0.08982612;0.2949638;0;
1.804456;0;0;66.86205;-3.131804;-3.79419;18.5692;17.07447;-0.4145726;-0.2900386;0;
-573.3458;0;0;-471.4971;0.9571801;6.52475;-548.9142;-551.282;-0.0893193;-0.6145839;0;
-610.0634;0;0;-551.0456;1.559431;10.3361;-588.0302;-588.709;-0.1541969;-0.2241623;0;
-257.3774;0;0;-248.956;8.590462;-3.472404;-239.8641;-241.6666;-0.4139113;-0.09400241;0;
-243.1883;0;0;-232.7763;11.79701;-4.138745;-224.9429;-230.117;-0.2835608;-0.2238426;0;
-7.062485;0;0;-26.70838;10.78078;-9.426116;6.479366;0.8732782;0.04156089;0.1661863;0;
598.7651;0;0;540.6583;13.85141;-12.56472;603.9225;599.1967;0.04151913;0.4908561;0;
593.6657;0;0;583.5932;4.191945;-7.461514;602.3787;596.0958;-0.3483267;0.1005588;0;
204.3896;0;0;249.6119;0.9725523;-8.793675;218.9034;213.6263;-0.218042;-0.09444428;0;
194.0643;0;0;234.4935;12.5595;-0.6131659;206.502;204.9159;0.3019159;-0.02938204;0;
-3.843835;0;0;62.40678;13.61861;1.798836;12.26707;10.49516;0.4315472;0.03561484;0;
-578.3637;0;0;-473.2617;12.06371;-0.4803914;-554.7727;-557.7298;0.1712442;-0.159323;0;
-612.5776;0;0;-553.3082;14.39611;1.194665;-590.572;-592.6516;-0.1537646;-0.4839996;0;
-247.895;0;0;-243.0329;5.674107;-6.308502;-229.7847;-234.0485;0.1062593;-0.613448;0;
-235.5895;0;0;-226.1096;3.257508;-9.316274;-216.123;-223.6309;0.4309892;-0.2230275;0;
-24.27139;0;0;-39.6635;13.90415;-6.22582;-9.447144;-15.76059;0.1706868;0.1020333;0;
593.4425;0;0;538.5233;15.02828;-8.027981;599.7562;594.386;-0.1543214;0.1019308;0;
609.0256;0;0;599.2014;16.68812;-9.560522;617.5817;609.9057;-0.1541664;-0.09307368;0;
201.0559;0;0;249.5872;18.94853;-9.88583;213.7264;207.4324;-0.1540114;-0.2878822;0;
184.6745;0;0;230.4709;13.30341;-15.63631;195.2083;192.6688;-0.08888935;-0.09269089;0;
6.203565;0;0;74.00536;12.68683;-16.69232;20.84972;18.56259;0.4309387;0.232239;0;
-567.7017;0;0;-462.5493;11.66971;-16.0727;-543.8249;-546.6095;0.300571;0.1670383;0;
-612.9208;0;0;-552.6016;9.247083;-17.26225;-591.0045;-592.287;-0.2844371;0.03693575;0;
-251.6737;0;0;-244.6383;14.86387;-7.666464;-235.0892;-237.37;-0.2191839;0.2318007;0;
-233.6172;0;0;-221.2791;15.65224;-4.845599;-215.3004;-221.5143;0.105873;0.1666004;0;
-16.24163;0;0;-28.34115;7.130048;-4.706765;-2.253494;-8.586164;0.2357013;0.166433;0;
585.7221;0;0;537.7153;4.578264;-0.88413;591.8251;587.248;-0.1543396;0.2962005;0;
590.6933;0;0;588.3368;7.252005;-9.121899;600.1635;593.7169;-0.2841192;0.1010008;0;
200.9204;0;0;251.4772;6.172991;-9.849545;214.1292;208.6885;0.1709377;-0.09400272;0;
186.1008;0;0;233.0461;5.43083;-3.409408;196.5478;196.0476;-0.08910342;0.1009938;0;
-3.990699;0;0;63.89685;5.760166;-2.870119;10.31878;10.25638;-0.1539812;0.230827;0;
-567.9532;0;0;-465.6512;0.7305364;1.754465;-546.0994;-547.5361;0.1710102;0.03569301;0;
-607.3;0;0;-547.5794;-0.6767172;3.829051;-587.7795;-587.3406;-0.4138677;-0.09427755;0;
-248.7447;0;0;-243.5567;4.548875;2.820582;-233.1793;-234.3651;-0.4134519;0.03575188;0;
-234.6892;0;0;-225.6959;5.481334;3.219523;-216.3284;-221.9482;0.236637;0.3605527;0;
-26.68279;0;0;-40.37462;4.806241;3.149305;-11.7762;-17.82768;-0.1534048;0.295223;0;
587.1605;0;0;534.5645;4.935133;2.342468;593.5564;587.3235;-0.4131201;0.2299591;0;
603.8118;0;0;597.2455;6.336694;0.7995064;612.3253;604.0997;0.1070338;0.1647606;0;
194.9728;0;0;244.3225;5.393298;-0.6079385;208.1003;202.007;0.1069262;0.03466041;0;
180.8464;0;0;222.2755;9.607437;-5.362994;191.9617;190.6221;-0.02311588;0.09959292;0;
10.87505;0;0;71.31543;12.00868;-7.969818;25.72732;24.07672;0.301744;-0.03044184;0;
-564.7216;0;0;-464.7993;-4.213011;-9.033536;-541.7008;-545.5362;0.2364735;-0.2253133;0;
-615.6907;0;0;-556.4109;-8.159916;-10.69903;-594.5047;-596.7745;0.04133388;0.0347825;0;
-250.2554;0;0;-244.5084;-2.123497;-11.09018;-232.5265;-235.6061;-0.1536097;-0.03021981;0;
-235.4488;0;0;-225.2722;-3.46151;-11.213;-214.2394;-221.064;-0.5432594;0.09974526;0;
-24.31823;0;0;-39.07687;0.09194122;-10.9338;-5.503969;-12.94641;-0.2178768;0.1646124;0;
585.2748;0;0;530.5511;0.7624102;-10.11902;594.8248;588.202;-0.02275585;-0.09542241;0;
592.9951;0;0;581.6795;3.775754;-6.75983;601.5984;593.9827;-0.08770033;0.2295102;0;
197.9725;0;0;241.3908;5.848065;-4.408635;208.4413;202.2075;-0.02264486;0.2942469;0;
188.6531;0;0;230.9659;4.100877;-3.60041;196.4877;194.1333;-0.1525568;-0.2257875;0;
2.369597;0;0;68.75272;6.172861;-1.788375;15.1938;12.27952;-0.2173709;-0.09562593;0;
-567.6588;0;0;-465.4229;1.343887;0.8927392;-546.789;-550.5749;0.1076843;-0.03056251;0;
-607.9428;0;0;-550.0375;1.208815;2.700381;-591.3419;-592.6252;0.2375108;-0.3553685;0;
-250.5113;0;0;-247.699;4.087988;4.171171;-238.6747;-241.5809;0.1723048;-0.1601094;0;
-233.5805;0;0;-228.1473;4.217603;5.841553;-218.3824;-225.0964;0.1071643;-0.1599485;0;
-20.82762;0;0;-39.26288;11.24596;3.960161;-8.455924;-14.41348;-0.1528127;-0.2247552;0;
584.3891;0;0;529.4907;12.84225;3.822216;589.3771;584.1127;-0.08769187;0.2302421;0;
602.3551;0;0;592.8016;17.38468;4.62217;609.7119;602.9535;0.432135;0.2949781;0;
203.1377;0;0;248.4412;19.71173;3.210885;215.2347;209.2327;0.3017661;0.09977967;0;
181.5069;0;0;225.2656;16.61047;6.355856;192.4673;189.6572;-0.08834118;0.03471207;0;
5.475365;0;0;73.80278;17.86658;5.411708;20.23533;17.99034;0.04168227;-0.1602249;0;
-563.8065;0;0;-455.3804;5.925905;2.392161;-542.2523;-544.9323;-0.0882943;-0.3549659;0;
-615.4012;0;0;-547.4388;1.29825;0.715184;-596.5549;-597.483;-0.1531729;-0.2246745;0;
-250.7159;0;0;-241.5423;10.07086;-5.782757;-235.5116;-237.5633;0.3017524;-0.1594814;0;
-231.4111;0;0;-223.6834;10.12809;-8.389159;-212.9112;-218.6465;0.3014492;-0.4841579;0;
-25.40696;0;0;-41.42515;5.563557;-15.34683;-10.73628;-16.40334;0.1062443;-0.2887694;0;
589.8718;0;0;534.1397;4.016749;-19.28328;595.9695;590.558;0.04117016;0.2312595;0;
611.0806;0;0;600.257;12.65388;-16.2498;619.2337;611.8911;-0.3486753;-0.02884223;0;
206.4197;0;0;254.5773;15.4542;-17.63999;218.9999;213.3513;-0.2833576;-0.02881325;0;
192.5317;0;0;238.0172;9.142035;-12.59867;203.9123;201.3929;-0.1531382;0.1661177;0;
17.98837;0;0;85.97932;9.869782;-10.37569;32.48097;30.65122;-0.1529843;0.03601614;0;
-557.7403;0;0;-451.5244;7.448968;-12.9105;-536.0159;-537.2816;0.2369735;0.1659146;0;
-612.9644;0;0;-550.2709;5.833893;-11.491;-592.5112;-592.901;-0.08810134;0.2956826;0;
-252.217;0;0;-245.9956;13.79863;-10.20678;-236.1571;-239.1078;-0.3478822;-0.09441856;0;
-229.9746;0;0;-221.5106;15.59343;-8.187038;-211.9944;-219.0025;0.5620102;-0.159291;0;
-19.2868;0;0;-35.69385;12.42993;-10.52321;-5.822378;-11.94896;0.4964781;-0.159131;0;
584.3042;0;0;528.6208;13.35447;-9.976777;589.1969;584.1384;-0.0237595;-0.2239384;0;
601.3957;0;0;590.9956;12.26932;-5.345052;608.6573;601.1676;0.04123172;-0.02881138;0;
211.4246;0;0;256.1948;11.98955;-4.200972;222.8643;216.5691;-0.3486138;-0.1587171;0;
195.9074;0;0;236.8219;16.06334;1.161762;205.2116;203.1706;-0.1533614;-0.3534597;0;
15.36368;0;0;81.22456;17.11893;3.504875;27.96943;25.86798;0.3665314;-0.4180718;0;
-557.114;0;0;-452.9636;17.90503;2.630698;-537.337;-540.061;0.1062937;0.03711964;0;
-615.0873;0;0;-555.0818;19.82943;3.49871;-596.0798;-597.1769;-0.2836171;0.556821;0;
-249.5902;0;0;-244.3051;14.85301;4.365973;-233.163;-236.5703;-0.2833321;0.4263269;0;
-225.0391;0;0;-216.6983;13.49891;6.170125;-207.0042;-214.656;-0.02317809;0.1660292;0;
-26.91244;0;0;-44.00479;21.65702;-1.003126;-13.45593;-21.72471;0.04181254;-0.09400705;0;
583.4328;0;0;526.5651;23.1755;-1.337033;587.7554;580.6818;-0.1531315;-0.2888146;0;
608.5836;0;0;596.6255;23.15222;-0.3309455;613.7764;605.9604;-0.08801029;-0.3534918;0;
201.8638;0;0;247.7636;26.34413;-2.13903;211.6116;204.6154;0.1719475;-0.2232019;0;
188.9173;0;0;232.1474;16.40468;12.66598;197.281;194.1025;-0.02312729;0.2317938;0;
18.87539;0;0;83.36381;13.97632;16.13625;30.29163;28.05334;-0.08807139;0.03665886;0;
-559.0406;0;0;-458.5726;26.08607;16.38796;-540.0146;-543.0003;0.1069191;-0.353182;0;
-615.1379;0;0;-557.1246;26.99786;20.12242;-598.3174;-599.2386;-0.2829924;0.1669116;0;
-254.2009;0;0;-246.0958;29.85112;7.911672;-241.8327;-243.4401;-0.4126427;0.2317112;0;
-233.081;0;0;-222.5477;31.69616;4.621558;-219.0385;-224.5798;0.172478;-0.223293;0;
-23.51449;0;0;-41.97727;24.63171;8.769734;-12.7345;-19.14483;-0.02259731;-0.3530033;0;
587.9518;0;0;531.0894;22.26244;6.818539;591.0373;584.7584;-0.2174766;-0.2227139;0;
606.7263;0;0;595.5231;23.84766;3.931422;611.3079;603.9733;0.1075786;0.1023466;0;
205.3181;0;0;250.8476;23.4889;1.650174;214.5803;209.0647;-0.02246418;-0.09265832;0;
191.7435;0;0;234.4787;10.60458;3.724865;199.4972;197.1105;-0.02244161;0.03736949;0;
13.203;0;0;76.01012;5.637431;4.056036;24.00983;22.37517;0.2374503;0.3621686;0;
-559.6473;0;0;-460.1093;12.66436;0.3680218;-540.9178;-541.7388;0.04230969;0.1019354;0;
-617.3057;0;0;-558.5972;11.51354;1.037481;-599.5945;-598.728;0.1072345;-0.0930691;0;
-262.0512;0;0;-256.9373;11.03248;-3.585261;-248.4808;-249.739;0.4319635;-0.09297558;0;
-234.8015;0;0;-226.5693;10.15074;-6.327959;-219.7454;-226.4372;0.04172539;-0.1578495;0;
-24.23376;0;0;-42.30913;13.35572;9.552988;-13.19083;-21.37511;0.1066508;-0.02775621;0;
592.2932;0;0;531.0702;14.48138;14.09811;594.7043;587.7152;0.6912497;0.1022064;0;
620.5585;0;0;602.2505;7.902741;5.711318;625.591;617.7343;0.3657184;0.2320384;0;
207.1425;0;0;247.386;7.761078;7.31317;217.6046;211.9422;-0.2843225;0.1668379;0;
189.693;0;0;228.022;0.5859842;4.827453;197.3336;196.2995;-0.4789388;0.1017029;0;
29.83269;0;0;90.98663;-2.428715;3.482944;40.40158;39.30612;-0.02368616;0.2965027;0;
-550.0308;0;0;-448.1463;3.735668;9.239854;-530.6645;-533.4455;0.3011743;-0.1585666;0;
-612.8838;0;0;-552.7682;3.129678;8.627724;-596.0356;-597.1272;-0.1538997;-0.5482113;0;
-242.1415;0;0;-239.2451;8.953682;12.16915;-230.7451;-233.0849;-0.02381034;-0.09288909;0;
-223.2826;0;0;-219.9518;11.55665;13.0277;-209.2739;-216.1091;0.04118092;0.232041;0;
-21.15969;0;0;-44.00661;7.124412;7.187217;-10.03865;-17.17935;-0.2836972;0.2967752;0;
592.6155;0;0;530.0616;7.250975;6.912064;595.7294;589.1581;-0.2184448;0.1665423;0;
614.3214;0;0;597.4323;6.841548;-2.204317;619.4312;611.1798;-0.02332324;0.03644024;0;
215.1545;0;0;257.0653;5.762947;-6.422027;224.3195;217.9505;0.2365696;0.101371;0;
197.5095;0;0;237.6292;6.561439;-0.5211975;204.2916;201.8645;-0.1534722;0.1662364;0;
20.64987;0;0;83.03046;6.889639;-2.128142;31.2357;28.93599;-0.4131874;0.1011021;0;
-543.9621;0;0;-446.2869;-0.08350901;0.2852598;-525.7657;-529.3125;0.1719339;0.2309352;0;
-605.072;0;0;-549.9112;-1.958459;0.8208366;-589.0803;-591.6865;0.04182645;-0.02916626;0;
-254.7648;0;0;-250.3215;1.258689;-0.4526639;-243.4743;-246.4527;-0.02318292;-0.2890063;0;
-224.7113;0;0;-216.7117;0.3194196;1.490296;-211.9329;-218.3441;0.2367097;0.0361208;0;
-21.71244;0;0;-39.08312;8.357051;-8.089517;-13.19478;-19.72443;-0.08836481;0.0360845;0;
584.5671;0;0;526.5469;12.36714;-10.29183;584.8304;579.1194;-0.2831781;-0.2238211;0;
618.0251;0;0;603.3539;2.37438;-1.908861;621.7239;612.8328;-0.4777955;-0.09366155;0;
203.2373;0;0;247.8635;0.9654744;-0.7682335;212.5546;204.4844;-0.08751139;-0.2235021;0;
178.1082;0;0;220.1908;10.14153;0.7061629;185.417;182.2275;0.56225;-0.02837553;0;
26.3179;0;0;88.59805;11.40316;2.313044;36.6179;33.61904;0.3018156;0.2964897;0;
-546.6705;0;0;-446.4721;7.841732;5.927676;-529.0096;-532.88;0.041643;-0.02864493;0;
-620.084;0;0;-561.5279;7.231616;8.466949;-603.8776;-605.5577;0.2365032;-0.09358349;0;
-250.334;0;0;-246.0594;5.549411;5.243383;-238.1419;-241.2571;0.04136352;-0.09348945;0;
-222.284;0;0;-216.2021;3.535079;5.104148;-208.4174;-215.7149;-0.2835147;-0.2882975;0;
-29.09513;0;0;-48.69394;6.344566;5.5679;-19.67778;-26.65558;-0.4131646;-0.4179426;0;
583.7511;0;0;526.6283;8.346947;4.28963;584.9756;578.6295;-0.6726187;-0.2875879;0;
618.959;0;0;605.6217;-4.789607;7.902398;623.4307;614.4048;-0.3471062;0.3623745;0;
214.3527;0;0;257.063;-6.860899;9.635892;223.7548;216.5496;0.3678833;0.297043;0;
193.71;0;0;233.9413;2.322046;-1.42573;200.4166;198.2161;0.3025463;0.1018425;0;
26.53683;0;0;87.02991;3.793581;-4.103493;35.7354;34.34922;-0.02259438;0.1667075;0;
-543.4533;0;0;-445.1026;12.36359;1.661041;-526.268;-528.0276;0.3672324;-0.223264;0;
-609.3114;0;0;-553.0384;16.36965;0.4536787;-593.3927;-593.5889;0.3668634;-0.02813766;0;
-253.94;0;0;-253.508;20.10425;8.156016;-243.0973;-244.4176;-0.4131134;0.23176;0;
-227.448;0;0;-224.83;22.83071;11.42998;-215.3043;-220.1841;-0.4126983;-0.0933096;0;
-26.8202;0;0;-49.25475;25.41974;3.179721;-18.24944;-23.37416;0.04248782;-0.4180526;0;
584.8993;0;0;522.3199;28.20724;3.243509;585.5904;581.033;0.1723798;-0.2227305;0;
618.8567;0;0;600.3806;14.91701;1.498816;621.671;614.7444;0.4970433;0.2972321;0;
199.9451;0;0;239.8958;11.75321;-0.6461443;206.3174;200.2098;0.1067398;0.1669987;0;
177.4429;0;0;215.4169;9.866364;5.784744;181.5599;179.9562;-0.4780735;0.03689625;0;
33.14958;0;0;92.44965;5.101029;6.18083;40.94804;40.09563;-0.02282174;0.2967286;0;
-540.7203;0;0;-441.9997;14.3393;4.700994;-524.6838;-526.4099;0.2370706;0.1015284;0;
-619.3871;0;0;-561.7451;15.1282;5.834981;-603.8665;-604.4665;-0.08800436;0.03645901;0;
-250.7623;0;0;-250.9616;11.7641;-0.2662071;-240.1298;-241.9785;-0.2178506;-0.02854498;0;
-220.9002;0;0;-221.2243;12.82401;-1.605598;-209.8411;-215.3736;0.107205;0.1014184;0;
-28.08753;0;0;-50.83751;10.80139;1.075332;-20.91263;-26.12724;0.04212993;0.3611858;0;
582.946;0;0;523.7373;10.85788;0.6053714;581.743;577.8455;-0.3477165;-0.1589158;0;
618.9669;0;0;604.9824;12.45456;3.685856;619.6391;614.3712;-0.347367;-0.2886908;0;
211.5495;0;0;255.7998;12.84419;4.08405;216.5938;212.8304;-0.152116;-0.02853137;0;
186.0371;0;0;225.058;11.82593;8.768629;189.2023;189.1283;-0.2169305;-0.4183067;0;
23.99404;0;0;81.34154;10.27381;12.57785;32.02857;31.20507;-0.1517452;-0.3529191;0;
-540.7462;0;0;-443.6014;18.30144;2.116114;-524.4114;-526.4835;0.1082767;0.1671743;0;
-616.9768;0;0;-558.2228;21.09609;1.71209;-602.7823;-603.2281;0.04320052;0.4268757;0;
-266.2203;0;0;-262.6852;8.683656;4.925429;-256.5379;-258.6074;0.1081244;0.10161;0;
-228.3467;0;0;-228.3758;6.732547;3.848753;-217.0499;-222.9903;0.1729832;-0.2233288;0;
-30.1543;0;0;-56.67005;9.538822;12.95444;-21.24257;-26.98968;-0.1520274;-0.2231044;0;
574.4471;0;0;511.4139;8.724954;13.94605;576.6033;571.1118;-0.411744;-0.02797819;0;
622.8453;0;0;603.9158;8.917257;16.74532;626.9983;619.0136;-0.2813956;-0.2228521;0;
211.4259;0;0;251.6732;7.6355;18.53691;220.5098;213.4701;-0.3460802;-0.2875955;0;
177.9177;0;0;216.8752;14.99619;6.461721;186.0554;183.1458;-0.4756671;0.2324322;0;
30.81281;0;0;89.47117;16.85616;2.235426;43.25265;41.09556;-0.2802871;0.102264;0;
-543.3671;0;0;-445.1625;12.15115;2.099214;-522.0692;-525.5359;0.3696679;-0.2876428;0;
-631.8388;0;0;-571.0267;12.6748;-0.4482469;-612.8112;-614.5878;0.6291658;0.1024502;0;
-259.0161;0;0;-252.5503;8.040368;-8.284555;-245.4423;-247.9668;0.3686643;0.2972493;0;
-217.8389;0;0;-213.6284;7.026935;-10.28572;-202.4672;-209.0496;-0.0215102;-0.2227881;0;
-31.21366;0;0;-53.05689;6.350289;-13.28949;-19.35567;-25.6191;-0.2163906;-0.8072703;0;
584.4457;0;0;523.5191;5.33953;-15.62054;587.4213;582.8508;-0.02127116;-0.3516878;0;
627.3367;0;0;609.3247;10.96024;-0.7350028;632.4956;625.2435;-0.08621713;0.103437;0;
207.1047;0;0;248.7684;12.75789;3.083641;217.131;210.1986;-0.4109672;0.2332678;0;
184.4079;0;0;225.2801;14.15159;6.094774;191.6755;189.5602;-0.540489;0.168066;0;
28.61334;0;0;92.37042;16.01241;10.24147;38.87215;37.94582;-0.1501418;-0.1569396;0;
-545.7517;0;0;-441.5166;17.87233;6.949138;-527.5073;-529.682;0.3047805;0.03812016;0;
-620.9778;0;0;-558.0142;18.72503;7.812933;-603.8136;-605.1116;0.1095722;-0.0268855;0;
-265.907;0;0;-259.7906;20.98339;7.135253;-252.9454;-255.3041;-0.280342;-0.02685849;0;
-233.7808;0;0;-228.5451;21.76658;8.400638;-219.8328;-225.3125;-0.2150929;0.5578746;0;
-33.64637;0;0;-54.09055;14.77849;0.08655718;-23.64789;-29.05966;-0.1499095;0.2324773;0;
580.0165;0;0;518.426;11.68218;-1.119223;582.009;576.3527;-0.2147262;-0.1575603;0;
624.4736;0;0;604.2368;15.55521;3.101705;628.3381;620.6261;0.3701957;0.1024674;0;
210.6163;0;0;251.2442;16.07544;2.495864;219.8492;214.144;0.239889;0.2322991;0;
181.6691;0;0;222.8809;4.070198;18.30084;189.331;187.692;-0.3450581;-0.1577384;0;
29.18812;0;0;88.59933;0.7835783;23.23907;38.90382;37.01653;-0.08484204;-0.2225472;0;
-541.8667;0;0;-444.3469;9.423955;24.28744;-525.1018;-527.4869;-0.01978945;0.1025131;0;
-627.7163;0;0;-568.1504;10.61994;28.61681;-612.7173;-612.4139;-0.2796389;-0.287394;0;
-268.7032;0;0;-262.6703;10.74299;21.15319;-258.4045;-258.6636;-0.2143906;-0.4170399;0;
-227.1414;0;0;-220.365;11.6702;20.46211;-214.4793;-219.4858;-0.3441099;0.1680853;0;
-33.3855;0;0;-55.60128;15.20844;17.69537;-24.67158;-31.42214;-0.2138294;-0.02698567;0;
578.3406;0;0;511.8569;14.92474;14.73034;576.9258;571.369;-0.08367988;0.0380088;0;
628.359;0;0;604.5457;20.00094;14.78252;628.32;622.7687;-0.2135305;0.4277747;0;
212.9361;0;0;250.0536;22.05694;11.68657;218.6443;215.0976;0.1115208;0.1674755;0;
183.237;0;0;218.4432;7.566468;13.2823;186.8155;187.2078;0.2413434;-0.1575295;0;
38.06327;0;0;91.47488;5.080619;11.32657;44.07441;43.71676;0.1111662;-0.02743657;0;
-531.4387;0;0;-438.0384;-3.833094;11.91804;-517.1253;-519.6065;0.3059565;0.2974277;0;
-621.7966;0;0;-565.7214;-10.5944;12.17399;-608.497;-608.8518;0.04577975;0.2971289;0;
-266.1003;0;0;-266.8654;3.348698;3.186169;-257.1244;-258.7907;-0.279103;-0.09297376;0;
-228.789;0;0;-229.9282;4.014919;1.642482;-218.3229;-223.9855;-0.5386919;-0.2877824;0;
-34.09435;0;0;-58.15835;3.676092;-1.842281;-27.38691;-32.91887;-0.4082159;-0.2225258;0;
579.8813;0;0;515.5493;7.021301;-4.050744;578.5861;573.0596;0.2418677;-0.2872696;0;
628.7113;0;0;607.5472;1.856682;0.7089921;629.4163;622.2713;0.04672262;-0.286981;0;
217.2861;0;0;259.1116;3.730826;0.03845039;223.0503;217.7865;-0.2131937;-0.4815946;0;
187.5826;0;0;228.6789;2.588002;11.49225;191.2171;189.6442;-0.01807745;-0.351176;0;
32.40947;0;0;90.26857;1.513674;16.9062;39.10132;37.21769;0.1768427;-0.0909538;0;
-537.2742;0;0;-442.6168;14.90874;7.645687;-521.906;-524.5374;0.1766651;0.03907229;0;
-623.8781;0;0;-568.7335;17.77415;9.513527;-610.3994;-609.9671;-0.2133165;0.3638697;0;
-267.6175;0;0;-269.5621;20.56933;5.686062;-259.4621;-259.2177;-0.2131022;0.1036348;0;
-223.9329;0;0;-226.0005;25.77357;3.134998;-213.4119;-217.4781;-0.08295336;-0.2862734;0;
-34.55298;0;0;-56.23363;9.002186;16.39422;-25.66673;-30.72831;-0.08287001;-0.1560511;0;
571.0524;0;0;515.2231;4.973676;18.4541;574.0576;569.5634;0.04714794;-0.02595962;0;
625.7632;0;0;613.8431;16.35553;15.48843;631.764;625.6501;0.1120679;0.1689685;0;
210.218;0;0;254.2193;14.93258;16.54459;220.2108;214.9775;-0.1479141;0.2987334;0;
175.2118;0;0;215.4832;17.06103;13.84865;180.8841;180.0914;-0.2777001;0.1684985;0;
36.293;0;0;94.88969;17.04389;14.03569;42.77172;42.22968;-0.01755173;-0.1565075;0;
-531.8954;0;0;-436.2512;12.00292;10.27066;-517.6771;-520.3425;0.5022047;-0.4811869;0;
-629.1868;0;0;-571.3698;11.32127;9.121632;-615.1077;-616.5211;0.7615693;-0.09089938;0;
-262.1762;0;0;-258.8899;1.664354;11.59083;-252.4841;-254.7706;0.5659021;0.3639634;0;
-216.8104;0;0;-213.4025;-2.489528;10.97634;-206.8782;-213.0979;0.3054641;0.03876094;0;
-34.99637;0;0;-55.14252;0.124942;17.52952;-28.82219;-35.22309;0.1102552;0.233624;0;
571.9213;0;0;509.4416;-2.085986;19.7892;570.0933;565.5104;-0.01979027;0.6231933;0;
624.6323;0;0;601.883;0.7964978;17.62599;624.9301;619.2274;0.240099;0.1677957;0;
210.3376;0;0;247.9558;1.934773;18.41195;216.2572;210.8726;-0.08497898;0.1026598;0;
175.831;0;0;211.7872;-0.1432756;18.92931;179.9955;177.8647;-0.6046323;0.4273933;0;
35.7871;0;0;90.19794;1.12869;19.71409;42.57117;41.37949;0.04564863;0.1670945;0;
-524.5297;0;0;-428.1947;1.798117;14.87163;-510.0064;-511.5717;0.5653415;0.03699196;0;
-621.891;0;0;-560.9474;3.20283;13.24909;-608.1943;-608.1339;0.110002;-0.02801257;0;
-268.8807;0;0;-263.9078;2.194258;15.58018;-259.4457;-259.9475;0.3047935;-0.5477231;0;
-226.5067;0;0;-223.3504;0.5180897;14.42582;-215.0197;-219.3316;0.6942914;-0.3522708;0;
-39.1232;0;0;-59.45826;16.12398;16.0859;-31.33335;-35.57846;0.3037896;0.2977566;0;
571.3593;0;0;511.3146;22.26972;15.39991;570.3332;567.7791;-0.08631965;-0.02737929;0;
631.942;0;0;611.1254;5.435484;16.05426;632.791;628.4902;-0.1512002;-0.3521885;0;
221.1381;0;0;258.1884;5.631093;16.84192;226.5465;223.0622;0.1737884;-0.09196524;0;
193.0549;0;0;229.5058;4.352637;8.586223;197.146;197.5383;0.3035484;0.03806187;0;
55.61743;0;0;113.2085;1.401503;6.501247;63.32761;64.03178;0.04337407;0.03802362;0;
-525.1465;0;0;-424.8848;17.27395;5.824885;-510.1353;-509.9316;0.04333048;-0.221884;0;
-635.6256;0;0;-574.2576;19.60112;3.273681;-621.9412;-619.4889;0.3031563;-0.221661;0;
-268.796;0;0;-266.7723;22.86395;8.896835;-258.7486;-257.3606;0.172917;0.03843109;0;
-223.9233;0;0;-219.4654;27.19426;9.423759;-211.6996;-215.0607;-0.2170608;-0.09154222;0;
-50.0356;0;0;-64.01043;13.97142;6.601129;-40.26045;-44.68009;-0.5416794;0.1034518;0;
572.077;0;0;516.0748;11.34541;6.192599;573.8463;569.9309;-0.4761678;0.2982499;0;
642.9662;0;0;624.2516;15.55357;6.052411;646.2955;639.9478;0.04404943;-0.2867559;0;
225.5297;0;0;264.5549;14.73464;5.644432;233.7906;228.1989;0.1739399;-0.2215004;0;
194.3811;0;0;229.3066;8.356818;2.356596;200.0101;198.9217;-0.1510716;0.03859153;0;
49.25865;0;0;103.7018;5.266962;1.416589;57.25578;56.73066;0.2388842;-0.2213166;0;
-522.7534;0;0;-424.5745;11.42361;-0.3263904;-506.3935;-508.2924;0.6284482;-0.6108983;0;
-617.8051;0;0;-557.5183;11.01097;-0.8619258;-603.0858;-603.2961;-0.02185665;-0.4803498;0;
-268.7969;0;0;-266.0418;12.60652;0.9474794;-259.5896;-260.7993;-0.08680204;0.104839;0;
-233.7943;0;0;-231.1669;14.06772;2.687962;-223.097;-228.6158;0.5629586;0.169701;0;
-40.03161;0;0;-62.08201;6.216703;0.9438265;-32.9683;-39.10619;-0.2172152;-0.2202736;0;
576.3238;0;0;512.3167;4.067003;0.8089122;575.2591;568.3777;-0.8666703;-0.0901176;0;
638.3383;0;0;614.0005;7.144375;12.46276;640.0233;629.838;-0.2161261;0.104875;0;
230.1517;0;0;266.8078;6.533984;15.19654;236.1453;227.9068;-0.08597422;0.03980226;0;
185.8801;0;0;226.4349;5.523041;18.26237;189.244;186.0113;-0.2158225;-0.1551398;0;
