Fp1;Fp2;O1;O2;POLY3;POLY4;A1;A2;Video;Audio;event;
201.8124;0;0;0;-4.485286;-20.51796;198.9972;204.5609;0.1326633;0.004807577;0;12:40:29 Рука;
-157.4599;0;0;0;-7.762333;-17.55022;-154.0254;-149.7791;-0.06237201;0.4595742;0;
-653.6147;0;0;0;-9.830639;-14.65232;-644.9988;-640.0696;-0.1272767;0.5240797;0;
-478.1083;0;0;0;-19.73472;-15.30742;-474.561;-467.8877;-0.1921161;-0.1261203;0;
-205.2648;0;0;0;-24.20189;-14.35428;-204.1573;-201.3013;0.1329136;-0.06102625;0;
-228.7341;0;0;0;-7.097296;-4.091713;-226.8157;-227.2734;0.4576168;0.2638718;0;
174.4182;0;0;0;-4.076054;0.1991843;170.2752;170.8175;0.0673529;-0.06123007;0;
677.365;0;0;0;-2.063203;-5.628409;668.3537;668.1458;-0.06264946;-0.06116854;0;
457.6695;0;0;0;2.159405;-5.488788;453.2274;450.3961;0.3921849;0.2637296;0;
168.6671;0;0;0;-4.273126;-1.933299;166.6033;166.3985;0.3917908;-0.1913068;0;
208.4151;0;0;0;-3.599247;-1.663425;204.5418;208.8974;-0.06337425;-0.2560819;0;
-155.9238;0;0;0;-7.547746;-3.470293;-153.9212;-149.5699;-0.2582126;0.2639142;0;
-657.1401;0;0;0;-9.214125;-4.06953;-649.9546;-644.8581;-0.1929858;0.06874698;0;
-482.6297;0;0;0;-7.597276;-6.007946;-480.9486;-474.1082;0.1320448;0.003710541;0;
-197.2879;0;0;0;-8.059133;-7.609499;-198.3572;-194.5845;0.1968795;-0.06126053;0;
-229.8857;0;0;0;-3.764127;-6.396161;-228.0179;-228.247;-0.06318771;-0.3860357;0;
165.2718;0;0;0;-0.947306;-7.126546;162.1403;161.4741;0.06681047;0.004156258;0;
692.2158;0;0;0;-2.755015;-8.659992;683.1529;681.6128;-0.06319135;0.1340868;0;
471.0685;0;0;0;-2.081686;-9.722896;466.3251;463.2248;0.1317742;0.06898471;0;
163.3746;0;0;0;3.948626;-7.636777;160.51;160.8486;0.5214458;-0.1259867;0;
212.3732;0;0;0;2.805582;-6.155479;207.9498;211.7863;-0.06378421;-0.3207621;0;
-145.8477;0;0;0;7.290742;-12.84747;-142.6455;-139.9373;-0.1286875;0.06936429;0;
-647.3865;0;0;0;3.934513;-13.16947;-638.5029;-635.61;0.06634387;-0.06064011;0;
-477.5085;0;0;0;6.275084;-9.070279;-474.0062;-469.0547;-0.5833962;0.004388163;0;
-203.2913;0;0;0;8.948096;-7.788612;-201.9789;-200.4057;-0.387908;0.1992858;0;
-224.9511;0;0;0;-36.80938;-1.88641;-221.7659;-224.1298;0.3920899;0.1341182;0;
171.8256;0;0;0;-49.63312;1.397649;168.5109;167.836;0.3267286;0.06901611;0;
677.7111;0;0;0;-41.07678;4.678287;668.7775;667.9159;-0.06340378;-0.06098794;0;
461.8258;0;0;0;-48.67132;7.754679;457.149;454.6641;0.06659461;0.06900804;0;
165.2606;0;0;0;-29.26496;9.086545;161.3382;162.7288;0.131495;0.133906;0;
204.5122;0;0;0;-24.81492;10.21613;198.8446;203.2323;-0.1934738;-0.1260979;0;
-155.5749;0;0;0;-19.56507;10.07189;-153.5531;-150.0444;0.1315573;-0.06100385;0;
-652.7311;0;0;0;-10.36839;9.05703;-644.7144;-640.7094;0.4562618;0.004024793;0;
-478.0377;0;0;0;-20.473;7.976202;-473.8397;-469.7137;0.4558034;0.004020749;0;
-195.699;0;0;0;-17.83949;6.762495;-193.1919;-192.8807;0.1305087;-0.06095063;0;
-223.9881;0;0;0;-14.80745;-0.210281;-220.7338;-223.234;-0.2594265;0.004077952;0;
169.227;0;0;0;-15.8643;-2.487489;166.0437;165.0452;-0.1292312;0.2639432;0;
686.8591;0;0;0;-3.524475;-5.231168;678.994;677.934;0.06580073;0.1987107;0;
458.7208;0;0;0;-0.9079889;-6.699536;457.0479;453.6152;0.1307019;0.003608978;0;
145.4171;0;0;0;-6.399433;-4.616334;145.9948;145.1892;0.1305706;0.06857271;0;
199.8686;0;0;0;-5.254903;-4.94661;197.1973;201.3275;0.0005047383;0.1334711;0;
-153.3423;0;0;0;-15.29633;3.83288;-149.7016;-146.0752;0.5852103;-0.256467;0;
-655.1234;0;0;0;-19.03201;6.173432;-646.4889;-643.116;1.234296;-0.386144;0;
-471.2448;0;0;0;-11.98028;9.44927;-468.7408;-464.2469;0.4534474;-0.190854;0;
-194.0978;0;0;0;-12.77155;12.45389;-192.9707;-192.042;-0.5864857;-0.2556296;0;
-228.6353;0;0;0;-12.08914;3.800818;-225.9476;-227.5811;-0.5209291;-0.32034;0;
169.8317;0;0;0;-11.80857;2.055443;164.2084;164.5756;-0.4554383;-0.1900835;0;
676.8436;0;0;0;-12.53364;0.4459088;665.9786;665.4084;-0.3900133;0.1349442;0;
454.9622;0;0;0;-12.85584;-1.697993;449.9802;447.5364;0.1950846;0.199776;0;
161.5898;0;0;0;-10.56574;-3.37086;158.9866;160.2309;-1.341565E-05;0.1346079;0;
203.1565;0;0;0;-8.813813;-3.970197;198.3694;202.6735;-0.2598828;0.4593094;0;
-156.3046;0;0;0;-18.78529;-6.042679;-154.4651;-151.5397;-0.06471961;0.3938805;0;
-645.6514;0;0;0;-21.37839;-6.505488;-637.5046;-634.2697;-0.1296219;0.26355;0;
-472.277;0;0;0;-16.60148;2.275569;-469.2607;-464.4049;-0.06452434;0.1983179;0;
-198.5648;0;0;0;-18.32611;5.287514;-198.0503;-195.7606;-0.1294268;-0.06175076;0;
-227.6006;0;0;0;-9.399091;9.033124;-225.275;-226.1735;-0.3241988;0.003278629;0;
165.6805;0;0;0;-5.237437;12.57402;161.4446;161.3591;-0.2589057;0.2631447;0;
686.6271;0;0;0;-18.8962;11.69061;677.9601;677.6248;-0.5185149;-0.06195642;0;
467.6719;0;0;0;-20.41746;12.75059;464.7607;461.927;-0.1281899;-0.4516982;0;
156.0459;0;0;0;-14.77086;12.60381;154.2621;154.867;0.261743;0.1334617;0;
206.4886;0;0;0;-15.02347;12.12227;202.3328;206.9352;-0.3881935;0.5880991;0;
-144.9173;0;0;0;-9.113873;9.765804;-142.4473;-140.1609;-0.2578687;0.2626714;0;
-653.2661;0;0;0;-5.889534;8.215384;-645.1763;-643.392;0.2621291;0.1974401;0;
-481.7581;0;0;0;-10.57267;4.389224;-477.6745;-473.9554;0.1968984;-0.06262764;0;
-195.4801;0;0;0;-9.222872;1.504548;-193.2747;-191.5584;0.1317332;-0.4523688;0;
-225.8309;0;0;0;-7.070151;2.708729;-221.8161;-222.7252;-0.06330117;-0.3219796;0;
164.2001;0;0;0;-6.392486;0.6966411;161.5892;160.9309;-0.2581396;0.1980827;0;
681.1502;0;0;0;1.048677;1.834529;671.8578;670.2006;-0.1279455;0.06794902;0;
465.7612;0;0;0;3.860663;1.69872;460.4761;457.1964;0.3269544;-0.3219233;0;
162.9452;0;0;0;1.311188;-2.52279;160.0392;159.8238;-0.1281455;-0.1266978;0;
204.3855;0;0;0;1.37722;-2.989136;199.2961;202.0794;-0.4528534;-0.06160318;0;
-153.9523;0;0;0;5.529021;-6.40214;-152.9772;-151.6335;0.3272097;0.1333608;0;
-650.1732;0;0;0;6.795288;-7.534417;-642.9521;-640.4853;0.1969462;0.5879982;0;
-473.9206;0;0;0;-0.9137235;-5.182443;-471.1421;-466.6163;-0.2580231;0.327538;0;
-197.4581;0;0;0;-3.056259;-5.244219;-197.3686;-195.7209;-0.1278291;0.06733948;0;
-225.3081;0;0;0;-2.316254;0.05258022;-222.7199;-224.4472;-0.1277007;0.3271412;0;
175.7168;0;0;0;-4.257286;2.66474;172.7427;171.6418;-0.1275724;0.4567471;0;
688.9072;0;0;0;-1.974856;0.920628;681.001;679.5265;-0.06247683;-0.06345054;0;
464.39;0;0;0;-1.437009;2.527171;461.1769;458.1422;0.1974553;-0.1283541;0;
161.0131;0;0;0;-6.459406;4.266188;159.1151;159.4567;0.587061;0.2615789;0;
207.9527;0;0;0;-7.725714;6.137424;205.4944;208.5842;0.2616344;0.001446698;0;
-146.5782;0;0;0;-1.957175;5.05953;-142.1625;-140.3876;-0.06346523;-0.3883588;0;
-650.7399;0;0;0;-0.4149667;5.523326;-641.7684;-639.3706;0.1964679;-0.1930666;0;
-477.6103;0;0;0;-3.562382;10.27344;-472.7707;-469.001;0.06633581;-0.06293788;0;
-191.0242;0;0;0;-3.157637;11.60266;-187.4388;-186.6089;-0.1286329;-0.127842;0;
-225.8146;0;0;0;-2.684973;13.60049;-220.5462;-222.0285;0.1313657;0.002221159;0;
162.1549;0;0;0;-3.151766;14.99346;161.5459;161.0646;0.1962011;0.06718628;0;
680.7936;0;0;0;0.870865;12.63399;675.0629;674.0823;0.06606927;-0.2577179;0;
465.1552;0;0;0;1.807995;11.28176;464.1777;461.2616;-0.0639318;0.1323451;0;
165.0259;0;0;0;-0.806766;12.60996;166.0484;164.7595;-0.1938022;0.5869835;0;
208.3382;0;0;0;-0.6048846;10.78888;207.4857;209.259;-0.1286402;0.3265243;0;
-146.5678;0;0;0;-3.953179;8.634581;-142.0472;-139.7135;-0.1285109;-0.06360784;0;
-643.858;0;0;0;-5.355727;7.15228;-634.6568;-631.4509;-0.06341444;-0.1285113;0;
-478.169;0;0;0;-2.872099;-1.763392;-472.3503;-468.0857;-0.1283181;0.06651989;0;
-200.8902;0;0;0;-3.002935;-4.976679;-197.0139;-195.8769;-0.2581238;0.4562571;0;
-225.6758;0;0;0;-0.9238126;-7.98591;-221.9283;-223.9159;0.06697226;0.520766;0;
167.5409;0;0;0;1.019499;-11.32691;163.7884;163.302;0.001937624;-0.06446336;0;
683.3632;0;0;0;-4.741326;-6.358914;674.1797;673.5064;-0.4528357;-0.1943333;0;
466.91;0;0;0;-6.411501;-6.955371;463.2954;460.6863;-0.2574787;0.1956661;0;
161.2193;0;0;0;2.569922;-1.723836;160.2945;160.1867;-0.1272853;0.3903715;0;
208.9082;0;0;0;3.505345;1.559938;206.0479;208.6888;-0.3220594;0.0001751688;0;
-142.9999;0;0;0;4.57355;-7.350116;-139.9854;-138.409;-0.3217358;-0.5195637;0;
-654.9738;0;0;0;7.31562;-8.01256;-646.8398;-644.5779;-0.1265105;-0.2591723;0;
-486.2126;0;0;0;-4.548075;-6.530884;-482.4597;-477.6389;-0.06141603;-0.1289772;0;
-192.8088;0;0;0;-6.820681;-8.064929;-190.9337;-188.8039;-0.06135432;-0.3237496;0;
-223.7245;0;0;0;-2.393198;-2.832279;-220.6019;-222.5971;0.003674668;-0.1285223;0;
166.3044;0;0;0;-3.395171;-2.025638;161.9276;160.809;-0.191231;0.06650887;0;
693.4972;0;0;0;2.90488;-5.171678;684.0024;682.3227;0.003863126;0.4562461;0;
475.7845;0;0;0;5.715;-4.295703;472.3587;468.6816;0.328696;0.3908203;0;
161.7765;0;0;0;1.488723;-10.72163;160.603;160.6778;0.198431;0.0655909;0;
205.0296;0;0;0;1.554576;-12.78732;202.0457;205.806;0.2631989;0.1304923;0;
-145.8751;0;0;0;5.772573;-5.607424;-142.4842;-139.8521;0.6527385;0.1303612;0;
-648.9131;0;0;0;5.164536;-4.329114;-640.5281;-637.149;0.522148;0.0002955347;0;
-482.5944;0;0;0;9.84742;-3.789022;-478.0284;-473.5283;-0.06308275;-0.06467211;0;
-200.7509;0;0;0;11.57981;-1.775727;-197.5013;-197.0037;0.19685;0.4551316;0;
-225.9739;0;0;0;-1.292545;-2.644721;-221.6656;-223.9796;0.1316849;-9.709783E-05;0;
167.4306;0;0;0;-3.903215;-2.508098;164.8629;164.2379;-0.3881862;-0.6497704;0;
682.6907;0;0;0;-4.301435;1.982157;674.1912;673.1295;-0.1279268;-0.06441145;0;
471.7355;0;0;0;-5.167768;2.382063;466.8676;463.808;0.002136454;0.1955227;0;
170.6626;0;0;0;-0.6745973;3.719328;166.5492;166.3038;-0.257735;0.0004241509;0;
204.9737;0;0;0;4.483644;5.122232;198.9905;201.9937;-0.1925087;0.06539108;0;
-149.9289;0;0;0;-2.755506;-2.317898;-149.1596;-146.9715;0.1325214;0.1952601;0;
-647.2158;0;0;0;-3.354973;-2.583501;-641.0124;-637.8895;0.4572249;0.0001618212;0;
-478.7747;0;0;0;28.46444;-8.810196;-477.2628;-472.8311;0.06696147;-0.1947404;0;
-192.7497;0;0;0;36.87495;-12.88718;-191.8639;-191.1849;-0.06304049;0.130292;0;
-223.2281;0;0;0;38.84763;2.866392;-219.5321;-221.9772;0.3917942;0.0002264166;0;
160.5534;0;0;0;45.77482;5.140932;157.3116;156.0559;0.4563679;-0.2596432;0;
681.9424;0;0;0;29.65293;2.791363;673.0817;671.1401;0.585844;0.1304218;0;
470.2383;0;0;0;25.60464;3.927269;466.0716;462.5703;0.910092;0.0003560314;0;
162.6077;0;0;0;25.64529;1.244127;161.1938;159.8824;0.06460217;-0.1945464;0;
209.5456;0;0;0;21.33261;0.4390819;206.6339;208.5097;-0.3252668;0.1304858;0;
-142.6755;0;0;0;13.74271;-2.106711;-140.3369;-137.6509;0.1298314;0.2602894;0;
-650.7142;0;0;0;9.308276;-2.439508;-642.9432;-639.3229;-0.2601031;0.1950605;0;
-482.5196;0;0;0;6.284813;-13.489;-478.7543;-474.2631;-0.5846784;0.2598319;0;
-197.6152;0;0;0;1.924241;-18.43206;-195.6029;-193.9897;-0.1293195;-0.06526592;0;
-223.2787;0;0;0;16.99383;-6.9597;-218.6446;-220.6563;0.1306798;0.06473436;0;
170.8102;0;0;0;22.06697;-6.751758;169.1302;167.308;-0.2592556;0.194604;0;
683.5682;0;0;0;11.19381;-3.529915;675.9554;673.1981;-0.3889298;-0.1953956;0;
464.4287;0;0;0;12.58908;-0.6461024;462.3833;457.2548;0.2611344;-0.1302319;0;
165.2997;0;0;0;15.12203;-7.812505;166.0049;163.9426;0.06597002;0.1947356;0;
207.7372;0;0;0;15.17321;-8.675433;206.4427;209.0676;-0.1939656;0.1295726;0;
-151.2287;0;0;0;22.05781;-5.78645;-146.8373;-144.4649;0.325968;0.0644751;0;
-648.1395;0;0;0;23.2411;-5.780635;-639.1297;-636.9471;-0.1291309;-0.06552438;0;
-474.1378;0;0;0;24.75798;-8.922903;-470.1971;-466.8922;-0.3239032;-0.4552626;0;
-189.929;0;0;0;27.14498;-9.583767;-188.0537;-186.7512;0.2611283;-0.4548051;0;
-219.9105;0;0;0;16.33309;-10.17698;-215.1635;-217.1107;0.260866;-0.0645441;0;
164.18;0;0;0;14.24057;-10.7696;162.4255;160.7301;0.1956365;0.0004880934;0;
684.8782;0;0;0;16.30237;-8.682433;676.129;674.6852;0.06550523;-0.1944144;0;
474.0457;0;0;0;14.74574;-8.271811;469.9904;467.1113;-0.3243646;-0.3891211;0;
159.3523;0;0;0;19.68742;-4.445473;157.7373;157.7972;-0.2590714;-0.1288607;0;
201.9207;0;0;0;20.73937;-1.560862;198.8081;202.6785;-0.2588111;0.1311381;0;
-139.4232;0;0;0;18.30763;-6.716857;-135.911;-132.8566;-0.1286163;-0.128863;0;
-642.4677;0;0;0;16.94909;-6.50916;-633.3369;-630.8477;0.1963496;0.001201136;0;
-479.5912;0;0;0;24.3668;-3.153594;-474.405;-470.9814;0.131185;0.1311346;0;
-193.128;0;0;0;25.9499;-3.820133;-189.6962;-189.4619;0.3259552;0.001068164;0;
-223.1063;0;0;0;18.02057;2.948738;-218.1787;-221.8177;0.390595;0.06603445;0;
163.4862;0;0;0;18.20354;4.084485;161.9121;158.7765;0.06536584;0.1309354;0;
682.9982;0;0;0;7.199558;-0.8092516;676.0534;671.8589;0.0003328158;0.1308039;0;
469.6688;0;0;0;3.106487;-1.746199;467.2287;460.5398;0.1302672;0.0007377425;0;
163.4755;0;0;0;9.131586;-6.299162;162.912;159.2907;0.2600709;-0.06423034;0;
198.9808;0;0;0;6.309371;-7.498526;197.1685;197.4239;0.06490761;-0.1291331;0;
-151.4181;0;0;0;21.84307;-15.46172;-146.9818;-147.4137;-0.0001249516;-0.4538401;0;
-640.2701;0;0;0;27.58092;-18.66136;-630.8408;-631.0225;0.3896792;-0.1935147;0;
-477.8331;0;0;0;15.16198;-11.81047;-473.2233;-472.1554;0.1294183;-0.06338558;0;
-201.1168;0;0;0;17.08913;-11.19576;-199.1978;-200.3799;-0.3254831;-0.1282892;0;
-224.8402;0;0;0;11.91439;-4.955219;-220.0496;-224.3539;0.06464797;0.001774355;0;
161.754;0;0;0;10.09376;-1.199318;160.7302;157.4298;-0.0003843293;0.06673993;0;
685.5156;0;0;0;18.79115;-1.265095;677.6838;675.511;-0.58509;0.3265422;0;
477.9933;0;0;0;19.17441;0.8126466;473.7925;470.9973;-0.5195348;0.0013774;0;
158.9231;0;0;0;26.18872;3.892923;156.6006;156.4944;-0.1292087;-0.3234607;0;
204.4904;0;0;0;29.24289;5.161687;200.9209;204.3755;0.1307905;0.1316357;0;
-132.2959;0;0;0;22.24728;3.883825;-129.8023;-126.1638;-0.1941776;0.5213075;0;
-643.7183;0;0;0;20.14882;4.683718;-635.9174;-631.9703;-0.3239172;0.2609143;0;
-482.8395;0;0;0;22.00459;-4.229475;-478.8571;-474.1018;0.196147;-0.1291519;0;
-189.9388;0;0;0;18.69995;-7.976269;-187.6471;-186.1449;0.2609172;-0.1939895;0;
-220.9823;0;0;0;18.34636;-1.270083;-217.3185;-219.0662;-0.2590836;-0.3237292;0;
164.6086;0;0;0;18.79644;-1.938636;161.3346;160.5257;-0.1288886;-0.1934693;0;
688.3048;0;0;0;-7.813569;-2.539535;678.7249;677.0422;0.0661429;0.1965292;0;
474.2205;0;0;0;-17.45126;-2.47;469.2728;465.343;-0.06385824;0.1313644;0;
168.0226;0;0;0;-2.028383;-2.802433;164.8916;164.7762;-0.1287614;0.06626505;0;
209.208;0;0;0;-3.901379;-1.593924;203.5813;207.2142;-0.1935994;-0.1287036;0;
-145.1991;0;0;0;0.5905199;-5.410228;-144.4484;-141.6312;0.1963992;-0.258509;0;
-642.9905;0;0;0;4.006178;-5.069877;-635.7437;-633.1168;0.3261365;-0.06334716;0;
-480.1759;0;0;0;-4.906456;-3.926073;-476.747;-473.9353;0.0009721274;0.06665119;0;
-202.7076;0;0;0;-5.437389;-3.721179;-201.4686;-201.2834;0.2608405;0.001616861;0;
-230.8647;0;0;0;1.801743;1.64095;-227.8778;-230.4414;0.3905131;-0.3232215;0;
154.1114;0;0;0;4.47925;2.309131;150.7235;149.0995;0.3901207;-0.1279947;0;
687.7507;0;0;0;-2.826268;9.406879;678.3693;676.5594;0.3897287;0.3918727;0;
488.9717;0;0;0;-3.627712;12.14361;484.847;480.8527;-0.2603363;0.2615443;0;
170.0155;0;0;0;3.342159;5.165423;168.3312;167.2769;-0.1951074;0.1313468;0;
214.947;0;0;0;5.281183;4.557386;210.2659;212.3985;-0.06497664;0.2611495;0;
-127.2846;0;0;0;5.209504;-0.7387227;-126.5886;-125.2702;-0.4547154;0.3258544;0;
-643.8969;0;0;0;7.146653;-3.216349;-637.3921;-635.2005;-0.1943891;0.2605596;0;
-483.8925;0;0;0;9.550369;-6.763091;-480.955;-478.0159;0.2605776;0.1953305;0;
-188.4296;0;0;0;11.41678;-10.23929;-187.2441;-186.9942;0.3902504;-0.1946698;0;
-218.2252;0;0;0;13.94993;-4.066689;-216.2288;-217.5408;0.324891;-0.3893763;0;
161.9906;0;0;0;15.34243;-3.727688;156.4887;156.4274;-0.0002721919;0.06578639;0;
686.9388;0;0;0;16.39874;-3.857908;675.7579;673.9475;-0.06523926;-0.1291818;0;
472.6685;0;0;0;16.24854;-2.648461;467.6831;463.001;0.1297283;-0.4538887;0;
163.2863;0;0;0;18.24195;-4.253269;160.9921;160.1253;0.06463063;-0.1935632;0;
211.8477;0;0;0;18.0899;-4.048046;206.9322;209.7519;-0.1303363;-0.06343404;0;
-139.8135;0;0;0;13.04788;-5.115705;-138.1024;-136.5974;0.1946313;0.001597035;0;
-644.6691;0;0;0;11.29346;-6.517207;-636.9003;-634.6472;0.5842398;0.06656279;0;
-486.9128;0;0;0;6.459338;-5.037034;-483.0249;-479.3997;0.4537181;-0.2583408;0;
-206.1895;0;0;0;3.639809;-6.438614;-204.7417;-204.1811;-0.1314439;-0.2580812;0;
-226.0972;0;0;0;3.970944;-9.044357;-224.3385;-226.8395;-0.3911812;0.06701481;0;
163.6217;0;0;0;2.761505;-11.31269;159.3192;157.7577;0.06398327;-0.06298723;0;
686.5069;0;0;0;4.097901;-15.52112;677.4611;675.5264;0.06391898;-0.1278913;0;
476.2974;0;0;0;4.495925;-18.31881;472.0083;468.139;-0.1310473;-0.06279543;0;
166.0995;0;0;0;5.027271;-23.52495;164.5008;162.572;-0.2608503;-0.2576344;0;
211.7846;0;0;0;4.887522;-26.51542;207.5638;209.0727;-0.3255555;-0.1924081;0;
-135.0665;0;0;0;11.38032;-28.09631;-133.7233;-131.7787;0.4543797;-0.06228013;0;
-644.6121;0;0;0;13.77978;-29.60869;-636.3987;-633.4565;0.3239885;-0.1921522;0;
-489.0422;0;0;0;9.74745;-27.56951;-485.3349;-480.7715;-0.3909779;-0.3218938;0;
-197.6971;0;0;0;11.88111;-26.20215;-196.742;-194.557;-0.0007809394;0.003266307;0;
-219.4249;0;0;0;1.285624;-26.04185;-216.3469;-217.5998;0.4539912;0.003263025;0;
159.1679;0;0;0;-1.997222;-24.80999;155.1214;153.9322;0.1286983;-0.1916423;0;
683.7442;0;0;0;9.32429;-18.22098;673.8297;671.5173;-0.1313003;-0.2564171;0;
479.3471;0;0;0;9.449619;-15.72431;474.6899;470.6306;-0.1311684;0.003709958;0;
166.7098;0;0;0;19.55418;-13.49807;163.5566;163.5619;-0.1310366;0.3285429;0;
213.8935;0;0;0;26.49978;-11.20721;208.8694;213.185;0.1939318;-0.1265586;0;
-129.5239;0;0;0;9.3265;-16.01859;-127.2966;-124.7969;0.3886389;-0.4512681;0;
-639.3874;0;0;0;7.976982;-17.34216;-630.7281;-628.7307;0.3232811;-0.2559127;0;
-482.511;0;0;0;18.15037;-16.11904;-478.1707;-473.5516;0.1930216;-0.2556555;0;
-198.2937;0;0;0;17.79734;-16.90664;-195.707;-194.2784;-0.06704174;-0.0604966;0;
-224.5187;0;0;0;26.28593;-22.04721;-220.0605;-223.0686;-0.1319417;-0.06043582;0;
158.5145;0;0;0;29.1399;-24.16839;155.5969;154.5283;-0.2617438;0.004592251;0;
681.4672;0;0;0;16.98683;-21.79983;672.5557;671.8629;-0.1315461;0.3294244;0;
479.2588;0;0;0;11.74583;-21.64396;475.0413;472.5377;0.2583901;0.264126;0;
167.1839;0;0;0;18.43183;-20.81841;165.0945;165.8418;0.1931631;0.3288279;0;
208.6199;0;0;0;15.13078;-18.85499;205.5332;208.7785;0.06303433;0.1985629;0;
-132.3559;0;0;0;5.805804;-18.90303;-129.505;-128.137;0.1279383;-0.1264734;0;
-640.4674;0;0;0;3.522794;-17.27657;-632.4344;-630.943;0.1927771;-0.1263463;0;
-483.5899;0;0;0;-21.26419;-11.83371;-478.626;-475.5743;0.1276161;-0.1262193;0;
-196.3731;0;0;0;-31.89274;-9.74535;-193.0384;-192.3635;0.3223899;-0.2560272;0;
-230.9083;0;0;0;-16.92387;-4.444028;-225.7029;-229.464;0.2570986;-0.1908026;0;
145.1972;0;0;0;-18.31338;-1.626402;143.4634;140.2683;-0.1979311;0.1991932;0;
675.3473;0;0;0;-14.54393;-1.557785;666.6812;664.114;-0.3276669;0.3938951;0;
474.1445;0;0;0;-9.90762;1.39103;470.4846;466.2333;-0.197403;0.1985973;0;
159.451;0;0;0;-16.79752;-6.648198;158.7308;158.1695;-0.06726997;-0.2563737;0;
208.3911;0;0;0;-15.37412;-7.445313;205.5477;208.6101;-0.002235032;-0.3210835;0;
-130.5855;0;0;0;-5.512059;-3.351873;-127.3041;-125.6816;0.06273455;0.2639453;0;
-649.5059;0;0;0;-2.157618;-3.214539;-639.6686;-637.7978;-0.002295822;0.1337454;0;
-495.243;0;0;0;1.193453;3.821655;-489.1637;-485.5457;-0.002293515;-0.2561931;0;
-203.3918;0;0;0;5.077996;5.76032;-199.3176;-198.7017;0.3225455;-0.126001;0;
-232.6101;0;0;0;-0.6878827;10.71115;-228.1028;-230.1736;0.4521561;-0.1908417;0;
151.6805;0;0;0;-1.424126;13.44656;148.3748;147.4929;0.126865;-0.4505193;0;
675.2649;0;0;0;5.677252;11.28972;666.965;664.6472;0.1267376;-0.1252299;0;
469.4395;0;0;0;7.547558;12.55093;465.7082;461.3312;0.1915776;0.1997326;0;
161.185;0;0;0;-0.2305344;4.03173;159.5189;158.5197;-0.4582883;0.394434;0;
198.6916;0;0;0;-3.043342;0.477705;196.7148;198.6526;-0.7826645;0.004233571;0;
-142.774;0;0;0;3.925941;4.228147;-138.3145;-137.8155;-0.2621394;-0.5804768;0;
-641.5048;0;0;0;2.381755;2.616308;-631.4901;-630.3044;0.0629607;0.1347473;0;
-487.9995;0;0;0;4.321744;0.001467156;-482.805;-478.9968;-0.1320046;0.4594486;0;
-204.9637;0;0;0;5.120709;-1.606125;-202.3356;-202.1544;-0.2618066;0.004215532;0;
-228.246;0;0;0;-10.22341;0.6729088;-224.3086;-228.5629;-0.1316089;0.06917866;0;
155.6655;0;0;0;-15.03493;1.609994;153.1646;149.4769;-0.0665093;-0.4506296;0;
684.2433;0;0;0;-15.42196;-2.008702;677.1848;672.3763;-0.1963772;-0.5151441;0;
481.8447;0;0;0;-19.8271;-1.202889;479.2909;473.113;-0.5859839;0.3949163;0;
160.6468;0;0;0;-15.92241;-1.402629;159.1575;157.1087;-0.4554604;0.3295521;0;
207.0244;0;0;0;-15.63896;-1.066305;203.2878;205.0517;0.1297033;0.00438425;0;
-124.8294;0;0;0;-21.91891;6.235784;-122.8776;-122.115;0.06460565;0.1992819;0;
-647.8785;0;0;0;-22.90224;9.109662;-639.307;-638.4827;-0.260296;0.06914696;0;
-498.6772;0;0;0;-17.3859;10.64112;-494.1747;-491.1024;-0.5199038;0.06907748;0;
-197.1399;0;0;0;-15.29233;12.70677;-194.8909;-194.6952;-0.5193814;0.3938448;0;
-225.9272;0;0;0;-19.028;14.43556;-221.8064;-225.8588;-0.1940228;0.2635144;0;
150.4857;0;0;0;-19.67847;15.22485;146.9812;143.745;-0.06389316;0.3931843;0;
677.6944;0;0;0;-11.75544;14.80766;667.8841;664.0889;0.1960404;0.3927892;0;
471.7416;0;0;0;-10.47083;14.65881;468.188;462.2727;0.7155821;0.1325251;0;
163.1725;0;0;0;-10.92883;10.55825;162.496;160.0849;0.2600918;0.2623267;0;
203.9255;0;0;0;-8.774391;9.207978;201.5006;202.84;-0.1299736;0.1970957;0;
-142.1681;0;0;0;-19.34912;5.849701;-138.7185;-138.1301;9.163113E-05;0.261865;0;
-640.2748;0;0;0;-21.53951;4.236233;-631.7062;-631.2433;-0.0648758;0.651406;0;
-488.5199;0;0;0;-15.08848;6.040515;-483.7081;-482.3086;0.3899608;0.3908821;0;
-212.2301;0;0;0;-13.46573;6.101429;-208.6725;-210.4604;0.4545363;-0.3891188;0;
-229.4456;0;0;0;-15.99682;9.444323;-224.3299;-229.9265;-0.1955938;-0.4536952;0;
157.8403;0;0;0;-16.18181;10.84147;156.2044;151.6753;-0.06546263;-0.1284026;0;
678.8573;0;0;0;-2.099381;13.91167;671.2884;667.2012;0.1295052;-0.2582082;0;
475.8394;0;0;0;2.256009;15.57227;473.0257;467.7557;0.0644077;0.06688793;0;
162.456;0;0;0;1.852576;16.49438;162.2064;159.8153;0.1942777;0.001853361;0;
205.8959;0;0;0;5.333339;17.6164;203.8349;204.5071;-0.1307543;-0.4529199;0;
-131.8913;0;0;0;0.1704165;12.44113;-128.328;-128.4686;-0.4554596;-0.3225301;0;
-646.0628;0;0;0;0.3039671;10.15133;-637.0058;-636.8964;-0.2600999;-0.3871734;0;
-496.1761;0;0;0;-2.977892;11.41381;-490.3766;-489.0179;0.06499815;-0.3867843;0;
-200.9507;0;0;0;-5.855288;10.12966;-196.1566;-197.7352;0.1299002;-0.1265263;0;
-229.9841;0;0;0;3.260274;6.167615;-224.0079;-228.396;-0.195067;0.003535485;0;
143.4344;0;0;0;4.864589;5.223657;141.2213;139.2738;-0.3897731;-0.06143541;0;
680.2704;0;0;0;-1.102146;1.467486;671.7501;668.9925;-0.2594467;-0.06137368;0;
481.9362;0;0;0;-1.703275;-0.4095106;479.6089;473.7306;-0.06428403;0.06862269;0;
163.4243;0;0;0;-0.8309075;5.284328;163.4107;161.5987;0.1306826;0.00358638;0;
207.3629;0;0;0;-2.638734;5.479967;204.4133;206.1639;0.1955186;0.1984848;0;
-133.4243;0;0;0;3.525859;9.761247;-130.5614;-130.3742;0.06538748;0.1982854;0;
-639.6606;0;0;0;5.263629;12.09572;-630.9286;-629.7421;-0.0646129;0.06815146;0;
-492.0918;0;0;0;-4.252504;6.926124;-487.0541;-483.5575;-0.25945;0.00311562;0;
-215.6111;0;0;0;-4.650373;6.785198;-212.2026;-211.4582;-0.3241566;-0.3217242;0;
-232.5733;0;0;0;-10.94136;3.965097;-227.6066;-231.3606;-0.06396157;-0.1264989;0;
155.5904;0;0;0;-14.48132;1.348901;154.805;150.4926;0.001070041;0.4583343;0;
682.5441;0;0;0;0.3363374;4.964502;675.825;671.3295;0.06603631;0.3929064;0;
486.8313;0;0;0;4.622907;4.356667;484.1169;477.8768;0.3258393;-0.2571618;0;
169.1891;0;0;0;-1.075165;-1.810018;168.1016;165.241;0.1955772;-0.5817401;0;
208.874;0;0;0;0.9356471;-4.688344;205.164;206.2418;0.2603481;-0.1263842;0;
-126.1675;0;0;0;9.17373;-2.07142;-123.5645;-123.7372;0.3900211;0.2635469;0;
-648.4656;0;0;0;13.31672;-2.404254;-639.9307;-639.7284;0.3246619;0.003412647;0;
-502.9494;0;0;0;11.69575;-8.764973;-499.1707;-496.9695;0.389303;0.06837657;0;
-201.158;0;0;0;12.35358;-10.22979;-199.4445;-200.3065;0.06407514;0.1332752;0;
-237.5624;0;0;0;20.37912;-10.55443;-233.8517;-237.7738;-0.06592392;-0.2566628;0;
130.2415;0;0;0;22.43573;-11.68253;127.4518;124.783;-0.130825;0.1333992;0;
673.4625;0;0;0;19.46545;-7.986853;665.4907;662.2623;-0.0007588872;0.4581019;0;
477.2591;0;0;0;20.38389;-7.375981;473.2933;468.6314;0.1291766;0.06783751;0;
161.563;0;0;0;10.24935;-4.488303;159.0379;156.942;0.1290468;0.06776934;0;
207.9398;0;0;0;5.416284;-2.139513;204.4177;205.5722;0.5187212;0.002733892;0;
-136.6586;0;0;0;13.91731;-5.419405;-133.5554;-132.402;0.4532326;-0.1921709;0;
-645.6403;0;0;0;12.63053;-4.543181;-636.6682;-634.4541;0.06297313;-0.1270104;0;
-490.7566;0;0;0;13.01998;-2.596233;-486.5411;-482.7675;0.1278772;0.1979539;0;
-207.2183;0;0;0;15.083;-0.7181023;-206.2554;-206.1712;0.06278136;0.06782031;0;
-230.7481;0;0;0;-1.007084;-1.454193;-227.8497;-231.5762;-0.1321837;-0.1921172;0;
150.9795;0;0;0;-6.834198;-0.381005;148.815;146.3417;-0.2619856;0.0679452;0;
673.9398;0;0;0;8.445266;6.719447;666.4677;664.4341;-0.3266897;-0.06205776;0;
473.9253;0;0;0;8.704224;9.659822;470.4587;467.0529;-0.2613941;-0.1269628;0;
167.6653;0;0;0;4.2075;13.26707;165.2642;165.1101;-0.2611315;0.2629689;0;
222.969;0;0;0;3.935828;16.00004;218.8836;221.4158;-0.0009997039;-0.1920667;0;
-116.5845;0;0;0;0.1134801;17.99333;-114.2315;-113.6383;0.1939033;0.003028263;0;
-651.5734;0;0;0;0.3817858;19.91776;-643.3507;-641.7586;0.1287411;0.4577966;0;
-502.9306;0;0;0;-8.996696;16.07984;-498.964;-494.8748;0.06364445;-0.06240212;0;
-190.0822;0;0;0;-11.39855;14.45609;-188.3685;-188.1565;-0.06635419;-0.1273068;0;
-227.3099;0;0;0;-6.162188;17.79059;-223.0992;-226.8229;-0.1312549;0.0677232;0;
136.4233;0;0;0;-7.094001;17.90668;133.7582;132.2247;-0.001188286;-0.3221489;0;
685.1978;0;0;0;5.77385;8.377354;675.5389;673.9445;-0.2610565;-0.1269232;0;
488.108;0;0;0;10.58984;4.417065;483.7062;479.0524;-0.5856308;0.1330737;0;
160.8443;0;0;0;7.967234;9.168293;158.8832;156.7328;-0.130271;-0.06196203;0;
209.4707;0;0;0;11.77762;7.55149;205.0753;206.3628;-0.06517278;-0.1268671;0;
-123.0728;0;0;0;4.062629;7.677868;-122.029;-121.0551;-0.195042;-0.2566743;0;
-638.2526;0;0;0;1.31188;8.206017;-631.1504;-630.1775;-0.06491131;-0.5812531;0;
-488.5612;0;0;0;9.549584;2.16943;-484.1523;-481.5562;-0.1947808;-0.3207997;0;
-192.6563;0;0;0;7.866026;1.698369;-190.5631;-190.4059;-0.06465038;-0.060608;0;
-220.1363;0;0;0;9.866878;-1.585379;-217.0457;-221.0741;0.390186;0.0693876;0;
148.7746;0;0;0;11.06241;-4.396947;145.6776;142.5904;0.2598592;0.2642199;0;
675.1105;0;0;0;-5.157352;7.329118;666.8317;663.935;-0.06523858;0.06905239;0;
479.9049;0;0;0;-9.372705;9.53219;476.9443;472.3638;0.129729;-0.125919;0;
166.6424;0;0;0;-9.162217;4.766946;165.5588;164.4187;-0.1302707;0.1340769;0;
211.14;0;0;0;-13.1715;5.29802;207.6837;208.9186;-0.06517249;0.1989095;0;
-122.592;0;0;0;-5.187661;1.474791;-119.9854;-120.3135;0.324697;-0.3210291;0;
-637.6473;0;0;0;-4.043372;-0.6701444;-628.8589;-628.6245;-0.4552373;-0.3856739;0;
-490.7676;0;0;0;-5.84797;1.473983;-485.174;-483.1282;-0.4547799;0.1344524;0;
-192.9865;0;0;0;-3.632268;1.137587;-189.8347;-189.7275;0.2603178;0.264252;0;
-222.9649;0;0;0;-6.50803;-5.695693;-218.7543;-222.3328;-0.1297478;0.004117064;0;
146.2612;0;0;0;-5.16232;-8.101356;143.9083;140.3958;-0.1945847;-0.1907891;0;
685.0933;0;0;0;-5.760345;-3.538376;676.6209;672.4872;-0.06445455;-0.3854994;0;
490.0026;0;0;0;-6.356794;-2.664165;486.0365;479.3458;-0.3242592;-0.4500794;0;
161.675;0;0;0;0.9506111;-5.74258;160.2741;156.8385;-0.06406397;0.1350789;0;
210.3006;0;0;0;0.882307;-5.669827;207.5267;208.155;-0.06399959;0.7196493;0;
-108.4381;0;0;0;7.981367;-1.04243;-105.3371;-105.3966;-0.388772;0.3940895;0;
-633.8775;0;0;0;10.98746;0.2982762;-625.095;-624.1549;-0.2584467;0.003889409;0;
-497.8711;0;0;0;-4.629996;2.776223;-493.5952;-489.8449;0.06664973;-0.06108184;0;
-195.5851;0;0;0;-8.242666;5.050853;-193.8746;-192.4395;0.1315501;-0.1259878;0;
-224.1241;0;0;0;-9.10504;3.706119;-219.6043;-222.4185;-0.06348411;-0.06089387;0;
147.352;0;0;0;-12.31107;5.778866;145.9952;143.4962;0.2614164;0.004134655;0;
680.6858;0;0;0;-14.17374;1.017393;672.6462;670.587;0.1961864;0.1340652;0;
486.4117;0;0;0;-15.70071;-0.1223386;483.69;479.1966;0.06605456;0.1339305;0;
176.0786;0;0;0;-15.95238;7.513595;176.1083;173.7433;0.3908249;-0.2560081;0;
218.0056;0;0;0;-16.67328;7.773977;215.5365;217.4217;0.1305628;-0.5156202;0;
-119.2941;0;0;0;-9.087093;11.38324;-114.7017;-113.443;-0.3893071;-0.1252981;0;
-635.2273;0;0;0;-6.934509;11.97453;-624.3927;-622.5731;-0.2589812;0.1996645;0;
-489.9742;0;0;0;-5.789441;9.484252;-485.4598;-481.3307;0.0661157;-0.06040551;0;
-189.8825;0;0;0;-3.907614;8.603944;-190.3701;-188.8063;0.390886;-0.2552468;0;
-217.2403;0;0;0;-7.118868;2.098076;-218.0398;-219.5386;0.2605585;-0.1250557;0;
150.4807;0;0;0;-7.111715;-0.1143471;143.4352;141.8755;-0.1944747;0.005004656;0;
688.3716;0;0;0;-12.12841;-9.558581;676.0858;674.4026;-0.06434458;-0.1249351;0;
491.466;0;0;0;-14.59447;-14.50559;484.6898;481.8839;-0.06427993;-0.2547442;0;
165.011;0;0;0;-13.17329;-8.797589;160.9277;160.6235;-0.19415;-0.1245536;0;
215.1325;0;0;0;-14.43285;-9.659528;208.3047;211.6239;-0.06402026;0.135441;0;
-113.4187;0;0;0;-13.2129;-6.903644;-113.7429;-111.4265;0.1309461;0.3302069;0;
-637.5412;0;0;0;-12.66376;-4.954202;-630.8686;-628.0548;0.2607492;0.1999404;0;
-491.4737;0;0;0;-13.1869;-4.614309;-488.6184;-483.5585;0.5853239;-0.1900645;0;
-193.317;0;0;0;-12.10192;-2.600307;-193.0882;-191.844;0.7146705;-0.05993887;0;
-239.1621;0;0;0;-12.02241;-2.061831;-237.4968;-240.8141;0.06427894;0.07005606;0;
128.1437;0;0;0;-11.87661;-1.188981;123.3106;120.9962;-0.4555244;-0.3198184;0;
687.7961;0;0;0;-6.372318;-1.522701;676.7834;674.159;-0.325132;-0.2545297;0;
500.3239;0;0;0;-4.557253;-2.65988;494.882;490.8859;-0.1299033;-0.1243393;0;
174.2973;0;0;0;-5.624401;1.495734;172.609;172.6773;0.195064;-0.1891817;0;
218.9746;0;0;0;-4.011159;2.632819;215.0391;218.8555;0.2598353;0.2008125;0;
-115.7023;0;0;0;-9.232041;-6.948142;-114.5739;-112.1981;0.06467219;0.3955127;0;
-636.6367;0;0;0;-10.82938;-9.28544;-629.0126;-626.3893;-0.06532747;0.1352459;0;
-499.1907;0;0;0;-6.598939;-8.472438;-494.6353;-490.1406;-0.1302292;0.4599468;0;
-205.9613;0;0;0;-7.664036;-10.33932;-203.2845;-202.1676;-0.1950657;0.06968056;0;
-225.9942;0;0;0;-4.441154;-7.046894;-222.1331;-225.2653;-0.1299023;-0.7099975;0;
143.8596;0;0;0;-3.767107;-6.905847;140.3455;138.0286;0.0001628983;-0.2545128;0;
676.7596;0;0;0;-8.117578;-6.162096;666.5024;664.6251;-0.06480461;0.005612329;0;
495.4829;0;0;0;-8.309516;-5.084177;489.4838;486.1092;-0.2596415;0.2005087;0;
174.5211;0;0;0;-15.40209;-8.160284;171.4641;170.779;-0.324348;0.2652746;0;
207.9539;0;0;0;-19.00296;-8.754808;203.5881;206.152;-0.12912;-0.3846654;0;
-118.591;0;0;0;-10.74484;-5.999834;-117.2053;-115.8309;0.2608137;0.07049254;0;
-639.0227;0;0;0;-9.462225;-4.654146;-631.7039;-630.7056;0.0006823195;0.3952584;0;
-500.5125;0;0;0;-16.55266;-9.606085;-497.8236;-495.2022;-0.5840244;-0.3197795;0;
-197.0993;0;0;0;-17.27297;-9.864364;-196.9744;-195.9798;-0.5184703;-0.1895235;0;
-236.3189;0;0;0;-11.96335;-5.63465;-233.3831;-235.6378;-0.2580799;0.1355036;0;
127.3608;0;0;0;-10.27736;-4.155364;124.3592;122.2317;0.06701609;0.2003348;0;
688.2634;0;0;0;-10.8029;-2.811651;678.9554;676.0804;0.1319161;0.3950356;0;
504.1015;0;0;0;-9.65297;-2.272963;499.1758;494.8669;0.001848858;0.2647039;0;
175.385;0;0;0;-8.705266;4.695424;172.2133;171.407;0.06681434;-0.1253661;0;
221.1232;0;0;0;-9.36708;6.432262;216.2055;218.5235;-0.06318748;-0.5150442;0;
-114.3055;0;0;0;-1.118645;4.818209;-112.5341;-111.3429;0.001843356;-0.384592;0;
-635.6785;0;0;0;2.09766;5.349231;-627.9744;-626.7844;0.1967435;0.07056586;0;
-490.1127;0;0;0;-10.69782;-0.9524177;-486.3517;-483.6637;0.3264805;-0.05943974;0;
-201.0153;0;0;0;-13.0316;-2.358102;-198.5075;-198.3834;0.2611851;-0.05938001;0;
-230.4234;0;0;0;-9.20011;-8.584902;-225.7317;-228.3564;-0.3237834;-0.05932035;0;
146.3689;0;0;0;-9.794078;-11.92542;143.747;142.3743;-0.5833274;-0.2541628;0;
679.5162;0;0;0;-11.52555;-6.62191;670.1504;668.4667;-0.4528066;0.07092934;0;
490.3657;0;0;0;-12.65304;-6.883188;485.5694;481.7011;-0.2574496;-0.05907663;0;
176.7803;0;0;0;-5.674106;-3.058366;173.3632;171.9975;0.3275152;-0.3188866;0;
212.5221;0;0;0;-3.056436;-1.179771;206.6097;209.4933;0.06731672;0.2661399;0;
-120.774;0;0;0;-7.808787;0.8309023;-120.4336;-118.1152;-0.3875223;0.2009051;0;
-636.3934;0;0;0;-7.265077;3.643229;-629.869;-628.1151;0.1975731;-0.1241335;0;
-494.6374;0;0;0;-5.650187;1.094338;-491.9301;-489.3034;0.3922766;-0.1889761;0;
-203.6614;0;0;0;-5.711858;2.432775;-202.5185;-202.8929;0.06704578;-0.05885152;0;
-250.683;0;0;0;-2.758382;0.08605034;-246.8551;-250.54;-0.2578583;0.006174953;0;
123.0687;0;0;0;-2.086025;-1.186712;119.8962;117.6518;-0.5824359;-0.05879859;0;
686.5367;0;0;0;-0.2752679;5.646618;676.7457;674.566;-0.3869486;0.2011299;0;
494.8179;0;0;0;3.006562;6.310773;490.2841;486.2326;0.06821155;0.3958298;0;
165.2986;0;0;0;-7.981172;8.447764;163.2057;162.1567;0.1331103;0.07059535;0;
216.1693;0;0;0;-9.848186;11.11859;212.2045;215.092;-0.1918601;-0.05941027;0;
-112.3204;0;0;0;-0.4611681;1.730054;-110.4092;-107.8369;-0.321602;-0.05935058;0;
-637.8807;0;0;0;-0.6617755;-0.2811719;-630.1619;-627.2798;-0.3862462;-0.254193;0;
-498.622;0;0;0;9.654017;6.685214;-494.8465;-490.2806;-0.1909561;-0.1889702;0;
-202.3946;0;0;0;13.26164;7.482169;-201.6839;-199.1216;0.1990398;-0.123813;0;
-226.4915;0;0;0;7.755957;6.001149;-224.782;-225.4082;0.06890517;-0.4485253;0;
144.0499;0;0;0;8.886264;6.196067;139.9482;139.8223;-0.1260661;-0.1882052;0;
673.6389;0;0;0;0.77301;9.538866;664.8561;664.1682;-0.1909068;-0.1230488;0;
489.3043;0;0;0;-2.241877;10.80196;486.0901;483.4663;-0.385617;-0.2528598;0;
179.2808;0;0;0;-2.105902;9.920325;178.1312;177.8214;-0.2552948;-0.1226711;0;
216.5818;0;0;0;-4.850452;10.58019;212.9971;214.4992;-0.384973;-0.2524825;0;
-116.2811;0;0;0;-1.696771;9.564812;-113.9277;-113.3641;-0.3196188;-0.1222941;0;
-634.5287;0;0;0;-1.493995;9.220286;-626.493;-625.3678;0.07050639;-0.0572039;0;
-493.4618;0;0;0;-2.163055;10.61766;-489.6195;-487.371;0.1354029;-0.1221138;0;
-194.8658;0;0;0;-0.6196643;10.60699;-193.0888;-192.5917;0.2002342;0.2028457;0;
-239.6474;0;0;0;-2.561425;10.99823;-235.6233;-238.2501;-0.1248037;0.0077398;0;
127.4091;0;0;0;-2.224058;11.724;124.62;122.4331;-0.3195803;-0.1222027;0;
694.0587;0;0;0;4.274911;8.363069;684.7131;682.5909;0.005577478;0.1377895;0;
506.7675;0;0;0;6.816211;7.282938;501.9916;497.6852;0.2004739;0.07268371;0;
169.9899;0;0;0;6.340847;10.82572;167.655;166.2889;0.2652398;0.137578;0;
220.1063;0;0;0;7.740995;10.81484;216.5244;217.9708;0.394908;0.1374398;0;
-98.32993;0;0;0;9.273458;11.67475;-95.22403;-95.52826;0.4594785;-0.187535;0;
-625.5911;0;0;0;9.933726;12.33273;-616.1165;-615.9831;0.1341801;-0.05741192;0;
-493.9658;0;0;0;10.99547;10.04304;-488.6237;-486.0542;-0.1907914;0.07258047;0;
-192.2459;0;0;0;11.45391;10.16691;-190.4698;-189.2147;0.134237;-0.05742716;0;
-218.8517;0;0;0;8.360946;8.616088;-214.9535;-217.4478;0.1341021;0.1375326;0;
145.2478;0;0;0;6.946025;8.339499;143.8947;141.6528;-0.2558367;0.2023617;0;
679.958;0;0;0;7.341187;9.402845;672.5468;670.9318;-0.320547;-0.1876457;0;
493.6805;0;0;0;5.52515;9.527364;490.837;487.537;-0.1253228;-0.1224898;0;
182.0284;0;0;0;7.796774;11.25935;182.6235;181.4507;0.1996398;0.397372;0;
224.3866;0;0;0;8.458525;11.31502;223.3569;224.934;-0.1903649;0.5269074;0;
-107.9219;0;0;0;-2.86948;15.79138;-104.2654;-103.3147;-0.2551409;0.006639265;0;
-625.1784;0;0;0;-7.354575;17.316;-615.7785;-613.8917;0.3298215;0.2015346;0;
-491.1798;0;0;0;3.772226;13.68164;-486.0996;-481.8409;-0.1902486;0.5911362;0;
-196.9589;0;0;0;5.442399;13.80186;-195.1322;-193.0017;-0.3199922;0.2657055;0;
-230.5565;0;0;0;-4.141263;9.635175;-226.4828;-227.9151;0.2000681;0.1355038;0;
133.7422;0;0;0;-5.075107;7.616005;132.0022;131.196;0.06993241;0.005432977;0;
696.2;0;0;0;-2.725483;9.081977;688.4648;687.5969;-0.06007254;-0.3194092;0;
516.2156;0;0;0;-2.589022;7.66621;512.6735;509.8076;-0.06001218;-0.1891536;0;
174.8057;0;0;0;0.09289626;10.13688;173.5161;173.3392;-0.1249192;-0.1239962;0;
222.1062;0;0;0;1.16453;10.79652;219.8809;222.9525;-0.2547284;-0.3187736;0;
-94.52042;0;0;0;3.306813;7.101609;-91.30875;-89.73948;-0.1245378;0.006383421;0;
-624.9088;0;0;0;4.576289;6.960507;-615.0787;-614.2606;0.1354568;0.3312137;0;
-487.2248;0;0;0;2.696656;5.279062;-480.2781;-478.2739;-0.1245487;0.2659136;0;
-183.9499;0;0;0;1.3538;3.465219;-180.6334;-180.3179;-0.05945623;-0.2540924;0;
-216.8734;0;0;0;5.237206;10.09293;-212.1859;-213.7448;0.3304076;-0.3188044;0;
146.412;0;0;0;5.835155;11.62327;144.723;144.415;0.3300756;0.07132002;0;
679.5593;0;0;0;-0.8021398;5.315438;671.7501;670.7553;0.2647766;0.006280997;0;
491.8455;0;0;0;-0.06439952;4.707251;490.291;485.9863;0.1995432;-0.1886273;0;
178.3836;0;0;0;-11.71863;4.166658;179.8916;176.8407;0.5241794;-0.2534052;0;
219.621;0;0;0;-16.26219;3.358676;218.254;218.7043;0.5236527;-0.1881832;0;
-109.9341;0;0;0;0.2312241;3.757199;-106.2398;-105.3526;-0.3214489;-0.1230268;0;
-626.0641;0;0;0;1.772209;2.882645;-617.3761;-615.2404;-0.06125657;-0.2528378;0;
-491.5024;0;0;0;8.803026;7.903347;-487.883;-483.813;0.4585437;-0.1226491;0;
-203.7154;0;0;0;13.95175;10.17282;-202.2237;-200.7189;0.3281483;0.2023109;0;
-240.1798;0;0;0;7.106199;4.000296;-235.3787;-237.9359;0.2628512;0.007205556;0;
133.5613;0;0;0;8.773022;3.594378;132.8603;129.9309;-0.322119;0.07216568;0;
694.5825;0;0;0;3.941436;6.738842;686.7609;683.8344;-0.256828;0.2020278;0;
508.8526;0;0;0;1.928719;6.598105;504.9119;500.5515;0.2631688;0.07189016;0;
174.5091;0;0;0;4.337679;9.471742;172.8837;171.4637;-0.06193231;0.006850569;0;
227.557;0;0;0;2.189867;10.26602;223.1846;225.5142;0.1979993;-0.123091;0;
-87.88821;0;0;0;9.556033;8.380182;-86.759;-85.61865;0.5876044;-0.05799997;0;
-617.4087;0;0;0;11.95733;8.036847;-609.8464;-609.0195;0.2621773;0.2019277;0;
-489.7272;0;0;0;2.970333;7.224977;-485.4208;-482.4084;0.1319791;-0.1231119;0;
-194.8831;0;0;0;2.431485;6.815819;-191.8304;-190.7575;0.001911832;-0.3178903;0;
-227.2958;0;0;0;3.701839;5.670383;-222.3097;-224.6112;-0.1280248;-0.1876362;0;
136.9371;0;0;0;3.228629;6.468359;135.4214;133.5596;-0.06292879;-0.1874476;0;
678.4022;0;0;0;5.368839;0.3666562;671.3284;669.2185;-0.3877023;0.2025448;0;
493.6881;0;0;0;4.961302;-1.978115;490.9317;487.762;-0.5822147;0.2673086;0;
175.4767;0;0;0;8.842059;11.35323;174.4098;173.9918;-0.5166624;-0.122764;0;
221.2773;0;0;0;9.435411;14.95878;217.7751;219.7939;-0.1913065;0.007293999;0;
-100.0336;0;0;0;7.148755;12.13047;-97.53529;-97.76744;0.1337224;-0.05768067;0;
-619.1721;0;0;0;6.873152;14.26173;-610.0546;-610.6613;-0.1262813;-0.05762272;0;
-493.8002;0;0;0;1.776031;14.38137;-488.5024;-487.1096;-0.1911218;0.1373372;0;
-205.8235;0;0;0;0.4350758;14.56787;-203.0298;-203.7623;-0.1259624;0.3321013;0;
-244.4722;0;0;0;-4.790274;18.907;-240.2445;-244.0372;-0.06086848;0.5916369;0;
126.8369;0;0;0;-7.464778;20.29464;124.5636;121.337;0.06912737;0.3961404;0;
693.3622;0;0;0;-5.782338;14.98272;684.7194;680.9962;0.2639599;0.2658077;0;
508.3831;0;0;0;-8.523194;14.16387;504.4966;498.7157;0.328662;0.3305079;0;
174.9771;0;0;0;3.475437;14.61852;173.0935;170.5043;-0.06147225;-0.05962821;0;
227.6497;0;0;0;7.021918;14.26891;221.8325;223.8061;-0.06141048;-0.1245356;0;
-90.73159;0;0;0;-3.166543;13.31682;-90.98328;-89.8862;0.45839;0.005524178;0;
-622.3732;0;0;0;-3.096013;12.16473;-615.3157;-613.0329;0.392962;-0.2543508;0;
-491.5008;0;0;0;-7.313437;17.10912;-488.5734;-482.6696;0.002763123;-0.05919314;0;
-186.0977;0;0;0;-9.918056;17.29287;-186.1717;-183.3348;-0.257109;0.2007357;0;
-224.4538;0;0;0;-6.625561;18.07929;-221.4668;-223.1305;-0.1918833;-0.18927;0;
129.5939;0;0;0;-7.95905;18.93191;127.268;126.4806;-0.2566579;-0.1241125;0;
681.8735;0;0;0;-5.004292;11.8798;672.8033;671.392;-0.3863347;0.07091422;0;
501.6536;0;0;0;-3.726466;10.26039;497.2777;493.5564;0.003857578;-0.1240591;0;
180.4357;0;0;0;-6.736831;6.633003;179.0628;178.1563;0.1987557;-0.05896708;0;
244.1598;0;0;0;-4.921401;3.545246;241.0391;243.1945;0.06862133;0.3958636;0;
-73.48847;0;0;0;-10.87733;8.699247;-70.10933;-69.58028;0.1984871;0.4604332;0;
-617.8285;0;0;0;-12.87613;9.22637;-607.7061;-607.8023;0.003385599;0.2650685;0;
-500.0166;0;0;0;-0.5383317;4.997296;-494.0898;-492.8116;-0.1265525;0.4597042;0;
-204.35;0;0;0;1.136172;4.188479;-202.6771;-203.5865;0.3283461;0.3942749;0;
-243.25;0;0;0;3.680626;7.064415;-240.7042;-244.6737;0.3929835;-0.06089266;0;
121.4362;0;0;0;6.691038;6.320504;119.2319;115.891;0.002784563;0.1340706;0;
688.4041;0;0;0;-0.8841466;10.33313;680.0176;676.4927;-0.1271529;0.3938052;0;
515.2991;0;0;0;-1.2854;11.72927;511.2313;506.0858;-0.5168292;-0.1912966;0;
193.3803;0;0;0;-4.70036;2.875978;192.2527;189.7361;-0.7761793;-0.4509737;0;
253.9055;0;0;0;-7.576025;1.533429;249.7181;250.2024;-0.3855953;-0.3855532;0;
-68.50018;0;0;0;-0.7359095;-2.553948;-67.87334;-67.57687;0.06956354;-0.1902638;0;
-619.4044;0;0;0;0.201859;-5.498509;-612.219;-611.2982;0.0045263;0.1347641;0;
-505.8388;0;0;0;-4.553766;0.5353575;-503.0334;-500.3643;-0.1254129;0.004693982;0;
-200.3588;0;0;0;-5.151427;1.338493;-200.6172;-200.4496;0.004647767;-0.1252454;0;
-239.3878;0;0;0;-1.195112;-0.2033376;-236.8973;-240.7903;0.06961044;-0.3200216;0;
108.9903;0;0;0;-0.3896275;-0.06916741;105.6062;102.0919;0.004573152;-0.2547327;0;
678.9067;0;0;0;-0.2555141;4.552602;668.5296;664.9564;0.1345032;0.265262;0;
513.3074;0;0;0;0.8838184;5.887687;508.313;502.0573;0.2643028;0.3299628;0;
182.7701;0;0;0;-1.662665;3.537368;180.7167;175.9664;0.06913517;0.004794544;0;
242.8686;0;0;0;-1.995787;3.131916;237.5689;236.5716;-0.255771;0.06975708;0;
-70.40557;0;0;0;-1.525267;2.124025;-69.76542;-71.01163;0.06932271;0.5244584;0;
-616.7477;0;0;0;-2.528112;1.519044;-609.1741;-609.8569;0.3940898;0.3290294;0;
-500.2487;0;0;0;-0.7169111;-2.769268;-497.1805;-495.4263;0.1338244;-0.0611053;0;
-198.3975;0;0;0;-2.12271;-3.838212;-197.8936;-198.7649;-0.2561141;0.0688908;0;
-235.9917;0;0;0;-0.1781944;-6.111653;-233.2394;-237.5456;-0.1259221;0.2637236;0;
124.0646;0;0;0;-0.04429347;-7.579136;120.3798;116.9526;-0.06082821;0.3284259;0;
687.0944;0;0;0;-9.153928;-0.2705033;677.2289;673.8676;-0.2556691;0.1331939;0;
509.4929;0;0;0;-11.7567;2.141032;505.0096;500.2149;0.0694245;0.06809275;0;
186.9553;0;0;0;-15.56328;0.3304636;185.9123;183.5587;0.004387393;0.197959;0;
242.8643;0;0;0;-18.82919;0.865873;239.386;240.6579;-0.1255517;0.1327928;0;
-84.52783;0;0;0;-16.80054;7.362226;-83.00507;-82.85887;0.06947648;0.1326593;0;
-619.424;0;0;0;-17.58794;9.096384;-611.2811;-610.7602;-0.1254954;0.06755869;0;
-493.3022;0;0;0;-15.02468;7.211722;-488.8531;-485.7091;0.1345001;-0.1274112;0;
-197.7673;0;0;0;-12.86613;8.142237;-195.1343;-194.742;0.3942343;-0.2572179;0;
-237.9858;0;0;0;-15.39879;-0.8414137;-232.4818;-235.3384;0.1989362;-0.1270248;0;
116.7627;0;0;0;-14.37894;-4.658473;114.6399;113.2855;0.1987363;0.06800492;0;
681.299;0;0;0;-10.01024;-0.4339898;671.7446;670.0168;-0.1912675;-0.1919328;0;
509.0757;0;0;0;-8.928452;-2.510025;504.7782;500.1786;-0.1910753;-0.1267726;0;
168.7974;0;0;0;-1.484742;-1.368793;167.5653;164.9692;0.5887249;0.4580609;0;
221.1014;0;0;0;2.602587;-0.764571;216.8096;218.8388;0.5231659;0.3276659;0;
-82.09343;0;0;0;-7.111943;-8.466718;-81.69585;-80.10594;0.1328362;-0.1274347;0;
-613.6812;0;0;0;-8.311222;-10.06568;-607.1621;-605.8237;-0.1271666;-0.06233932;0;
-492.9374;0;0;0;-2.609443;-7.041455;-489.9231;-487.0868;-0.2569735;-0.127244;0;
-192.1556;0;0;0;-2.070958;-6.900414;-191.5806;-191.6831;-0.06181331;-0.06214883;0;
-225.8205;0;0;0;-4.613496;-3.142558;-222.6848;-226.4105;-0.1267186;0.1328157;0;
129.6653;0;0;0;-5.278446;0.3437122;127.3006;123.9535;-0.06162388;-0.1271872;0;
679.1338;0;0;0;-1.053584;-5.149112;670.2122;666.7436;0.2632748;-0.1270594;0;
508.6617;0;0;0;0.2866458;-4.942989;503.6847;498.0331;0.1330755;0.197905;0;
187.8117;0;0;0;-4.536413;6.984574;184.089;181.0043;-0.06196021;0.06777147;0;
225.7288;0;0;0;-6.33954;10.52765;219.5735;220.3026;0.003069388;0.2626054;0;
-95.39921;0;0;0;-0.1038796;10.85199;-94.7392;-95.26028;0.003066304;0.6521456;0;
-612.4809;0;0;0;0.4311122;12.98442;-605.5122;-605.2207;0.1329979;0.2616863;0;
-491.426;0;0;0;-4.123672;12.03361;-488.0251;-485.0476;0.1328643;-0.06341341;0;
-199.5162;0;0;0;-4.52167;11.21772;-198.2426;-198.0793;-0.1921059;0.3264544;0;
-226.2397;0;0;0;-6.593232;13.3499;-224.2802;-227.9901;0.002989113;0.5210284;0;
126.4355;0;0;0;-5.715951;13.47045;121.1466;118.315;-0.2568833;0.1307008;0;
676.4694;0;0;0;-11.73843;3.007826;665.3138;662.7974;-0.3865598;-0.06433257;0;
507.7491;0;0;0;-13.13315;-0.6121526;501.7272;496.6521;0.458404;0.1956014;0;
179.1539;0;0;0;-3.005899;1.129897;175.2619;171.4413;0.3280087;0.06547022;0;
231.8848;0;0;0;-2.198596;-0.5456899;226.1851;225.3668;-0.1270922;-0.2594323;0;
-80.69125;0;0;0;11.0655;0.5265853;-80.07583;-80.83084;0.06793749;-0.3891063;0;
-619.7142;0;0;0;17.01525;0.9278318;-613.6022;-612.6697;0.002901891;-0.323748;0;
-501.6505;0;0;0;6.68303;0.7929336;-499.6675;-496.5497;0.197801;-0.2584553;0;
-199.1732;0;0;0;7.279527;0.725276;-199.0039;-198.7002;0.1326349;-0.1932283;0;
-230.5198;0;0;0;2.51679;7.020699;-228.539;-231.2966;-0.1923351;-0.1280668;0;
121.9723;0;0;0;-0.7009192;9.291064;117.5793;115.699;-0.06220713;-0.2578728;0;
672.0107;0;0;0;1.174819;5.195891;661.8126;658.9346;-0.127112;-0.1926463;0;
506.3559;0;0;0;-0.7013954;5.324636;501.103;494.7298;0.06791778;0.06741662;0;
189.5686;0;0;0;-1.973488;1.97014;186.1326;182.2645;0.1328169;0.002381517;0;
230.0452;0;0;0;-2.975883;-0.3761205;223.6766;224.4975;0.1326834;-0.1275556;0;
-93.21113;0;0;0;-1.500001;2.772333;-94.13854;-93.94312;0.4573868;-0.06246005;0;
-614.5428;0;0;0;-0.2920687;2.233684;-608.5978;-608.5275;0.06712317;0.06753741;0;
-496.3595;0;0;0;-3.038441;-0.4477556;-492.4818;-490.1628;-0.3227483;0.06746954;0;
-215.3767;0;0;0;-2.834318;-0.3803227;-213.4395;-212.9343;-0.06255465;0.3272711;0;
-249.5805;0;0;0;0.8522256;-1.920548;-246.8956;-249.3895;0.2623449;0.3919096;0;
116.7987;0;0;0;1.186162;-0.6459425;113.1091;111.4299;0.002211939;0.06667912;0;
679.1487;0;0;0;5.80667;-3.056679;668.6537;666.6638;-0.322627;-0.2582246;0;
516.2353;0;0;0;7.475775;-3.589471;509.2491;505.0123;0.002533893;-0.5178345;0;
191.7544;0;0;0;3.248705;9.341598;187.274;184.8531;-0.1923707;-0.3224122;0;
237.0389;0;0;0;2.574879;13.01615;231.3136;231.9561;-0.7768835;0.00274851;0;
-79.66522;0;0;0;-0.1733984;15.28049;-78.20088;-78.68349;-0.1913968;0.1326804;0;
-620.4383;0;0;0;-2.115607;19.08304;-613.2283;-612.8359;0.7183383;0.00261243;0;
-508.5583;0;0;0;-4.123213;13.57139;-505.9158;-502.5877;0.1978778;-0.3222269;0;
-200.9517;0;0;0;-5.994104;12.55301;-200.4357;-199.8596;-0.3870271;0.002933581;0;
-230.1725;0;0;0;-6.993435;14.68385;-228.4077;-231.5803;-0.0618015;-0.06203671;0;
117.8215;0;0;0;-8.325579;13.32944;112.4006;110.7929;0.06819528;-0.3218437;0;
675.4852;0;0;0;-6.575902;9.297189;663.6356;661.9045;-0.1917426;-0.1915857;0;
512.638;0;0;0;-6.300874;6.675513;505.7353;500.8826;0.1332868;-0.1913932;0;
188.4106;0;0;0;-5.491236;4.391507;184.0136;181.2272;0.3930222;0.3935052;0;
230.3876;0;0;0;-4.212921;2.176658;224.1834;225.023;0.1977253;0.7179465;0;
-89.30828;0;0;0;-7.222797;-0.4377415;-89.63425;-89.67004;0.06759191;0.06755174;0;
-613.6425;0;0;0;-8.287267;-2.379807;-607.4089;-608.4442;0.002556653;-0.1274182;0;
-494.5229;0;0;0;-0.8442001;-2.042501;-490.7319;-490.2668;0.002554084;-0.1922575;0;
-206.9203;0;0;0;1.567546;-2.777261;-206.0692;-206.1668;0.3923556;-0.4519337;0;
-238.1966;0;0;0;-9.418742;-1.903692;-237.2213;-239.5053;0.326994;-0.3865122;0;
123.0488;0;0;0;-13.2267;-1.767813;118.3384;115.7444;-0.2580407;-0.3211565;0;
672.2115;0;0;0;-3.635212;-0.8952589;661.9462;658.043;-0.3227487;-0.3858012;0;
504.8074;0;0;0;-3.698908;0.3783164;498.1131;492.5896;0.2622817;-0.06057679;0;
186.8347;0;0;0;-9.454991;-2.50233;182.396;180.064;0.1320834;0.1343861;0;
233.3735;0;0;0;-9.51284;-2.231884;227.0652;227.9839;-0.1279186;0.06928374;0;
-75.45585;0;0;0;-16.33578;-0.8229996;-75.76083;-76.40479;0.3269813;0.1991488;0;
-604.1143;0;0;0;-16.72054;-0.01837744;-598.4219;-599.1277;0.4565874;0.1339814;0;
-492.1257;0;0;0;-22.53186;1.790058;-490.4996;-489.2682;0.06632457;-0.2559573;0;
-190.2202;0;0;0;-26.72878;2.659038;-191.4068;-192.4255;0.1961926;-0.06079812;0;
-230.946;0;0;0;-2.789137;4.598871;-230.9445;-234.5858;0.2609628;0.2640997;0;
108.8653;0;0;0;3.241886;4.460284;103.0573;101.1062;-0.1291035;0.4587364;0;
671.598;0;0;0;-3.460153;11.42178;660.6109;658.412;-0.06400638;0.3283407;0;
508.1925;0;0;0;-0.2414955;14.69247;502.089;497.8932;0.2608946;0.1331088;0;
179.4718;0;0;0;-4.528161;0.6115355;177.0601;174.8051;0.3905672;0.2629097;0;
235.7631;0;0;0;-5.996503;-2.604138;232.7291;233.7872;0.06533802;0.3925802;0;
-71.69435;0;0;0;-0.4307724;1.082418;-69.54044;-68.79571;-0.06466231;0.1972837;0;
-604.417;0;0;0;0.5740384;-1.798814;-597.3302;-596.8361;0.195272;0.1321182;0;
-489.2423;0;0;0;-10.74604;2.221848;-486.9102;-484.5426;0.1301085;0.002050715;0;
-194.711;0;0;0;-14.82206;2.420564;-194.7551;-194.5137;-0.06492428;-0.127886;0;
-228.3108;0;0;0;-6.434422;-2.4715;-226.231;-230.0503;0.130043;0.002177155;0;
119.6188;0;0;0;-6.829122;-2.067119;115.6371;112.009;0.454749;0.002174967;0;
664.5371;0;0;0;-4.344013;-8.361316;654.9373;651.3128;0.4542921;0.002172782;0;
498.2651;0;0;0;-0.3875332;-9.960382;492.6105;486.5534;-0.06590312;-0.1277641;0;
179.1746;0;0;0;-13.58266;-3.855171;175.4622;171.5351;-0.2607389;-0.7123418;0;
233.4047;0;0;0;-15.1766;-2.98052;227.9469;228.0842;0.1942945;-0.2568546;0;
-70.05237;0;0;0;-5.248366;2.983834;-69.94505;-70.68241;0.1940992;0.5230116;0;
-602.3394;0;0;0;-5.175744;6.731758;-595.1108;-596.2222;-0.1309325;-0.06222004;0;
-491.6645;0;0;0;7.220689;5.050543;-487.2542;-486.3655;-0.2607356;-0.2570595;0;
-189.9469;0;0;0;12.16993;6.652936;-189.1642;-189.9631;-0.325441;-0.06189922;0;
-233.1092;0;0;0;4.521888;8.45479;-231.5777;-235.3118;0.06469007;0.003130316;0;
105.7048;0;0;0;5.589071;8.044397;101.925;98.81932;0.1295924;0.1330619;0;
670.3772;0;0;0;2.368275;11.38534;660.2294;657.689;-0.1953745;-0.1269412;0;
506.6606;0;0;0;1.026724;11.23993;501.0831;496.1091;-0.0002761776;-0.2567483;0;
176.2548;0;0;0;-1.519903;6.205041;174.9933;171.2112;0.3245608;0.2632484;0;
232.5493;0;0;0;-4.532485;5.395133;229.2276;229.1349;0.3242347;0.4578859;0;
-72.96839;0;0;0;0.8970763;-5.126364;-72.35124;-72.94359;0.1290069;0.06762176;0;
-605.0651;0;0;0;0.6951041;-9.408121;-598.514;-598.9184;0.1288772;0.1325212;0;
-491.3889;0;0;0;1.030174;-4.442052;-487.7805;-485.9356;0.1937151;0.5871594;0;
-196.9804;0;0;0;2.904173;-5.710143;-196.624;-196.4675;-0.001381582;0.3916674;0;
-235.638;0;0;0;-5.605211;-1.41762;-234.1574;-236.9997;0.06358715;0.06643713;0;
109.7378;0;0;0;-8.011453;0.1913953;106.2194;104.2546;-0.06641143;-0.1285317;0;
661.9749;0;0;0;0.23562;0.3251688;652.9003;650.5002;-0.0663447;0.06649952;0;
502.8269;0;0;0;0.7038977;1.865327;497.0722;492.8005;0.06365665;0.3912694;0;
184.5439;0;0;0;0.9716102;2.93518;180.919;178.713;-0.261244;-0.1938298;0;
232.7092;0;0;0;2.578224;4.941719;226.9015;227.6962;0.06385519;-0.2586024;0;
-70.93465;0;0;0;-3.586308;-0.6896909;-71.6141;-72.00709;0.5835298;0.1964288;0;
-596.7865;0;0;0;-4.922851;-1.961674;-591.5308;-592.1108;0.3880414;-0.1286053;0;
-494.8628;0;0;0;-0.8320678;2.661998;-492.9856;-491.0663;-0.1320872;-0.2584107;0;
-203.3868;0;0;0;-0.4964391;2.726306;-202.9483;-203.3423;-0.2618892;-0.2581511;0;
-236.0409;0;0;0;-4.380706;5.201935;-233.1666;-237.3707;0.128178;-0.127957;0;
105.3997;0;0;0;-6.988273;6.804176;101.9619;98.88638;-0.001885481;-0.06286108;0;
666.6992;0;0;0;1.525215;4.520042;656.0808;653.1334;-0.3267203;-0.1927326;0;
514.418;0;0;0;2.662759;5.185329;508.1831;502.5525;-0.5212941;0.002363087;0;
180.9434;0;0;0;-2.56483;5.381068;178.7128;175.2118;-0.3908356;-0.06260663;0;
230.2992;0;0;0;-0.7535913;5.509627;226.4467;227.2595;0.3891653;-0.3224131;0;
-69.53161;0;0;0;-13.94835;8.652166;-68.44525;-67.9456;0.5187089;0.002747582;0;
-608.4408;0;0;0;-16.94844;9.782183;-601.1711;-600.9219;-0.06651836;-0.06222252;0;
-500.3835;0;0;0;-8.759741;10.77698;-496.6194;-494.5587;0.06348316;-0.1271273;0;
-195.6586;0;0;0;-9.688944;12.57469;-195.2091;-195.1496;0.3232887;0.1328698;0;
-229.9447;0;0;0;5.324968;9.882855;-228.4961;-231.6225;0.2579966;0.002801573;0;
109.3659;0;0;0;10.74463;9.471027;105.0659;102.5049;0.5176067;0.06776612;0;
660.1666;0;0;0;5.777336;13.48036;649.8115;646.6908;0.3221846;0.1326654;0;
502.2698;0;0;0;8.116055;12.99794;495.6107;490.2443;-0.1329106;-0.1273373;0;
188.2352;0;0;0;4.625276;16.60184;183.5818;179.72;-0.002842326;0.2625947;0;
240.1449;0;0;0;3.14676;17.65688;233.1848;231.7632;0.3869646;0.3272982;0;
-72.56432;0;0;0;4.081603;10.47221;-74.20757;-75.87766;0.1916737;-0.1927694;0;
-603.9742;0;0;0;3.541639;9.322977;-600.306;-600.9749;-0.1333556;0.132261;0;
-497.4206;0;0;0;-3.830287;3.285267;-498.1289;-496.7981;0.1266478;0.3919975;0;
-207.129;0;0;0;-6.505755;-0.8708537;-210.96;-211.3797;0.1914879;0.001799504;0;
-235.2816;0;0;0;-4.087345;4.6225;-237.9843;-241.1522;0.3212301;-0.2580717;0;
114.779;0;0;0;-5.758177;3.412162;105.3324;102.48;-0.133864;-0.1278777;0;
666.074;0;0;0;1.012763;3.408734;648.7658;645.604;-0.5235336;0.06715286;0;
510.2327;0;0;0;2.485614;4.276087;496.5027;491.4699;0.3865353;0.1320527;0;
190.5679;0;0;0;1.545111;-1.823535;178.1011;175.5097;0.5160816;0.001985337;0;
240.3513;0;0;0;3.35222;-2.625498;223.2743;224.746;0.125759;-0.1279513;0;
-61.17624;0;0;0;-5.292313;0.0564578;-72.55146;-71.89336;0.1905999;-0.4526595;0;
-593.2223;0;0;0;-7.765242;1.395938;-598.0894;-597.5569;0.06047374;-0.517172;0;
-490.9898;0;0;0;-4.877051;1.05962;-501.5366;-499.318;0.1903477;-0.3217503;0;
-198.7056;0;0;0;-6.546113;2.53218;-213.6147;-214.0219;0.2551237;-0.321427;0;
-237.4239;0;0;0;-4.53078;7.419268;-252.4429;-255.1611;0.2548674;-0.2561367;0;
104.1431;0;0;0;-4.257808;9.421301;82.08025;80.05191;0.1246766;-0.1259446;0;
670.7536;0;0;0;-6.33061;16.10988;641.3416;638.3158;-0.33022;0.004116584;0;
526.4018;0;0;0;-5.252522;19.24189;499.5182;494.1841;-0.1999536;0.0690798;0;
206.1586;0;0;0;-11.94505;18.35178;180.1765;177.0342;0.3199861;0.1989451;0;
253.9273;0;0;0;-15.14823;19.73998;223.9109;224.3949;0.4495992;0.1337778;0;
-55.98467;0;0;0;1.143967;14.56258;-80.72359;-81.42697;0.2542455;0.003708714;0;
-591.5967;0;0;0;5.89824;12.13657;-609.814;-610.0169;0.1240553;-0.191197;0;
-491.927;0;0;0;-7.504273;12.66024;-514.8737;-512.3903;0.3838;0.06886446;0;
-199.7044;0;0;0;-8.434738;10.37022;-226.1262;-226.5188;0.4483817;0.1987299;0;
-225.6156;0;0;0;-2.732835;7.747462;-251.4486;-254.7144;0.1230945;-0.1263065;0;
119.4378;0;0;0;-3.131255;5.931138;85.13497;83.87145;-0.5267026;-0.1911469;0;
675.4133;0;0;0;0.2207941;3.446932;632.7741;630.4499;-0.5261734;0.003947202;0;
530.4321;0;0;0;0.9575065;2.170793;489.9597;484.3895;-0.200808;0.3937473;0;
214.1204;0;0;0;-2.459707;1.364816;174.2509;170.5603;-0.6553776;0.3283843;0;
264.3799;0;0;0;-3.528963;0.8275816;222.7388;221.988;-0.7196864;-0.2566517;0;
-44.2308;0;0;0;-4.3297;2.568306;-80.58261;-81.89494;-0.06928986;-0.3213612;0;
-591.0989;0;0;0;-4.994935;2.43176;-623.5412;-624.7897;0.5804532;0.1337331;0;
-489.3683;0;0;0;-9.812687;8.323692;-527.7125;-527.1482;0.5798699;0.3285008;0;
-185.5291;0;0;0;-11.27572;11.39642;-228.27;-229.0181;0.05954855;0.3281707;0;
-222.5115;0;0;0;-11.93495;4.21804;-264.085;-267.4561;0.1244561;0.06797158;0;
117.7911;0;0;0;-13.26213;4.079836;70.26241;68.08167;0.4491677;-0.06203142;0;
684.7628;0;0;0;-9.497759;5.616222;630.0979;628.2317;-0.1359897;-0.1269364;0;
537.0861;0;0;0;-9.890357;5.007855;486.0993;481.1115;-0.3957224;-0.06184154;0;
212.7716;0;0;0;-3.182614;8.753745;164.4598;160.1642;-0.005520741;0.0681553;0;
260.8461;0;0;0;0.2368351;9.414779;210.4588;209.6033;0.05945215;-0.06184788;0;
-48.94794;0;0;0;-10.74812;8.869455;-94.03717;-95.39156;-0.1355096;0.003181601;0;
-586.0038;0;0;0;-12.14384;9.195457;-625.4255;-626.5287;-0.1353735;0.1980805;0;
-481.5297;0;0;0;-9.318594;8.583372;-524.4725;-522.8884;0.0596646;0.1978814;0;
-188.4429;0;0;0;-9.175509;8.708713;-233.2167;-232.6337;0.319474;0.2626499;0;
-214.9901;0;0;0;-14.12278;6.489526;-256.6579;-259.1365;0.124251;-0.1274181;0;
131.4893;0;0;0;-17.05535;5.67921;84.36617;81.64025;-0.0707759;-0.1922574;0;
679.0195;0;0;0;-2.235109;6.812213;625.1345;621.037;-0.2656068;0.3926419;0;
525.7264;0;0;0;2.321488;6.671402;476.1435;469.9886;-0.5901766;0.1973453;0;
208.7947;0;0;0;-10.0057;5.860904;161.6979;158.6726;-0.3946816;0.2621144;0;
256.3109;0;0;0;-10.66524;4.984358;207.1375;207.2387;0.06048638;0.7166224;0;
-48.35616;0;0;0;-6.568683;8.730272;-91.29577;-92.31905;0.320295;0.3260983;0;
-581.3521;0;0;0;-6.964224;9.525295;-615.6904;-616.6502;-0.004863577;0.1958359;0;
-480.6308;0;0;0;-3.808419;5.429765;-516.7462;-515.706;-0.06982603;0.5204759;0;
-180.6109;0;0;0;-2.666492;4.553653;-220.0633;-220.461;0.1251462;0.1951162;0;
-217.0361;0;0;0;-4.538846;3.745283;-256.3239;-259.5322;-0.06988162;-0.1299166;0;
112.9538;0;0;0;-3.328837;3.07169;67.52105;65.25296;0.2550253;0.0001486463;0;
677.9312;0;0;0;-8.080914;0.2553205;626.9844;624.1564;-0.005100309;0.3249852;0;
529.137;0;0;0;-9.948805;-1.151456;484.6132;478.7895;-0.4598666;0.5195607;0;
194.5857;0;0;0;-1.231271;3.67235;154.1671;149.5362;-0.004633109;0.3241366;0;
248.5504;0;0;0;0.04276374;6.079924;205.7362;204.2334;-0.3944325;0.3238109;0;
-46.73849;0;0;0;-1.832313;0.112456;-83.70013;-85.63874;-0.5889382;0.4534203;0;
-587.5447;0;0;0;-1.764099;-0.5573643;-618.0349;-620.6587;0.1262943;0.1281279;0;
-488.8161;0;0;0;-0.1547363;8.954528;-523.8359;-524.2707;-0.003767259;0.1279992;0;
-191.9739;0;0;0;1.586731;10.61998;-229.957;-230.079;-0.3286002;0.777544;0;
-223.9524;0;0;0;-7.322495;13.82449;-259.3361;-261.7068;-0.003433294;0.6468281;0;
117.2263;0;0;0;-8.722632;16.4898;77.38037;75.51176;-0.1333645;0.1914067;0;
669.8931;0;0;0;-5.565061;11.31566;625.1522;622.3484;-0.1981979;-0.003687666;0;
518.6707;0;0;0;-6.162681;11.84016;478.2851;472.8605;0.1918053;-0.198586;0;
199.9345;0;0;0;1.54667;6.804662;161.7759;158.4182;0.1266453;0.1264503;0;
254.3311;0;0;0;3.956014;4.721475;214.3368;214.4807;0.126518;0.1912906;0;
-47.89762;0;0;0;4.220459;8.132739;-80.73035;-80.71153;0.5161949;-0.3286404;0;
-594.2623;0;0;0;5.555388;6.717926;-619.0036;-619.9843;0.3207742;-0.3283102;0;
-500.7744;0;0;0;3.875843;13.07443;-528.5518;-528.3446;-0.06935213;-0.1980456;0;
-198.7978;0;0;0;2.12966;14.6019;-228.7337;-229.7136;0.06065224;-0.5226833;0;
-232.456;0;0;0;6.682848;11.9749;-259.5507;-263.778;0.1255586;-0.5871254;0;
99.04857;0;0;0;8.819587;13.03459;66.73371;63.19781;-0.004502207;-0.5865355;0;
663.6027;0;0;0;-12.35539;5.385561;625.6982;622.2283;-0.06946503;-0.2611094;0;
519.7579;0;0;0;-18.77334;1.897159;487.0763;481.8608;0.06053946;0.323859;0;
189.8387;0;0;0;-7.836137;7.119799;160.2509;157.0397;0.125446;0.1935989;0;
243.7458;0;0;0;-9.503202;5.706003;212.2512;211.5419;0.1902873;0.06346969;0;
-51.10106;0;0;0;-4.738232;3.757887;-76.75442;-78.02523;0.4499654;0.2583079;0;
-591.5905;0;0;0;-1.986804;3.218248;-609.347;-610.9914;0.384546;-0.001820993;0;
-495.1693;0;0;0;-6.137994;-0.3349595;-515.4067;-515.8625;0.1892575;-0.1317538;0;
-198.4456;0;0;0;-4.456887;0.3350843;-220.6617;-223.4284;0.1241;-0.1316215;0;
-231.0422;0;0;0;-3.850172;-7.301063;-250.3;-256.3122;0.05900799;-0.06652186;0;
107.3325;0;0;0;-2.171364;-9.638129;81.4724;77.27777;0.0589487;0.2583817;0;
663.2576;0;0;0;-2.973466;2.160307;630.552;626.1117;-0.1360126;-0.06671464;0;
519.663;0;0;0;-3.572714;3.497795;492.425;483.8663;0.1239935;-0.521419;0;
204.7989;0;0;0;6.947074;10.52724;179.3374;173.6608;0.05890154;-0.3909604;0;
249.1957;0;0;0;10.15527;14.06676;221.9482;220.6501;-0.4608964;-0.4555349;0;
-60.71157;0;0;0;5.858162;9.564894;-79.93573;-82.73177;-0.3304986;-0.06527312;0;
-595.944;0;0;0;6.856654;10.29197;-608.0274;-610.3834;-0.005329782;0.06472716;0;
-495.9576;0;0;0;5.510594;4.253411;-511.0274;-511.1321;0.1246103;-0.1952073;0;
-201.4821;0;0;0;5.370359;1.904735;-218.3483;-219.5773;0.0595177;0.2597603;0;
-235.5124;0;0;0;1.480197;-0.1066668;-249.8629;-253.9018;0.1244252;0.389434;0;
100.368;0;0;0;-2.272335;-2.182909;79.97244;75.56281;0.05933288;-0.0007614019;0;
659.8609;0;0;0;5.500457;-3.051493;633.3639;628.7088;-0.2005961;0.06420672;0;
513.1462;0;0;0;4.288505;-4.120154;493.1726;486.2109;-0.2003945;0.3889789;0;
183.4211;0;0;0;5.155828;-1.637646;166.9033;161.5103;-0.3301279;0.6484574;0;
236.6475;0;0;0;7.963686;-1.903932;217.0229;214.8211;-0.4597308;0.7777405;0;
-57.31767;0;0;0;-14.75165;7.006467;-72.23743;-74.93668;-0.1993995;0.3221877;0;
-602.2986;0;0;0;-20.43026;10.75035;-610.5192;-612.5286;-0.1991992;-0.1978748;0;
-503.9301;0;0;0;-11.2327;5.515001;-514.7661;-514.4622;-0.3939011;-0.3276107;0;
-201.7004;0;0;0;-13.56594;7.652913;-214.8993;-215.9075;-0.1986032;-0.5221835;0;
-240.4156;0;0;0;-3.237179;0.009290987;-251.29;-255.0458;-0.003501645;-0.06688742;0;
94.53269;0;0;0;0.182325;-3.071811;78.17202;75.2321;-0.1334328;0.06311448;0;
654.9684;0;0;0;-1.894939;6.576573;632.4398;629.7527;-0.1332987;-0.716557;0;
513.1938;0;0;0;1.791636;5.76617;494.2485;490.0024;-0.2630995;-0.3910003;0;
197.8364;0;0;0;-3.435077;7.568915;181.5963;179.3534;-0.3927698;-0.0008034133;0;
242.4276;0;0;0;-2.627342;7.762259;226.2038;225.7748;-0.002571092;-0.1307373;0;
-69.09705;0;0;0;-2.825773;2.261981;-79.37002;-81.42277;0.1273662;-0.3904753;0;
-608.2566;0;0;0;-4.631595;1.38893;-612.2723;-614.1981;-0.002696487;-0.584985;0;
-511.0689;0;0;0;6.626192;-8.257764;-517.7043;-517.2544;0.2571756;0.0003089063;0;
-215.1414;0;0;0;8.494568;-12.00039;-225.1435;-225.0688;0.06201515;0.260178;0;
-243.286;0;0;0;6.677372;-10.84962;-252.341;-255.2648;-0.1329492;-0.06492017;0;
95.41335;0;0;0;8.077182;-12.58028;81.05763;78.57401;-0.06784826;-0.1298223;0;
651.7253;0;0;0;-0.1026083;-9.955422;632.3865;629.9054;-0.1327474;-0.1296918;0;
506.9554;0;0;0;-2.714473;-9.610504;491.9464;486.2194;0.1272553;-0.1945289;0;
182.2964;0;0;0;-2.980166;-2.902676;168.8017;164.1425;-0.002807221;-0.3242681;0;
234.7118;0;0;0;-5.388069;0.9181455;219.9188;218.8874;-0.5225431;-0.1940076;0;
-60.37582;0;0;0;-5.650098;-4.106375;-67.65769;-69.37523;-0.132214;0.00108939;0;
-610.4136;0;0;0;-7.051917;-3.9013;-610.4418;-612.2202;0.2577229;-0.2587811;0;
-520.7201;0;0;0;-4.499236;1.126218;-524.1215;-522.8371;0.1924966;-0.1935537;0;
-215.7249;0;0;0;-2.484983;1.995864;-222.3713;-222.2126;0.2572705;0.001542804;0;
-252.1772;0;0;0;-9.783504;0.5872174;-256.3182;-260.4075;0.3869466;-0.1283934;0;
84.15725;0;0;0;-11.18019;1.390422;75.02293;71.12515;0.1916558;-0.06329708;0;
656.9722;0;0;0;-1.523416;-6.112819;641.038;637.0817;-0.2633081;0.001733865;0;
509.5733;0;0;0;0.1520776;-9.187892;498.4027;491.8892;-0.1331089;0.3265688;0;
174.9168;0;0;0;-0.2502168;-1.810659;167.7554;162.935;0.1918616;0.196306;0;
221.4675;0;0;0;0.420596;-2.27772;213.1264;211.8716;-0.06820057;-0.1936953;0;
-76.85515;0;0;0;-0.7862515;-0.2659436;-79.50322;-81.63132;-0.06813204;0.1963034;0;
-610.1973;0;0;0;-1.321325;1.609724;-607.5329;-610.2211;0.1268384;0.5209429;0;
-508.385;0;0;0;-6.410212;-5.558824;-510.6583;-511.1574;0.06174365;0.2605501;0;
-211.1484;0;0;0;-9.350532;-5.754187;-214.7937;-217.0414;-0.003285732;-0.2594505;0;
-258.1624;0;0;0;-8.7389;-7.69091;-257.8061;-263.5498;0.06168491;-0.4540918;0;
78.61529;0;0;0;-9.600776;-9.69267;72.47455;68.04848;-0.06831175;-0.0638315;0;
659.9316;0;0;0;-19.57146;1.435992;646.6756;643.0035;-0.5230145;0.001199976;0;
512.9045;0;0;0;-24.64201;4.716712;504.347;497.7427;0.0622171;0.00119877;0;
175.5585;0;0;0;-12.35974;0.09015098;170.2579;164.3474;0.322024;0.001197566;0;
224.8572;0;0;0;-10.87345;1.496702;217.8128;215.0941;-0.327973;-0.3236403;0;
-72.03212;0;0;0;-18.02982;3.035805;-73.32229;-76.10073;-0.002806782;-0.1284131;0;
-611.7509;0;0;0;-17.67691;3.83655;-605.6685;-608.0068;0.3220327;-0.06331675;0;
-513.1855;0;0;0;-22.48192;5.708096;-510.9822;-510.6321;-0.003127542;-0.1282205;0;
-206.0115;0;0;0;-25.27237;5.836326;-207.8709;-208.5206;-0.06809174;-0.193059;0;
-241.6614;0;0;0;-17.47745;11.12199;-241.6449;-245.9796;-0.3278927;-0.4527344;0;
85.91685;0;0;0;-16.72295;14.45996;80.31118;76.16822;-0.5874326;-0.1274427;0;
648.1104;0;0;0;-20.79199;4.599186;636.326;631.8748;-0.3919403;-0.192282;0;
501.5325;0;0;0;-20.90482;3.991718;495.0073;487.6246;-0.001742434;-0.3220235;0;
173.6931;0;0;0;-22.15661;7.805612;169.9855;164.3594;0.06322666;0.06810413;0;
229.1156;0;0;0;-21.93327;7.462854;223.9125;221.1031;-0.3916083;-0.5166703;0;
-63.77996;0;0;0;-24.72427;17.03367;-63.35567;-66.97435;-0.3262474;-0.8409879;0;
-604.1942;0;0;0;-25.77116;20.49955;-599.2101;-602.0756;0.06388443;-0.3853715;0;
-513.0701;0;0;0;-19.71704;19.07243;-512.0266;-511.5783;0.1937549;0.004819747;0;
-215.7038;0;0;0;-18.62551;21.12961;-216.4104;-217.087;0.1285929;0.2646843;0;
-245.1596;0;0;0;-16.53069;19.5679;-244.3038;-248.4155;-0.001470997;0.199451;0;
88.66903;0;0;0;-14.63806;19.07936;83.96427;80.04412;-0.1314042;0.3941526;0;
641.3021;0;0;0;-18.10696;20.4667;630.6051;627.0012;0.06362986;0.3937566;0;
497.2298;0;0;0;-18.691;19.5085;491.0413;485.3171;0.1285333;0.1334915;0;
177.1408;0;0;0;-14.45266;18.95303;173.8321;169.1132;-0.1314653;0.1333574;0;
224.6264;0;0;0;-12.42841;18.53209;218.7598;217.2939;-0.1963005;-0.3865153;0;
-70.95085;0;0;0;-21.86039;11.74832;-71.62671;-73.34093;-0.001201229;-0.386127;0;
-605.9856;0;0;0;-23.98188;9.057316;-599.7892;-600.9395;0.1287347;0.1339998;0;
-513.1106;0;0;0;-18.19798;11.66043;-510.2937;-508.6942;0.25854;0.003930423;0;
-211.6213;0;0;0;-19.78728;10.77793;-211.8682;-212.0819;0.5181496;-0.2559429;0;
-245.2666;0;0;0;-9.652369;10.56615;-243.3894;-247.2261;0.3227269;-0.1907184;0;
84.12688;0;0;0;-6.092698;10.01967;80.81732;77.54673;-0.2623034;-0.2554941;0;
650.7575;0;0;0;-16.5364;11.08133;640.2049;637.3749;-0.00217051;-0.3202047;0;
506.4883;0;0;0;-16.65351;11.00322;500.0068;494.8058;0.257701;-0.2549156;0;
171.46;0;0;0;-19.24874;9.58564;168.1084;164.4119;-0.3922313;-0.05975746;0;
229.6959;0;0;0;-19.83261;9.375059;224.2237;223.4045;-0.2619025;-0.05969741;0;
-57.57814;0;0;0;-22.96052;5.815544;-57.17274;-59.30301;0.193132;0.200232;0;
-605.8696;0;0;0;-26.08528;4.470164;-597.9059;-600.0341;0.06300329;0.3949328;0;
-513.4945;0;0;0;-10.58638;3.72886;-508.0376;-508.0396;0.1928747;0.06969925;0;
-209.0063;0;0;0;-7.294185;2.452438;-206.7408;-208.2421;-0.002221159;-0.1252728;0;
-244.4659;0;0;0;-10.0999;5.062186;-240.6409;-244.7019;-0.3270556;-0.06017961;0;
86.67592;0;0;0;-7.276708;6.195809;85.687;81.50513;-0.2617597;-0.1250865;0;
646.245;0;0;0;-15.64214;3.77832;639.8848;634.4578;-0.326464;0.06994125;0;
502.8549;0;0;0;-17.63616;4.310387;501.3112;493.3908;-0.06626659;-0.1899984;0;
178.2001;0;0;0;-13.33153;7.65508;178.407;173.743;0.06373467;-0.4496769;0;
221.1244;0;0;0;-13.65292;9.187996;218.7074;218.2335;0.128638;0.005546359;0;
-77.07306;0;0;0;-14.24144;12.32684;-72.99087;-74.83861;0.4533454;-0.05942655;0;
-606.417;0;0;0;-13.42382;14.59187;-596.092;-597.5007;0.3229552;-0.1243342;0;
-515.2282;0;0;0;-16.29072;12.09884;-509.0366;-508.0699;0.192696;0.2655948;0;
-216.9227;0;0;0;-17.34608;10.81401;-213.236;-214.8316;0.06256773;-0.05950878;0;
-249.7506;0;0;0;-7.013525;18.97494;-244.6308;-248.6611;0.06250486;-0.254351;0;
68.09071;0;0;0;-3.656599;20.49636;66.27131;64.24411;0.1274094;0.07074128;0;
640.7969;0;0;0;-9.346353;13.4428;631.7954;629.8952;-0.00265331;-0.0592645;0;
509.4062;0;0;0;-9.270588;13.56326;505.0365;500.577;0.2572187;0.07072975;0;
166.7539;0;0;0;-4.505851;5.377835;166.8238;162.4312;-0.06787644;0.005691325;0;
226.1814;0;0;0;-2.692662;2.55927;223.6275;221.5507;-0.2627103;-0.1242491;0;
-56.96621;0;0;0;-8.383384;7.178399;-55.33208;-57.15695;0.1923251;0.1357452;0;
-613.6916;0;0;0;-9.51306;5.89851;-603.3135;-604.8867;-0.4575416;-0.189228;0;
-525.2441;0;0;0;-4.011145;17.21246;-517.2502;-516.8228;-0.6519839;-0.3189725;0;
-212.4983;0;0;0;-2.801666;21.61591;-209.1976;-210.2074;0.1282794;0.07115205;0;
-246.705;0;0;0;-7.085758;16.50361;-241.9708;-245.6657;-0.1317189;0.3309499;0;
78.56705;0;0;0;-8.552507;18.69746;77.7992;74.92008;-0.6513253;0.3306174;0;
641.6425;0;0;0;-2.113552;15.86539;634.691;631.6899;-0.2608668;-0.05951888;0;
500.0687;0;0;0;-1.776636;14.50992;497.6844;492.0625;0.06423206;-0.05945908;0;
177.6655;0;0;0;-2.91295;22.60003;177.4075;172.6659;-0.5205386;0.3304047;0;
227.1495;0;0;0;-2.106716;24.65379;224.7679;223.6542;-0.2601461;-0.1246987;0;
-76.30132;0;0;0;-11.81651;18.60068;-72.68357;-73.29638;0.5197234;-0.3194754;0;
-614.0168;0;0;0;-14.8861;19.25181;-604.843;-605.0179;0.1293971;0.005682324;0;
-520.3841;0;0;0;-13.39727;17.49091;-515.0926;-513.0184;-0.260537;-0.1892254;0;
-225.3842;0;0;0;-16.06313;16.80351;-222.7842;-221.2119;-0.06537318;-0.2540026;0;
-254.8304;0;0;0;-10.21984;24.48954;-250.2964;-250.8496;-0.0653075;0.07108933;0;
82.63119;0;0;0;-8.468259;26.13939;82.0382;81.48555;-0.06524187;-0.0589168;0;
648.3887;0;0;0;-15.89449;29.39528;641.0497;639.6855;-0.0002089769;-0.3836943;0;
506.4333;0;0;0;-16.74917;31.24115;503.0996;499.9877;-0.1301434;-0.1884068;0;
171.4675;0;0;0;-11.30636;31.74562;171.4481;170.6506;0.06488934;-0.2531848;0;
225.6429;0;0;0;-9.487316;33.38829;223.3121;225.2641;0.1947588;-0.5127997;0;
-58.37868;0;0;0;-13.89841;26.58959;-55.3348;-54.19691;-0.0003388939;-0.2524151;0;
-609.2931;0;0;0;-14.48668;24.68735;-599.0684;-597.9941;0.1295961;0.2675773;0;
-525.8475;0;0;0;-7.706973;24.79651;-519.0063;-516.5588;-0.2603381;0.2023411;0;
-221.1595;0;0;0;-5.957917;22.69525;-217.5111;-216.5653;-0.4549786;-0.1876663;0;
-258.1061;0;0;0;-5.885557;23.54322;-252.5249;-254.3286;0.2601193;-0.2524451;0;
71.80006;0;0;0;-3.802562;21.77801;71.25374;69.45178;0.06495596;0.07264529;0;
644.3151;0;0;0;-4.870469;24.77024;636.3356;633.9108;-0.259946;0.3324417;0;
508.5481;0;0;0;-2.856819;25.48216;504.9494;500.0283;0.06515188;0.1372056;0;
177.3283;0;0;0;-6.135502;18.69152;178.1685;174.7516;-0.194783;0.07210039;0;
224.189;0;0;0;-7.268413;17.60101;223.5291;223.4264;-0.2595546;0.2019626;0;
-69.57619;0;0;0;3.388811;15.57384;-65.67524;-66.27757;0.3254123;-0.1880444;0;
-611.6088;0;0;0;4.457132;13.88374;-601.7772;-602.1291;0.5199873;-0.3827575;0;
-522.7886;0;0;0;9.074354;17.88864;-516.5276;-515.0051;0.4544975;0.007431199;0;
-226.2246;0;0;0;12.1467;18.87541;-221.7815;-222.3219;0.3241062;0.1373584;0;
-259.7303;0;0;0;1.953084;17.51679;-252.4806;-256.0815;-0.001056211;-0.05768163;0;
75.17494;0;0;0;0.946744;18.16902;77.54482;73.69772;-0.1959572;0.07231103;0;
638.4412;0;0;0;-3.542186;21.23185;634.9367;630.4063;-0.1307929;0.3970751;0;
504.5542;0;0;0;-6.485387;22.34923;504.8013;497.9641;0.06424051;0.07183938;0;
181.2095;0;0;0;-3.129968;25.13993;183.6427;177.4996;-0.0007913793;-0.1231348;0;
222.8814;0;0;0;-4.265899;27.25813;222.9384;220.1747;-0.3905946;0.006923573;0;
-69.88302;0;0;0;-0.3758707;24.55142;-63.51677;-66.52753;0.06456923;0.1368513;0;
-615.3511;0;0;0;-0.0407004;25.66546;-602.2446;-604.8151;0.5192757;-0.05818823;0;
-528.7135;0;0;0;2.035445;23.83125;-520.1804;-519.4999;0.06398258;-0.2530318;0;
-217.3385;0;0;0;2.836707;23.40541;-211.2503;-212.6319;-0.06601639;-0.2527775;0;
-260.161;0;0;0;1.360965;29.0752;-252.0174;-256.9584;0.06398463;-0.1225889;0;
61.75124;0;0;0;2.698768;30.18469;62.76522;59.51586;-0.001047011;0.007468993;0;
649.0814;0;0;0;-9.360384;31.82894;643.1604;639.2896;-0.195948;0.2023635;0;
524.4915;0;0;0;-12.49881;31.93092;522.8868;516.8335;-0.2607184;-0.1226765;0;
187.5087;0;0;0;-10.61122;36.05166;189.6536;186.2925;0.1293476;-0.252488;0;
230.5485;0;0;0;-13.94946;37.42207;231.5669;230.7704;0.1292176;-0.2522343;0;
-63.78532;0;0;0;2.407906;28.67694;-57.95789;-59.69059;0.2590225;0.1378233;0;
-606.7607;0;0;0;8.567429;26.70561;-594.38;-595.4238;0.6485662;0.5274888;0;
-520.4442;0;0;0;-8.922627;22.19105;-510.5746;-508.6188;0.3230779;0.007220057;0;
-221.3838;0;0;0;-11.32554;18.55167;-215.0224;-213.9431;0.1928185;-0.1876892;0;
-245.8364;0;0;0;3.154158;21.54726;-239.2315;-241.6516;0.4524942;-0.3824027;0;
85.74404;0;0;0;5.495513;20.85578;86.53274;83.92764;0.1272028;-0.5119531;0;
647.9377;0;0;0;-0.5382287;20.49991;643.7281;639.8763;-0.2627291;-0.1216346;0;
517.2271;0;0;0;-0.5376879;21.48406;518.6439;511.2352;-0.002595722;-0.2514471;0;
183.9996;0;0;0;-3.082743;18.91712;187.7888;182.8238;-0.06756046;-0.5110638;0;
222.7327;0;0;0;-4.820958;17.49159;223.707;223.0573;-0.3273619;-0.1857136;0;
-64.72177;0;0;0;-2.94108;27.1863;-58.0638;-59.15007;-0.002196293;0.2042771;0;
-605.1351;0;0;0;-3.80878;28.9674;-592.3619;-592.7599;0.3226426;0.1391045;0;
-520.7567;0;0;0;-4.541888;24.31659;-512.3691;-510.5803;0.3872858;-0.185872;0;
-211.8884;0;0;0;-5.474353;24.42612;-206.6951;-207.3444;0.451864;0.009216779;0;
-245.5334;0;0;0;-3.794889;18.64117;-238.6588;-242.1185;0.3864426;-0.05575982;0;
68.8054;0;0;0;-2.518278;17.41687;70.17593;67.28189;0.2561196;-0.1206711;0;
637.7628;0;0;0;-9.414624;10.43326;632.2604;628.5571;0.1259276;0.3342215;0;
511.2477;0;0;0;-10.27582;6.135994;508.6869;503.4881;0.125801;0.009048969;0;
178.4635;0;0;0;-5.309002;16.84685;177.6544;174.5223;-0.004260049;-0.3807642;0;
228.5714;0;0;0;-3.428633;17.56674;224.5147;224.0095;0.1906463;0.07438983;0;
-56.95237;0;0;0;-2.755603;18.41974;-56.13244;-56.7621;0.5152914;0.07431508;0;
-603.9327;0;0;0;-1.211617;20.27676;-596.242;-595.9965;0.1249696;-0.3155636;0;
-521.4295;0;0;0;4.61675;16.30451;-517.4947;-515.4378;-0.3299274;-0.3802139;0;
-218.1827;0;0;0;6.420772;15.81925;-216.5632;-216.6323;-0.004759155;-0.1849298;0;
-252.5086;0;0;0;13.98278;14.0618;-247.8298;-250.9598;0.3200823;-0.2497114;0;
72.14452;0;0;0;18.72513;11.83735;70.88416;68.63184;0.189826;-0.1844931;0;
644.2844;0;0;0;6.314106;13.09801;635.7789;633.4039;-0.07023408;-0.3792098;0;
513.2026;0;0;0;4.700172;12.41514;509.016;504.2696;-0.3950002;-0.5087634;0;
178.7923;0;0;0;5.298661;6.508293;177.296;173.9912;-0.2646686;0.01148652;0;
227.9003;0;0;0;1.408571;4.82718;223.2197;223.7288;-0.06950066;0.07644233;0;
-57.62276;0;0;0;10.85163;3.951552;-56.92638;-56.23044;-0.004463487;0.01139817;0;
-602.2286;0;0;0;11.71138;2.541062;-594.349;-593.9036;0.06050834;0.2062888;0;
-519.977;0;0;0;2.924726;6.490379;-517.1653;-514.7839;-0.004519801;0.01117944;0;
-214.6702;0;0;0;1.648989;7.019721;-215.9218;-215.9166;0.5152234;-0.1187665;0;
-246.1261;0;0;0;-2.103712;8.151256;-245.3774;-249.8699;0.6446404;-0.1836145;0;
73.46069;0;0;0;-4.177703;9.281775;68.58643;64.22338;-0.26555;0.01147204;0;
645.4119;0;0;0;-3.771363;9.138483;633.7959;629.6871;-0.4601853;0.3362972;0;
520.1385;0;0;0;-4.169715;10.46896;512.0324;506.366;0.1249832;0.0111226;0;
183.3474;0;0;0;-5.237253;6.372603;177.3734;173.7117;0.4496943;-0.3786926;0;
233.2005;0;0;0;-6.303717;5.629387;223.4844;222.6375;0.1244058;-0.4432794;0;
-48.20501;0;0;0;4.352537;8.905773;-54.22569;-56.25866;-0.07062126;-0.247932;0;
-596.4435;0;0;0;8.70242;9.231739;-597.0858;-598.5545;0.05938439;0.3370232;0;
-513.3231;0;0;0;0.7230731;11.23195;-519.7744;-518.1182;0.2542267;0.5315866;0;
-203.4004;0;0;0;1.593003;12.49334;-214.7177;-215.437;0.3189386;0.01131368;0;
-233.993;0;0;0;1.992568;12.94955;-244.4869;-249.0785;0.0587488;0.07626967;0;
84.58208;0;0;0;0.450324;14.27619;67.35215;64.13946;0.1886244;0.2061277;0;
652.3367;0;0;0;8.354101;14.93168;626.2535;622.6693;0.05850023;-0.1189161;0;
527.2437;0;0;0;9.483807;16.32331;502.9359;496.4817;-0.3313626;-0.5086007;0;
201.2526;0;0;0;5.723234;15.70407;179.5928;175.7688;0.1237418;-0.6380243;0;
260.7079;0;0;0;6.052275;16.0232;236.946;236.1242;0.1885848;0.01229018;0;
-27.84669;0;0;0;0.6211866;20.02596;-47.58672;-49.71946;0.1234279;0.4020819;0;
-591.2855;0;0;0;-0.4511645;21.14454;-606.1956;-607.7015;0.1233039;0.01187382;0;
-514.9794;0;0;0;-2.058301;20.25252;-535.6841;-534.5024;0.05821266;0.07682925;0;
-208.4908;0;0;0;-3.395404;19.69631;-232.7354;-233.1165;0.3829909;0.3366214;0;
-237.4541;0;0;0;-0.1777876;23.29347;-259.9877;-263.367;0.3176387;0.3362832;0;
88.05849;0;0;0;-1.51678;24.07386;57.98883;55.23765;-0.007517166;0.01110855;0;
656.0594;0;0;0;8.867221;19.42797;618.2739;615.463;-0.3323463;-0.248772;0;
531.4001;0;0;0;11.40293;19.81035;495.0893;490.9694;-0.3969797;-0.05361998;0;
198.7206;0;0;0;6.368607;12.08765;160.0724;158.393;-0.006776782;0.2712706;0;
243.4358;0;0;0;8.036171;8.994288;199.5167;200.0878;-0.07173731;0.01112866;0;
-34.35677;0;0;0;-3.894622;17.09006;-74.48365;-76.22449;-0.1366326;0.07608484;0;
-579.1734;0;0;0;-6.771096;16.80496;-613.7003;-615.5018;-0.2014626;0.5307798;0;
-504.6286;0;0;0;-5.625217;22.68245;-541.5571;-540.1709;-0.2662275;0.3353444;0;
-196.0264;0;0;0;-7.89674;25.60678;-236.8533;-236.5305;-0.07105801;0.0751381;0;
-228.7504;0;0;0;-0.4540662;18.54797;-272.4098;-275.0233;0.05894808;0.334932;0;
89.8819;0;0;0;0.0822535;17.8595;37.39585;36.4091;0.1238562;0.3995628;0;
669.8126;0;0;0;7.985425;17.70759;609.8205;608.7098;-0.3310397;0.00935722;0;
545.1393;0;0;0;12.33166;15.88138;489.0807;484.4728;-0.4606417;-0.05561952;0;
214.8198;0;0;0;6.358396;14.32482;161.3162;158.0249;0.1245272;0.2043057;0;
269.0141;0;0;0;9.165046;12.10011;211.3164;211.5891;-0.2004346;0.009198416;0;
-20.79812;0;0;0;0.9841632;11.15019;-75.68925;-76.16648;-0.4601026;-0.3156475;0;
-565.8157;0;0;0;-0.691765;10.06726;-616.2789;-615.9436;0.1900332;0.009506338;0;
-489.6602;0;0;0;6.207806;5.301477;-544.2581;-540.2999;0.5796462;0.3993008;0;
-196.6902;0;0;0;5.19719;3.755543;-255.2937;-253.0886;0.5140965;-0.1858065;0;
-222.6669;0;0;0;14.90388;3.617803;-283.8976;-284.8182;-0.1360935;-0.5104564;0;
103.3306;0;0;0;16.09533;2.542441;33.16588;34.05783;-0.6556955;0.009795175;0;
673.8774;0;0;0;18.69113;8.501245;597.4739;597.8027;-0.1352979;0.2046874;0;
556.5714;0;0;0;21.28432;11.30599;485.4296;482.1349;-0.00522728;0.1395144;0;
222.9921;0;0;0;5.388096;7.208789;154.0456;152.0036;-0.3950261;-0.3803646;0;
267.2456;0;0;0;2.234851;8.139185;194.6204;194.8918;-0.1347598;-0.315015;0;
-8.446961;0;0;0;-4.532549;12.95366;-77.87582;-77.9795;0.3851143;0.2700076;0;
-558.3495;0;0;0;-9.886629;14.54823;-623.7731;-622.9397;0.1898254;-0.05510045;0;
-488.8857;0;0;0;-4.785504;17.01198;-558.4289;-556.222;-0.1352021;0.1398569;0;
-176.6136;0;0;0;-7.058848;18.66934;-249.6477;-249.8168;-0.005131546;0.4645531;0;
-211.7309;0;0;0;0.1828898;18.51661;-283.6297;-286.7971;-0.07009373;-0.0556524;0;
95.95226;0;0;0;1.924018;19.36879;18.62855;15.65172;-0.1349906;0.07433822;0;
680.3121;0;0;0;2.123156;17.67475;594.4454;591.3466;0.06004702;0.4640676;0;
565.9356;0;0;0;4.934062;17.18823;483.6535;477.5593;-0.004980656;0.008829871;0;
231.5348;0;0;0;-4.314297;18.17558;152.3338;146.808;-0.1998777;-0.186081;0;
289.3354;0;0;0;-5.582759;18.29129;204.7793;202.8822;-0.2646442;0.009007974;0;
2.001518;0;0;0;-5.175008;17.87101;-78.84651;-80.99157;-0.06947624;-0.1209358;0;
-558.9685;0;0;0;-6.509955;18.38892;-633.0511;-634.4445;-0.004439088;0.009120439;0;
-485.0687;0;0;0;-5.163267;18.57139;-562.95;-562.218;-0.06940197;0.2689807;0;
-186.1064;0;0;0;-6.229806;19.08859;-267.4076;-270.237;-0.1342996;0.008841002;0;
-213.5929;0;0;0;0.6753297;22.08364;-294.6251;-301.0748;0.06073739;-0.3160046;0;
120.7037;0;0;0;2.684383;23.20004;32.63158;27.37525;0.1256437;-0.3156871;0;
688.2346;0;0;0;-1.605222;25.78906;593.8167;588.3782;-0.3292539;-0.0555005;0;
560.9193;0;0;0;-1.670958;27.30364;470.3443;463.3496;-0.1340211;0.07448997;0;
237.9552;0;0;0;-2.472586;24.86494;148.2833;143.5445;0.4508197;-0.05551958;0;
279.0078;0;0;0;-2.537451;23.96918;185.0533;183.9424;0.3853993;-0.05546379;0;
-12.31374;0;0;0;-7.02288;26.28949;-101.3013;-102.4111;-0.199694;-0.05540806;0;
-556.3404;0;0;0;-8.287644;25.7942;-638.8043;-640.4127;-0.2644607;0.009614956;0;
-481.1314;0;0;0;-7.878151;20.81166;-566.6984;-566.9308;0.1256091;0.07457265;0;
-173.5523;0;0;0;-9.276755;18.58031;-261.657;-263.1386;0.2554176;0.009530364;0;
-207.1734;0;0;0;0.3107597;18.02578;-294.2525;-298.1065;0.3201283;0.1394555;0;
104.878;0;0;0;4.196189;17.13689;11.82692;8.351683;-0.1349648;0.2042827;0;
686.5427;0;0;0;-1.837223;13.43573;586.9634;582.3048;-0.3297312;-0.05579194;0;
571.5977;0;0;0;-0.1604374;13.02034;475.3045;468.8389;-0.00456317;-0.1207032;0;
231.6315;0;0;0;0.9114507;13.6101;138.3085;133.786;0.06040876;-0.0556146;0;
273.4401;0;0;0;1.312677;14.0653;178.7117;176.6924;-0.2644886;0.07437598;0;
-3.570532;0;0;0;5.530916;22.22285;-93.01888;-95.41091;-0.1342882;0.3341706;0;
-547.1062;0;0;0;5.123217;26.15251;-630.78;-633.5445;0.1906834;0.2039002;0;
-476.8416;0;0;0;11.68215;26.93003;-564.8666;-565.7542;0.3204265;0.1387279;0;
-178.762;0;0;0;13.14428;29.51518;-269.3222;-271.0211;0.3850719;0.2035559;0;
-216.126;0;0;0;5.696336;34.77705;-303.3469;-306.7307;0.2547503;-0.05651804;0;
110.4271;0;0;0;5.021027;37.68924;17.17195;15.97801;0.189527;-0.1863959;0;
690.2747;0;0;0;-6.370872;35.84295;589.9918;588.0494;-0.07053283;0.008693386;0;
563.8942;0;0;0;-11.79045;36.94564;468.7096;462.3964;-0.2003966;0.3335214;0;
234.8053;0;0;0;-8.764498;34.69808;142.7148;137.7822;-0.0702606;0.4631209;0;
287.6052;0;0;0;-13.0426;34.12735;193.7956;192.866;-0.005222661;0.3327209;0;
4.958114;0;0;0;-4.187258;32.01659;-82.07304;-83.0642;-0.005217413;0.2024519;0;
-553.7036;0;0;0;-1.370012;28.56841;-634.5253;-634.8908;-0.2001142;0.3321832;0;
-485.6811;0;0;0;-15.16736;37.24725;-570.8569;-569.4105;0.1249236;0.4617841;0;
-172.7252;0;0;0;-16.62502;36.8749;-260.3766;-261.1805;0.3846674;-0.05841869;0;
-214.6554;0;0;0;-14.26379;34.09167;-299.0329;-302.9594;0.1893789;-0.5780987;0;
96.09166;0;0;0;-15.45588;34.9282;7.426139;4.815462;-0.3305501;-0.1227465;0;
692.1329;0;0;0;-8.005609;20.89403;597.3721;594.6392;-0.5900874;-0.05765577;0;
579.119;0;0;0;-5.183549;18.12674;489.6382;484.0345;-0.1996904;0.1373042;0;
238.458;0;0;0;-10.6707;15.02743;152.0032;147.7794;0.125347;0.3970356;0;
291.6915;0;0;0;-10.52625;11.12744;201.3256;199.9796;0.125221;0.07179995;0;
5.791983;0;0;0;-4.889599;23.03886;-79.17329;-81.08021;-0.004839485;0.006760447;0;
-557.6182;0;0;0;-2.673883;23.95347;-634.3771;-636.3446;0.06013272;-0.318083;0;
-482.0955;0;0;0;-3.475479;29.89076;-562.0258;-562.1796;0.384909;-0.3827308;0;
-179.0757;0;0;0;-1.060114;33.0088;-261.6742;-262.9524;-0.005281802;0.2023599;0;
-217.8761;0;0;0;-5.345956;26.67936;-297.768;-302.1059;-0.07024384;-0.05771284;0;
106.4299;0;0;0;-6.881802;25.7819;21.43341;17.91199;0.1247288;-0.1875895;0;
684.7197;0;0;0;4.244524;22.47383;593.062;589.6066;-0.1352659;-0.1224337;0;
564.5917;0;0;0;5.110915;21.11171;476.7743;470.9485;-0.07016267;-0.5121147;0;
230.6295;0;0;0;9.124268;8.029069;146.0862;142.3278;-0.005124826;-0.1867634;0;
274.6255;0;0;0;12.73242;2.260591;189.48;188.4115;-0.005119676;0.3981303;0;
-9.820076;0;0;0;-2.619341;7.482866;-87.69615;-90.07542;0.5146242;0.1378609;0;
-560.5958;0;0;0;-5.764541;4.662186;-631.1473;-633.1494;0.4491398;-0.05717967;0;
-483.9458;0;0;0;-4.619673;12.29331;-558.8616;-557.8007;0.1238518;-0.1220895;0;
-175.3019;0;0;0;-8.299703;14.89329;-251.2045;-251.8938;0.253662;-0.1869342;0;
-208.609;0;0;0;-2.396865;8.91697;-280;-284.4367;0.3183745;0.008155638;0;
99.19604;0;0;0;-2.6619;9.711805;21.50497;18.00976;-0.3316189;0.0731148;0;
672.1833;0;0;0;-2.860296;9.836013;588.3234;585.5814;-0.6561224;-0.2517954;0;
562.0629;0;0;0;-1.048761;10.62992;484.6591;479.421;-0.2006917;-0.1216077;0;
222.9808;0;0;0;-10.15739;10.82019;148.5908;144.6074;-0.07055536;0.2683186;0;
268.4213;0;0;0;-12.15691;12.48377;192.1695;191.8133;-0.1354518;0.2030816;0;
-4.273988;0;0;0;-8.460025;11.66743;-73.70254;-74.37078;0.2544883;-0.2518938;0;
-564.4881;0;0;0;-9.992743;12.39252;-626.2257;-626.6434;0.514102;-0.3166081;0;
-497.5793;0;0;0;-2.213169;20.016;-562.5032;-560.9214;0.3836507;-0.0564206;0;
-180.4884;0;0;0;1.138933;21.73732;-248.4706;-248.5771;0.05842854;-0.05636391;0;
-212.7907;0;0;0;-8.039239;29.35141;-278.893;-280.3112;-0.07156485;0.07362743;0;
96.83006;0;0;0;-7.427948;33.20681;25.60934;24.8172;-0.2014276;-0.1863159;0;
673.3179;0;0;0;-7.889976;27.27907;595.7345;593.8187;-0.2661926;-0.1211614;0;
556.9495;0;0;0;-9.020147;27.8545;485.1912;481.1534;0.123879;0.2037971;0;
221.2459;0;0;0;0.2323166;21.93214;155.2443;152.1476;0.05878714;0.2685596;0;
268.2498;0;0;0;1.705952;18.76203;201.1276;200.4703;-0.2011413;0.2682898;0;
-15.00246;0;0;0;3.981413;22.29315;-75.62295;-77.40404;-0.1359718;-0.3166859;0;
-572.6446;0;0;0;5.718725;20.5963;-624.8334;-626.8;-0.2008026;-0.381335;0;
-501.1673;0;0;0;2.832591;19.70482;-556.1772;-555.8306;-0.1356335;0.2037542;0;
-192.756;0;0;0;3.700401;18.54631;-249.1474;-250.9876;0.1893395;0.07361484;0;
-223.4218;0;0;0;-6.148955;18.4607;-275.6336;-280.4704;0.1241819;0.008573511;0;
95.45499;0;0;0;-9.961169;18.10723;37.11126;33.71611;-0.3956816;-0.05640244;0;
672.3815;0;0;0;-2.449072;15.07493;606.5377;603.2084;-0.6551533;0.00862157;0;
553.8901;0;0;0;-1.843399;14.45693;495.2339;489.2218;-0.1347563;0.1385476;0;
211.6304;0;0;0;-5.927383;10.5574;159.3424;154.7107;0.1902158;0.07344105;0;
255.1457;0;0;0;-6.859432;8.135525;201.0987;200.4072;-0.4596488;0.2682693;0;
-17.72361;0;0;0;-0.8243201;14.02173;-65.71934;-66.66006;-0.2642849;0.3979344;0;
-571.5524;0;0;0;-0.7561429;14.87842;-612.3785;-613.0059;0.5155888;0.5274692;0;
-507.9473;0;0;0;0.6511365;11.44734;-551.9183;-549.2342;0.1252667;0.6568739;0;
-195.7811;0;0;0;0.5831332;12.03868;-241.1446;-240.5247;-0.5245326;0.5912465;0;
-224.6322;0;0;0;-2.297841;8.744541;-266.7643;-270.0181;-0.1342015;0.3957504;0;
85.62514;0;0;0;-1.491249;6.927216;38.72532;36.03699;0.06083536;0.07051608;0;
666.2472;0;0;0;-17.4983;13.21653;612.2731;609.1502;-0.004193109;0.07044522;0;
555.1957;0;0;0;-21.9687;13.33721;505.7736;500.0302;0.5805172;0.07037444;0;
214.1215;0;0;0;-18.06186;12.65398;170.4962;165.5706;0.3850318;-0.1245983;0;
253.9488;0;0;0;-21.12517;12.97618;209.4302;207.3206;0.05980826;-0.2544078;0;
-22.97984;0;0;0;-6.300838;7.805582;-61.39422;-63.62658;0.2546502;-0.2541522;0;
-572.4305;0;0;0;-1.73918;6.726012;-602.3106;-604.6656;-0.1354097;-0.2538968;0;
-509.5117;0;0;0;-5.555826;3.370229;-543.0474;-542.7139;-0.005338993;-0.318609;0;
-203.5908;0;0;0;-1.932921;1.49132;-240.4036;-241.6946;0.1895684;-0.5781583;0;
-231.2472;0;0;0;-6.687376;3.030429;-263.5877;-267.6886;-0.005524107;-0.5775773;0;
79.32917;0;0;0;-7.483964;1.955657;43.58534;41.05033;0.3842855;-0.1222256;0;
658.8331;0;0;0;-2.051437;7.111256;616.1287;613.5963;0.7737033;-0.05713541;0;
550.8501;0;0;0;-2.384168;8.778684;512.6238;507.4078;0.3831219;-0.3819147;0;
208.8432;0;0;0;-1.175348;7.028306;174.5285;170.8169;-0.007067072;-0.2515963;0;
251.112;0;0;0;-0.03606702;8.360903;214.4579;214.4357;-0.07202731;0.008525894;0;
-18.50491;0;0;0;-6.733836;5.271287;-49.0627;-49.64711;-0.07195494;0.07348468;0;
-573.5198;0;0;0;-7.396655;4.596283;-595.6761;-596.6972;-0.2667847;0.2033455;0;
-514.9727;0;0;0;-6.317496;7.002929;-539.4805;-538.3142;-0.2015493;0.2681085;0;
-204.6734;0;0;0;-5.976356;6.861926;-230.531;-230.8651;-0.006444713;0.007969771;0;
-235.0774;0;0;0;-7.109426;6.319168;-256.2863;-259.9933;-0.1363729;-0.3818423;0;
73.69122;0;0;0;-10.31746;5.509023;48.6306;45.48949;-0.2661706;-0.7062953;0;
658.3857;0;0;0;7.175327;8.517719;626.6037;623.4658;-0.1359684;-0.1208796;0;
552.1522;0;0;0;9.646363;9.84882;524.5251;518.7041;-0.005897138;0.1391113;0;
207.2705;0;0;0;1.130205;3.810581;183.919;179.7905;-0.1358259;-0.2508326;0;
244.7933;0;0;0;1.798654;3.203906;221.4652;220.7767;-0.2656241;-0.3155479;0;
-31.12661;0;0;0;-16.82368;3.535602;-47.87206;-49.55939;-0.005487834;-0.2502635;0;
-582.3182;0;0;0;-22.03168;2.929203;-591.6756;-593.2988;0.05948502;0.009857376;0;
-515.5164;0;0;0;-25.55952;7.681925;-526.8633;-526.361;0.1893599;0.2047495;0;
-207.2781;0;0;0;-30.35661;9.147831;-220.925;-221.0478;-0.00573236;0.2695111;0;
-236.1177;0;0;0;-21.48485;9.272605;-246.9398;-248.8741;-0.2006286;0.3342077;0;
74.77586;0;0;0;-21.93177;10.06708;60.02916;57.9719;-0.07049235;0.4638065;0;
647.2255;0;0;0;-8.044636;11.73142;626.1218;623.5043;0.1244805;0.3983732;0;
535.8183;0;0;0;-2.275776;12.05455;519.1086;514.12;-0.005579255;-0.1867332;0;
202.0724;0;0;0;-5.020156;10.16691;189.0651;185.5183;-0.3304104;-0.1215783;0;
242.2865;0;0;0;-0.2596896;8.884142;227.7306;227.6856;0.05972569;0.1384133;0;
-34.00568;0;0;0;-10.17241;6.396847;-42.67488;-43.7818;0.319535;0.008339511;0;
-586.6937;0;0;0;-10.36326;4.113122;-587.3582;-589.7134;-0.2005248;0.1382658;0;
-527.7585;0;0;0;-13.63441;1.496654;-529.5468;-529.9006;0.05954609;0.008192201;0;
-212.6988;0;0;0;-17.57282;-0.4472328;-215.9221;-216.5254;0.384323;-0.2516854;0;
-239.0967;0;0;0;-2.417264;-3.327049;-240.8175;-243.7315;-0.2657366;-0.1864652;0;
62.99182;0;0;0;-0.7408717;-4.32845;54.65109;52.67699;-0.5253389;-0.05634312;0;
643.5117;0;0;0;-0.1369149;-6.601399;628.87;626.0858;-0.3948764;-0.1212538;0;
537.0433;0;0;0;2.275096;-7.934424;527.1014;521.1966;-0.3295123;-0.2510667;0;
193.1138;0;0;0;-5.430349;-1.496212;186.5552;182.218;-0.06931184;-0.05591239;0;
240.3334;0;0;0;-6.96611;-0.6909138;231.1578;230.4481;-0.1342095;0.3339478;0;
-28.0858;0;0;0;-10.64281;4.534327;-32.0673;-32.21403;0.06082734;0.3336123;0;
-588.1511;0;0;0;-14.18209;8.146728;-583.6328;-583.3421;0.1257336;0.008440362;0;
-524.4668;0;0;0;-13.09611;0.9714898;-521.8271;-519.975;-0.2641968;-0.3164048;0;
-209.9726;0;0;0;-14.95798;1.908275;-210.3341;-210.1705;0.19084;-0.1861522;0;
-242.8075;0;0;0;-17.5559;0.03083512;-241.7944;-244.3171;0.515485;0.1388716;0;
64.03234;0;0;0;-18.67636;-0.5049373;59.17244;57.08955;0.06019563;-0.05617003;0;
639.2413;0;0;0;-19.66294;5.255858;628.4518;626.0587;-0.1347669;-0.05611359;0;
530.3409;0;0;0;-20.1117;6.724202;524.1849;520.045;-0.1346315;0.1388448;0;
198.9743;0;0;0;-17.01003;12.41087;196.0104;193.4989;-0.4593329;0.008770625;0;
239.0042;0;0;0;-15.05056;15.81441;234.2316;234.2839;-0.8486754;-0.05620553;0;
-43.21922;0;0;0;-16.37558;16.40137;-43.30183;-43.31212;-0.003247212;0.2037203;0;
-588.839;0;0;0;-14.68419;18.46136;-582.6122;-581.8729;0.3865601;0.2035156;0;
-522.4055;0;0;0;-12.9945;20.31821;-517.934;-515.0715;-0.1985344;-0.1864929;0;
-217.6584;0;0;0;-11.77599;21.63745;-215.1905;-213.8926;-0.3932369;-0.2512729;0;
-241.9899;0;0;0;-4.932631;19.47238;-237.4005;-239.6021;-0.2629071;-0.3809551;0;
61.66325;0;0;0;-2.047287;18.58203;62.25003;59.67582;0.06219376;-0.6404417;0;
635.7502;0;0;0;-0.504988;19.03224;630.9016;627.6428;-0.002836074;-0.2499941;0;
537.473;0;0;0;2.845398;17.94139;536.6273;530.9355;-0.1327679;-0.1847756;0;
190.7944;0;0;0;-3.52145;16.44974;192.1984;188.8862;-0.06766716;0.1402468;0;
226.3347;0;0;0;-5.058153;15.2945;224.9262;225.9276;-0.1975338;0.2050733;0;
-32.70011;0;0;0;3.587118;14.20753;-29.67191;-29.79594;-0.06740069;-0.05500219;0;
-588.2005;0;0;0;4.254075;13.79135;-578.6786;-579.4897;-0.002365619;0.2049225;0;
-535.1983;0;0;0;4.249801;12.50482;-527.8099;-526.1839;-0.06733058;0.009814507;0;
-215.9458;0;0;0;5.986843;12.82717;-210.8761;-210.0638;0.1276391;-0.2500647;0;
-245.5263;0;0;0;0.1536779;12.88126;-237.9006;-240.275;0.0625435;0.07502327;0;
57.3183;0;0;0;0.08617449;13.40418;59.62656;57.56688;-0.1324214;0.2048826;0;
640.2802;0;0;0;1.024093;16.67276;634.9025;633.2821;0.06261372;0.3346114;0;
528.1928;0;0;0;1.6253;17.19187;527.4432;523.6381;0.3873875;0.3992425;0;
187.7704;0;0;0;3.767121;23.7388;190.5198;188.3427;0.3220309;0.2689067;0;
229.7481;0;0;0;3.227472;26.26018;230.4332;231.6316;-0.2629987;0.07373444;0;
-45.46957;0;0;0;15.88388;20.07148;-39.16293;-38.71537;-0.1327998;-0.05627435;0;
-588.7133;0;0;0;19.0831;18.97971;-575.1666;-574.5946;0.3870724;-0.1861525;0;
-526.7776;0;0;0;14.84437;17.01813;-515.8682;-513.2977;0.2567488;-0.3159001;0;
-219.9647;0;0;0;16.0349;14.38882;-212.752;-212.0582;-0.1333133;-0.185648;0;
-243.2319;0;0;0;5.167799;13.8385;-235.1518;-236.8325;-0.3280813;-0.1204941;0;
62.85876;0;0;0;1.478911;12.88683;65.93322;65.3162;-0.2627843;-0.2503077;0;
642.3793;0;0;0;1.209005;4.836054;639.2662;637.9627;-0.002650924;0.07478049;0;
529.6652;0;0;0;-0.9356636;1.415187;530.928;527.1271;0.3221884;0.2696074;0;
173.3118;0;0;0;-3.614041;7.910988;178.6339;177.5853;0.19193;0.009467085;0;
220.9886;0;0;0;-5.284372;7.836056;224.9935;227.819;-0.3280016;0.3342943;0;
-34.91744;0;0;0;2.424096;6.287575;-25.8566;-24.53313;-0.002835271;0.2040237;0;
-595.8504;0;0;0;4.564138;4.874615;-579.9271;-579.0422;0.3869716;-0.2509527;0;
-544.0274;0;0;0;5.363836;10.09426;-530.9312;-527.486;-0.003221253;-0.05579852;0;
-222.767;0;0;0;6.296451;11.22283;-212.7449;-211.6145;-0.3280547;0.07419225;0;
-250.9039;0;0;0;12.58579;-0.1753002;-239.0178;-241.6992;-0.1328231;0.2040524;0;
44.82469;0;0;0;15.6546;-2.787336;51.01417;49.14762;-0.06772227;0.07391267;0;
627.4868;0;0;0;5.457465;-5.597819;626.9858;624.9338;0.2571825;-0.0560963;0;
526.0944;0;0;0;4.849745;-8.271389;529.7169;525.1057;0.3868588;0.07389477;0;
187.798;0;0;0;-2.256051;-8.865925;194.7278;191.6205;0.06163333;-0.1860489;0;
230.4628;0;0;0;-7.27665;-10.33064;235.1992;235.7806;-0.06836329;-0.1208946;0;
-45.06787;0;0;0;7.39907;-5.497611;-36.21333;-35.32014;-0.00332725;0.463933;0;
-594.2465;0;0;0;9.803509;-3.95148;-578.1545;-577.3871;-0.003323907;0.07366277;0;
-536.0533;0;0;0;4.100231;-2.674834;-522.1639;-519.7107;-0.3281573;-0.7060193;0;
-233.3541;0;0;0;5.435282;-0.9975726;-222.8519;-221.4007;-0.4577622;0.00933081;0;
-256.4204;0;0;0;5.764613;2.151505;-244.5545;-245.3536;-0.2624002;0.4640929;0;
48.2467;0;0;0;6.429382;4.761556;54.66595;54.4299;-0.06723455;-0.1860469;0;
626.1577;0;0;0;9.437032;0.2690372;626.0113;625.4007;-0.002199653;-0.1208926;0;
529.7017;0;0;0;10.83407;0.2017839;533.6784;530.6321;-0.4569688;0.1390982;0;
183.4058;0;0;0;9.684107;0.2015812;190.7517;189.3952;-0.326575;-0.2508456;0;
222.889;0;0;0;9.205862;-1.40609;227.8538;229.5596;-0.001410134;-0.1206589;0;
-35.82999;0;0;0;12.74658;3.484955;-25.62282;-24.91828;-0.06637606;0.3342338;0;
-594.7006;0;0;0;12.39898;3.41447;-577.0074;-576.2411;0.3234947;0.00906121;0;
-542.3165;0;0;0;13.3909;2.406296;-528.1394;-524.3754;0.193235;-0.3807519;0;
-220.8704;0;0;0;14.65025;2.872758;-210.0184;-207.3826;-0.001861235;0.2043367;0;
-258.0672;0;0;0;1.372661;-3.359419;-244.8522;-245.4674;0.25801;0.5289681;0;
34.98248;0;0;0;-3.316791;-4.494753;42.37456;41.75997;-0.002118614;-0.05626948;0;
640.0806;0;0;0;4.388725;-7.303398;638.9071;637.8558;-0.3269532;-0.251115;0;
547.2963;0;0;0;3.513659;-9.908394;549.4973;545.5735;-0.19669;0.07397407;0;
194.7358;0;0;0;2.170958;-2.329489;201.6197;198.8243;-0.2614597;0.3337691;0;
235.9568;0;0;0;2.972083;-1.188438;240.9597;242.6649;-0.00132761;0.2684664;0;
-37.76778;0;0;0;-0.7819473;-2.861817;-27.46008;-25.75662;0.3235104;-0.05664008;0;
-592.7634;0;0;0;-0.9812563;-2.055146;-575.4695;-574.4549;0.1282833;0.07335153;0;
-537.6951;0;0;0;0.2915513;-1.651184;-524.0419;-521.4041;0.3880238;-0.05665687;0;
-232.8703;0;0;0;-1.047912;-0.7787466;-222.4166;-221.2183;0.2576993;-0.5763386;0;
-253.0635;0;0;0;8.463985;-3.859179;-240.8713;-242.1729;-0.1323638;-0.4458249;0;
51.53777;0;0;0;11.20215;-4.525131;59.09511;58.04468;-0.06726341;-0.1855076;0;
630.2576;0;0;0;2.750797;-3.582823;631.4355;629.8864;-0.1971305;0.1395156;0;
537.2332;0;0;0;2.346868;-4.182069;542.0956;538.674;-0.6517038;0.5291795;0;
192.8038;0;0;0;0.5358483;-0.02504706;201.222;199.3031;-0.5860816;0.07387632;0;
226.2806;0;0;0;-0.2689734;2.319381;232.1292;233.523;-0.3256234;-0.3809693;0;
-35.8776;0;0;0;-4.219842;-4.180172;-25.53717;-24.83191;-0.1953615;0.009217532;0;
-590.8751;0;0;0;-7.163339;-5.04675;-573.0488;-573.0939;0.1946388;0.2041103;0;
-544.8667;0;0;0;4.833926;1.522526;-529.5571;-526.6661;0.1944433;-0.1209315;0;
-231.1641;0;0;0;8.04425;2.05686;-218.681;-216.3551;0.06431321;-0.12081;0;
-255.9193;0;0;0;2.209017;5.939681;-241.6995;-243.6239;0.51902;0.07421344;0;
42.18817;0;0;0;3.478619;8.278115;50.33415;47.3498;0.3885638;0.1391062;0;
631.7869;0;0;0;3.073958;2.978268;631.429;628.3227;-0.1965327;-0.1858703;0;
539.1358;0;0;0;2.400308;3.511139;541.7143;537.1119;-0.3262699;-0.3805856;0;
190.3316;0;0;0;8.091324;0.4263961;197.4677;194.1193;0.1937966;-0.4451705;0;
230.8075;0;0;0;8.95385;-0.846586;237.0618;236.5278;0.3885039;-0.1848538;0;
-30.66814;0;0;0;5.797021;4.043897;-19.48507;-19.70616;-0.001690484;0.07520133;0;
-588.9192;0;0;0;4.987889;4.374748;-570.8134;-571.1592;-0.1316235;0.1400931;0;
-542.3506;0;0;0;4.245943;9.460933;-527.074;-525.6703;-0.1964585;0.074985;0;
-230.4621;0;0;0;4.040606;12.39855;-218.8241;-217.9216;-0.1962612;-0.2499271;0;
-252.157;0;0;0;-2.260094;7.965344;-239.2188;-241.5031;-0.2610313;-0.3146433;0;
50.38191;0;0;0;-4.333928;8.359238;57.68493;55.27798;-0.455671;0.1404443;0;
632.851;0;0;0;-1.449185;11.164;633.4;630.9955;-0.2603112;0.4651399;0;
536.0759;0;0;0;-2.117314;11.82261;540.5599;536.2213;0.1947218;0.3347378;0;
194.1464;0;0;0;4.247826;11.87772;200.8748;198.5395;0.2594935;-0.1203699;0;
233.244;0;0;0;7.726182;12.26768;237.5294;238.6322;0.1292981;-0.315151;0;
-34.48088;0;0;0;3.030345;11.98742;-25.13986;-24.41294;0.06420081;-0.1199323;0;
-590.8541;0;0;0;4.366471;12.17632;-574.3385;-573.7997;0.194071;0.01012286;0;
-538.9736;0;0;0;8.113128;13.63771;-524.0989;-520.7496;-0.001026044;0.2050147;0;
-222.4659;0;0;0;9.042981;14.7626;-209.6676;-207.8833;0.2588443;0.2697761;0;
-250.1658;0;0;0;12.85131;12.00159;-234.8191;-237.2845;0.7783229;0.3994397;0;
42.06378;0;0;0;13.50798;11.05177;52.14768;50.30944;0.2578022;0.528973;0;
629.2888;0;0;0;16.3748;17.8728;631.679;630.5922;-0.1972282;0.0736701;0;
537.6398;0;0;0;18.36808;19.26148;544.0255;541.1907;-0.1320627;-0.121306;0;
189.8366;0;0;0;9.508362;15.95996;199.7766;197.8817;-0.06696267;0.3985547;0;
230.3129;0;0;0;8.22601;15.54203;237.8691;238.1;0.2579413;0.2032522;0;
-29.03827;0;0;0;6.476433;14.52167;-16.30475;-16.57382;0.2576821;-0.1217888;0;
-589.6023;0;0;0;4.326471;12.96659;-569.5103;-569.2169;0.1924559;0.2031703;0;
-544.4698;0;0;0;10.14927;10.67614;-528.0836;-525.0418;0.2572298;0.07303149;0;
-225.6452;0;0;0;10.60759;8.321135;-213.0236;-210.5471;0.06206935;0.007990752;0;
-253.5918;0;0;0;13.61104;5.49949;-238.4841;-238.3839;-0.1978624;0.2678521;0;
36.14253;0;0;0;15.33965;2.345888;45.98766;46.02526;-0.3925656;-0.05725376;0;
623.436;0;0;0;15.25689;2.946378;625.2753;624.5007;-0.2622365;-0.05719623;0;
534.1041;0;0;0;16.71543;2.407554;539.5648;536.4796;0.1278311;0.007828584;0;
188.6159;0;0;0;12.4781;-6.838266;198.1939;196.7361;0.3226047;-0.1870813;0;
226.4697;0;0;0;11.39383;-9.644678;233.6019;235.144;0.1923458;0.008008698;0;
-36.75064;0;0;0;11.9856;-5.013287;-24.94054;-24.33696;0.1921526;-0.05696669;0;
-589.311;0;0;0;10.43331;-4.137471;-569.954;-568.8513;0.1269921;-0.2518115;0;
-543.7414;0;0;0;14.84346;-5.606938;-526.4654;-522.3653;-0.1979722;0.07327827;0;
-236.1619;0;0;0;17.30679;-5.26639;-221.402;-218.4929;-0.1328059;0.138172;0;
-253.5407;0;0;0;13.33729;2.106902;-238.5458;-238.763;0.1921642;0.2030005;0;
46.87564;0;0;0;18.01293;4.650015;54.29684;54.642;0.1270038;0.2677639;0;
631.7845;0;0;0;9.219948;3.774686;631.5146;632.2343;-0.003058483;-0.1223093;0;
541.4448;0;0;0;8.138957;4.440601;545.3605;543.2059;0.1268793;-0.3170884;0;
193.8252;0;0;0;32.84687;5.708815;201.7975;199.7075;-0.1331176;0.07303429;0;
238.233;0;0;0;36.8997;6.43989;244.1983;245.2963;-0.2629185;-0.0569738;0;
-27.81025;0;0;0;55.28305;-1.604288;-16.6036;-16.06894;0.3870191;-0.05691655;0;
-601.5564;0;0;0;65.47528;-4.348977;-581.7404;-581.8309;0.6464995;0.2679774;0;
-554.1005;0;0;0;43.70751;-5.148402;-536.3658;-533.5828;0.1261112;-0.05712862;0;
-228.2073;0;0;0;41.58749;-8.827168;-214.4884;-212.1454;-0.1338848;-0.05707122;0;
-255.3392;0;0;0;38.19582;-2.388059;-239.885;-240.5428;-0.458587;0.5926595;0;
32.27291;0;0;0;32.79979;-1.71583;43.02645;42.86902;-0.3931589;0.7869661;0;
624.0056;0;0;0;29.95281;-9.283055;628.1891;628.0942;-0.002959795;0.07153457;0;
536.6096;0;0;0;26.37274;-10.07752;544.2247;542.0685;-0.1328915;-0.253374;0;
187.0584;0;0;0;19.84951;-13.55039;197.352;196.6972;-0.1977253;0.2666193;0;
225.601;0;0;0;14.87307;-16.14898;234.0726;236.2296;-0.3274613;-0.05848532;0;
-37.681;0;0;0;29.72761;-9.70264;-23.97048;-22.19048;-0.1322303;-0.3182959;0;
-594.4258;0;0;0;33.18134;-9.090044;-573.8575;-571.0798;0.4526087;0.006860615;0;
-549.0385;0;0;0;29.39695;-10.75548;-531.3644;-526.2782;0.06234984;-0.1880483;0;
-240.5791;0;0;0;33.58697;-9.538984;-225.9213;-223.7762;-0.002680148;-0.317794;0;
-258.8905;0;0;0;23.90768;-12.81144;-241.9986;-243.9785;0.1272572;-0.2525074;0;
43.15541;0;0;0;21.53913;-12.46365;54.84549;53.67962;-0.1977074;-0.05735163;0;
620.5093;0;0;0;37.39232;-11.84828;624.7539;623.9016;-0.06757401;0.137608;0;
526.995;0;0;0;40.23514;-11.83638;535.4207;532.0705;0.1923633;-0.05743227;0;
183.263;0;0;0;37.1806;-5.059453;195.241;193.3933;0.1272026;-0.1873093;0;
222.1842;0;0;0;38.75083;-2.375052;232.1511;233.8036;-0.1977619;-0.1221537;0;
-31.5991;0;0;0;33.28591;-2.03775;-16.76964;-15.11884;-0.0676285;0.3977078;0;
-593.16;0;0;0;30.23836;0.5765094;-572.7233;-570.512;0.1923088;0.5922102;0;
-554.6456;0;0;0;37.77741;-0.09389925;-537.4153;-532.7699;-0.1976885;0.2667784;0;
-228.3145;0;0;0;38.67648;0.977922;-213.3504;-210.084;0.06237954;0.4614124;0;
-253.7597;0;0;0;28.32249;5.062776;-237.124;-236.7969;0.4521209;0.2010794;0;
28.97825;0;0;0;26.68644;7.402092;39.163;40.36436;0.2567646;-0.4487961;0;
626.8986;0;0;0;24.31608;4.179595;628.7648;630.5896;0.06160457;-0.2534431;0;
546.5587;0;0;0;22.08084;3.438583;551.9213;550.9957;-0.1333594;-0.1232537;0;
190.7506;0;0;0;29.89554;10.33413;200.0433;199.306;-0.06825801;-0.5129339;0;
226.2285;0;0;0;32.00895;10.92659;232.9507;235.525;0.1267126;-0.6423532;0;
-31.6193;0;0;0;30.23548;11.85337;-20.46865;-18.58408;-0.06831674;-0.5767404;0;
-591.2437;0;0;0;30.60724;13.2481;-571.4836;-570.6004;-0.1332154;-0.05642221;0;
-551.9191;0;0;0;38.07759;4.795063;-533.1158;-529.6099;-0.003146904;0.1385365;0;
-239.2089;0;0;0;40.25014;3.048811;-223.673;-221.0451;0.1917583;-0.3163741;0;
-253.961;0;0;0;35.52065;1.572123;-237.3787;-238.1268;0.3215003;-0.2510889;0;
41.58321;0;0;0;35.35123;-0.9746864;53.21386;52.90383;0.3861446;-0.05593453;0;
618.8762;0;0;0;31.76574;3.647993;624.1859;623.1265;0.5156913;0.1390237;0;
536.483;0;0;0;30.86316;3.24243;545.1606;541.1038;0.3202711;0.4637207;0;
198.9258;0;0;0;25.27245;6.521214;210.7181;208.1647;-0.1997895;0.5282221;0;
234.7079;0;0;0;22.43401;8.926046;244.7392;245.6241;-0.3295234;0.462724;0;
-26.08451;0;0;0;28.70811;1.482094;-11.19069;-10.24423;-0.004355589;-0.05747968;0;
-592.6485;0;0;0;28.07605;0.67681;-571.0231;-570.14;-0.06931856;-0.5771607;0;
-555.8212;0;0;0;34.34448;2.95355;-536.7162;-532.9605;-0.3291183;-0.446646;0;
-228.7393;0;0;0;36.25235;2.414718;-212.4022;-208.9626;0.06101648;-0.3162626;0;
-252.9972;0;0;0;34.27354;4.220831;-234.1152;-234.8645;0.3208245;0.00889193;0;
28.11584;0;0;0;36.31521;4.350434;41.48159;40.85803;0.1256001;0.1388177;0;
621.7267;0;0;0;26.83425;2.805577;627.1455;627.7095;0.320376;0.008743511;0;
539.7679;0;0;0;25.80291;1.93198;548.9293;547.8061;0.2550867;0.07370208;0;
191.1505;0;0;0;22.09231;3.470646;203.1138;202.9912;0.05992837;0.2035627;0;
231.438;0;0;0;18.05162;3.601125;242.3274;243.4543;-0.005099185;0.07342348;0;
-30.53794;0;0;0;35.98442;-2.363853;-14.34968;-14.2859;-0.2649634;0.2682517;0;
-592.2874;0;0;0;40.30252;-4.571914;-570.7431;-569.3676;-0.004827825;0.3979169;0;
-553.5239;0;0;0;33.49687;-4.299388;-534.1877;-529.9399;0.190079;0.2675824;0;
-240.3749;0;0;0;35.0708;-6.304434;-224.3689;-221.4997;0.05995338;0.07241147;0;
-254.5011;0;0;0;34.96822;-5.896324;-239.1984;-239.7679;0.05989313;0.137306;0;
40.6064;0;0;0;34.39722;-6.895021;50.39653;50.2024;-0.005134388;0.3970374;0;
622.3357;0;0;0;37.24304;-7.95982;625.7441;626.3623;0.3197075;0.2017365;0;
533.5671;0;0;0;37.54041;-7.884839;542.0947;540.3384;0.4493209;0.006631739;0;
185.5807;0;0;0;31.80927;-12.36465;199.0971;197.405;-0.1358366;0.1365598;0;
231.9958;0;0;0;30.50451;-13.08904;242.4376;244.1831;-0.3955695;0.006487859;0;
-16.67497;0;0;0;26.85653;-12.40606;-2.495464;-1.001654;0.189534;-0.253388;0;
-589.6827;0;0;0;23.48064;-12.86247;-569.5204;-568.5903;0.5791476;-0.1881661;0;
-563.1032;0;0;0;31.69607;-8.629745;-545.8348;-542.2195;0.253729;0.006925016;0;
-230.9541;0;0;0;33.0034;-7.683313;-215.5771;-214.0269;-0.07136266;0.1368528;0;
-254.3976;0;0;0;26.80829;-3.656739;-237.162;-239.4239;-0.006323611;-0.1231541;0;
14.34804;0;0;0;26.51294;-0.4380063;26.63132;26.12079;0.2535521;-0.2529651;0;
617.9052;0;0;0;27.82644;-7.336564;622.8049;622.6697;0.05839531;0.07212583;0;
543.509;0;0;0;29.00393;-7.463158;550.715;547.7689;-0.1365654;0.1370207;0;
175.7099;0;0;0;22.20963;-5.37931;186.9692;185.2129;-0.006493481;-0.1879537;0;
224.1339;0;0;0;18.63734;-6.244561;233.8202;235.5014;-0.0714543;0.007137179;0;
-15.84576;0;0;0;29.73803;-1.951501;-0.9218736;-0.2418237;-0.2662845;0.3319667;0;
-586.2306;0;0;0;28.43535;-2.083506;-563.8879;-564.7703;-0.3959517;0.2666658;0;
-550.5967;0;0;0;27.93729;-0.8087368;-531.9622;-530.7197;-0.2656191;0.1364632;0;
-231.0788;0;0;0;26.10153;-0.1382169;-216.2735;-214.9698;0.0594845;-0.253478;0;
-257.5207;0;0;0;18.43949;-6.099315;-241.6059;-242.24;0.2543268;-0.3181906;0;
31.40548;0;0;0;17.34924;-6.763016;42.24434;42.23551;0.1891039;-0.1879362;0;
620.3279;0;0;0;-11.13533;-10.84218;624.909;623.5259;-0.07095552;-0.05781271;0;
536.2465;0;0;0;-22.71207;-11.50099;544.3213;539.6287;0.05905046;0.2670821;0;
189.0694;0;0;0;-6.011107;-10.95357;200.1346;197.2583;0.4487952;0.006944359;0;
229.0468;0;0;0;-7.680006;-10.74174;237.7894;238.6642;0.1884749;0.07190474;0;
-21.74493;0;0;0;-5.863628;-2.224236;-8.763183;-7.514508;0.05835079;0.1367998;0;
-580.0674;0;0;0;-2.776277;0.9260751;-560.7894;-558.9797;0.3831289;-0.513011;0;
-549.2498;0;0;0;-3.10828;8.829009;-533.3644;-529.4951;0.2528092;-0.2526262;0;
-233.4189;0;0;0;-0.0246743;13.5758;-220.548;-217.9944;-0.1372489;0.00749699;0;
-255.1733;0;0;0;3.793744;12.02155;-239.7541;-240.8263;0.1877258;-0.4472819;0;
21.44422;0;0;0;7.072462;13.81802;32.84992;31.09165;0.5123739;-0.1219958;0;
614.562;0;0;0;5.993628;13.60318;619.2722;617.7655;-0.2677491;0.07302883;0;
541.1686;0;0;0;6.121327;14.32633;549.1848;545.7432;-0.3324474;-0.381816;0;
177.9946;0;0;0;13.61726;7.747725;188.5015;185.5631;0.122658;-0.1215629;0;
215.047;0;0;0;16.41662;6.132349;222.7323;222.7953;-0.007399894;0.3333306;0;
-24.1739;0;0;0;9.768694;4.31777;-12.06111;-11.62335;0.2524769;0.397963;0;
-586.8668;0;0;0;10.42846;0.8303195;-567.7072;-567.2074;-0.07261349;0.2676285;0;
-554.2307;0;0;0;5.05935;12.81919;-536.1523;-534.0289;-0.3324099;-0.3173465;0;
-232.0854;0;0;0;1.304199;14.27993;-216.7114;-216.1518;0.1876628;-0.1221256;0;
-255.5903;0;0;0;15.56915;12.12213;-240.5441;-242.9835;-0.1373624;0.2678011;0;
27.27446;0;0;0;16.89366;13.18167;36.49601;34.05903;-0.1372244;-0.05730468;0;
616.1385;0;0;0;18.81907;5.398531;618.8541;617.1068;0.3176849;0.2675896;0;
537.4962;0;0;0;23.75665;2.780894;543.7072;540.7747;0.187431;0.2673208;0;
189.6931;0;0;0;1.494933;-0.1021664;199.0214;197.4037;-0.2025614;-0.1227519;0;
228.9202;0;0;0;-5.070653;-3.585054;235.6154;236.623;-0.1373905;0.007306103;0;
-22.18369;0;0;0;11.27779;-5.122059;-10.24786;-9.553646;0.1226169;-0.1226359;0;
-584.2538;0;0;0;9.726216;-8.06404;-564.0217;-563.2657;-0.007441001;-0.2524474;0;
-550.1212;0;0;0;13.73493;-7.921971;-532.2831;-529.404;-0.3972376;0.1376103;0;
-234.6017;0;0;0;17.47217;-9.320653;-220.1549;-217.9658;-0.1369691;0.3323741;0;
-259.9781;0;0;0;-1.635395;-10.38301;-243.4219;-244.3584;0.1880053;-0.05776394;0;
24.51524;0;0;0;-5.049027;-10.64051;35.74499;34.68447;-0.072053;-0.1226732;0;
616.0058;0;0;0;-1.762401;-11.90238;619.4156;618.6686;-0.1369479;0.3971888;0;
536.7388;0;0;0;-5.109532;-11.01964;544.0808;540.3984;-0.1368103;0.266855;0;
178.3794;0;0;0;4.206351;-15.02754;188.8374;186.4081;-0.2016402;-0.05824987;0;
219.6793;0;0;0;4.536917;-15.81624;226.1913;227.8249;0.1233991;0.07174336;0;
-20.17098;0;0;0;5.134595;-8.901224;-9.230246;-8.535326;0.3831445;-0.05826342;0;
-585.1792;0;0;0;7.071819;-7.75357;-565.1915;-565.8091;0.3177921;-0.1881396;0;
-549.4839;0;0;0;-5.928756;-2.990113;-531.8276;-530.1957;-0.07233121;0.006951503;0;
-223.8451;0;0;0;-9.071607;-0.1069645;-210.7043;-209.6363;-0.3970952;-0.05802282;0;
-252.7931;0;0;0;-10.40166;-2.987001;-238.1038;-239.8479;-0.006892192;-0.05796452;0;
22.07292;0;0;0;-14.2096;-1.510375;32.37466;31.31942;0.3829188;0.1369958;0;
612.5664;0;0;0;-8.032408;-5.058953;616.3611;615.2444;0.3175667;0.07189076;0;
539.4873;0;0;0;-6.484095;-5.723699;547.7759;544.2866;0.1873129;0.1367859;0;
188.8712;0;0;0;-15.25247;-3.507511;200.5872;197.7886;0.252092;0.2016158;0;
226.6623;0;0;0;-16.77738;-3.905884;235.8679;235.1335;0.2518387;-0.5132276;0;
-15.75617;0;0;0;-5.172598;0.9206895;-1.25008;-1.733863;0.05668366;-0.7725812;0;
-581.5809;0;0;0;-1.416357;2.460372;-559.843;-559.2644;0.2515287;-0.2520662;0;
-560.3195;0;0;0;-4.831185;2.4579;-541.3521;-539.5245;-0.1385281;-0.3817476;0;
-239.7923;0;0;0;-2.481806;3.59414;-224.7169;-223.9533;-0.4632256;-0.5112987;0;
-259.5413;0;0;0;0.1326559;1.648023;-242.6695;-244.0306;0.05697861;-0.1859483;0;
22.20304;0;0;0;2.275976;0.8425722;34.37268;33.13794;-0.07301333;-0.05582675;0;
616.6319;0;0;0;4.417143;2.449316;620.4185;619.7473;0.05699472;-0.120738;0;
546.4223;0;0;0;5.550805;2.312889;552.7664;550.2841;0.1219048;-0.185584;0;
195.2995;0;0;0;10.83749;-2.378118;205.1978;202.8431;-0.1380871;-0.1204302;0;
229.2736;0;0;0;12.70163;-3.849353;236.6632;237.5592;-0.2029157;0.009625486;0;
-16.14606;0;0;0;8.603034;-4.381349;-3.329045;-2.246569;-0.2027118;0.1395505;0;
-582.1578;0;0;0;6.719356;-5.783466;-561.5451;-560.4637;-0.07257339;0.3343123;0;
-555.7733;0;0;0;13.07562;-3.634323;-538.3047;-534.4758;-0.2024352;-0.05582767;0;
-228.3167;0;0;0;15.07221;-3.764637;-214.3639;-212.4754;-0.3321664;-0.2506736;0;
-254.2616;0;0;0;0.4550301;-3.42594;-238.6987;-240.4352;-0.0719633;0.3992517;0;
19.0441;0;0;0;-2.224744;-2.886634;29.34404;28.67122;-0.00692365;0.3338832;0;
622.0344;0;0;0;-1.887716;-4.424341;625.0151;623.9681;-0.1368514;-0.3161257;0;
551.7568;0;0;0;-5.636864;-3.884032;558.0455;554.3134;-0.2016812;-0.1858734;0;
188.5722;0;0;0;7.229523;-7.028205;197.853;196.3736;-0.3963806;0.07418276;0;
224.6145;0;0;0;8.896222;-8.226835;231.887;233.2201;-0.4609496;0.1390756;0;
-18.05181;0;0;0;9.021981;-4.53463;-5.851635;-5.019584;-0.005715085;0.009001119;0;
-582.5624;0;0;0;12.02703;-4.931971;-563.5654;-562.8591;0.643964;-0.2508773;0;
-552.3044;0;0;0;-0.5783383;-2.649596;-536.1376;-534.3076;0.5133823;0.2691135;0;
-233.9717;0;0;0;-3.323447;-2.312019;-220.3199;-219.991;0.1230624;0.4637451;0;
-258.849;0;0;0;-1.511447;-5.323927;-242.5872;-245.1947;0.05797144;0.07347514;0;
24.70618;0;0;0;-3.587009;-6.122252;35.89167;33.72414;-0.07202149;0.203336;0;
621.3814;0;0;0;-2.37698;-8.527485;624.6221;623.2064;0.05798556;0.463001;0;
553.7283;0;0;0;-2.71036;-8.853831;559.6519;555.7388;-0.2019421;0.1376991;0;
204.3472;0;0;0;-1.836005;-13.1987;213.5132;210.4787;-0.5265759;-0.187276;0;
235.6885;0;0;0;-1.231923;-13.58734;243.2212;243.438;-0.07127538;0.007814226;0;
-16.35924;0;0;0;1.04649;-11.49722;-3.9616;-4.43212;0.1236983;0.1377411;0;
-582.3083;0;0;0;2.720378;-10.61501;-563.7388;-563.8964;-0.006360706;0.2675374;0;
-555.2365;0;0;0;3.186159;-3.705221;-539.5591;-536.9056;-0.136289;0.3322359;0;
-228.4676;0;0;0;5.594831;-1.69201;-215.6171;-214.278;-0.4609888;0.2669347;0;
-250.3519;0;0;0;-0.1715669;8.22292;-234.5783;-236.9262;-0.005754167;0.3966012;0;
15.39119;0;0;0;-1.980056;12.50144;27.08852;24.80539;0.05921895;-0.1235361;0;
612.638;0;0;0;10.27944;8.670977;616.64;615.0463;-0.5255466;-0.708118;0;
553.0521;0;0;0;13.35057;10.47068;559.9235;556.8322;-0.2001818;-0.3825698;0;
191.4903;0;0;0;8.380667;0.07804976;201.2909;199.7019;0.1898233;0.00761865;0;
224.6561;0;0;0;9.577695;-3.538985;231.3859;231.6101;0.1246653;0.1375457;0;
-12.8878;0;0;0;9.970213;-2.396719;-0.8549541;-2.629963;0.2544747;0.2673422;0;
-582.6509;0;0;0;10.83085;-5.34156;-562.8841;-563.7828;0.1242843;0.007204162;0;
-564.1995;0;0;0;10.48518;-2.723858;-547.451;-545.0379;-0.2006773;-0.5125418;0;
-244.8553;0;0;0;9.871427;-2.92207;-230.9972;-230.7729;-0.3304103;-0.7069288;0;
-263.3499;0;0;0;15.08642;-1.244561;-247.3817;-251.2806;-0.265111;-0.5113165;0;
17.52371;0;0;0;15.4734;1.636834;28.47831;25.20801;-0.004975228;0.1388707;0;
609.1462;0;0;0;16.52958;-3.723323;613.1558;609.9512;-0.004970229;0.2036985;0;
542.4424;0;0;0;17.38363;-3.786565;550.2585;544.6833;0.1249694;-0.2512776;0;
191.8233;0;0;0;11.13687;3.451274;203.2547;199.8716;0.2547786;0.07381165;0;
223.427;0;0;0;9.584464;3.782721;232.2858;232.5293;-0.1352815;0.07373749;0;
-20.11264;0;0;0;7.365007;11.61568;-6.952455;-7.833686;-0.4599823;-0.2511733;0;
-580.7481;0;0;0;5.481596;14.28333;-560.4797;-561.4225;-0.06971602;-0.1209863;0;
-557.9258;0;0;0;3.734776;6.16416;-539.5518;-538.1199;0.5800275;0.07403734;0;
-237.0886;0;0;0;1.119055;5.220205;-221.7941;-222.1752;0.5794446;0.07396295;0;
-256.3406;0;0;0;10.82985;0.3253281;-238.7501;-243.1288;0.1890583;0.008921274;0;
17.59189;0;0;0;14.36894;-1.818331;30.22971;26.85491;0.1888684;0.07387967;0;
619.5841;0;0;0;4.508862;-6.103289;623.7759;621.9038;-0.2011254;0.1387728;0;
555.4935;0;0;0;5.106568;-8.575525;561.8051;558.0607;-0.07098867;0.008698636;0;
185.9957;0;0;0;4.967715;-3.610293;194.7997;191.6214;0.188952;0.2035919;0;
221.6658;0;0;0;2.685548;-2.936836;228.1496;228.2853;0.05882749;0.333322;0;
-10.44034;0;0;0;18.82513;2.49161;1.409232;1.482298;0.3836051;-0.5115883;0;
-582.0175;0;0;0;23.36056;5.235285;-562.8086;-562.5482;0.3182523;-0.7709436;0;
-561.1304;0;0;0;12.4861;9.583915;-544.8768;-541.868;-0.2667736;-0.2504303;0;
-235.2301;0;0;0;12.33983;13.45917;-222.9284;-221.1095;-0.4614075;-0.1852113;0;
-265.1036;0;0;0;11.2557;7.618256;-250.1905;-252.5589;-0.07113986;0.009876831;0;
8.33792;0;0;0;9.704153;6.538874;18.61337;16.37229;0.5136377;0.07483426;0;
620.2095;0;0;0;11.43571;10.35021;622.1038;619.9899;0.3831869;-0.05517563;0;
560.6784;0;0;0;11.55795;9.536136;566.2565;561.1462;-0.007002168;0.1397818;0;
200.1085;0;0;0;7.728915;7.3831;209.6165;206.3229;-0.07196248;0.009706699;0;
228.0807;0;0;0;6.179932;7.10775;235.0804;234.9761;-0.1368575;-0.1202377;0;
-22.02282;0;0;0;13.07357;-1.071066;-9.84527;-11.19886;-0.07175265;0.2047198;0;
-581.0322;0;0;0;14.19854;-3.615341;-560.746;-561.4735;0.2531562;0.3344488;0;
-550.7133;0;0;0;14.18427;-0.9993739;-533.1336;-530.737;0.1879344;0.3990801;0;
-234.4436;0;0;0;15.97868;-2.338028;-219.068;-218.1731;-0.07212377;0.4636464;0;
-254.4479;0;0;0;11.94414;3.558697;-235.2147;-238.0687;-0.07205129;0.3332458;0;
17.60864;0;0;0;12.3333;4.559743;31.7626;28.34919;-0.2668809;0.138009;0;
618.0391;0;0;0;11.91974;6.966547;623.3083;619.8359;-0.2016454;-0.1219991;0;
566.2563;0;0;0;12.10884;9.638742;572.6447;567.6765;0.1883612;-0.1218765;0;
195.9982;0;0;0;14.10542;1.658332;205.1287;201.8522;-0.07169738;0.4629521;0;
225.4114;0;0;0;14.09125;0.8528708;232.8461;232.8836;-0.1365927;0.3325522;0;
1.922091;0;0;0;22.38346;-0.286696;13.03498;12.44782;0.1883813;-0.05758601;0;
-567.6061;0;0;0;25.17401;-2.161808;-549.3829;-550.5317;-0.1366447;0.007439196;0;
-550.544;0;0;0;22.60312;1.591286;-534.4006;-533.6118;-0.2664421;-0.122503;0;
-216.7209;0;0;0;23.78586;1.254773;-205.5912;-205.5527;0.1236297;0.07252217;0;
-239.3041;0;0;0;22.95865;3.597915;-226.6864;-229.8963;0.4483421;0.1374166;0;
18.80671;0;0;0;24.00731;4.665905;27.97597;24.20706;-0.07184707;0.007343865;0;
610.1156;0;0;0;16.4811;2.919782;611.9044;609.3885;-0.4615789;0.2022385;0;
551.4067;0;0;0;12.98191;3.318746;556.0673;551.9298;-0.1362784;-0.1228014;0;
194.032;0;0;0;22.21227;2.109718;202.4984;198.1778;-0.006206812;-0.5774494;0;
221.3233;0;0;0;21.78781;2.442513;226.9076;225.6523;0.1887015;-0.3169998;0;
-18.40375;0;0;0;22.03336;0.5645365;-7.952453;-9.331484;0.2534792;-0.05681193;0;
-576.917;0;0;0;21.67643;0.2960376;-557.3558;-559.0458;0.05832246;-0.05675484;0;
-553.5988;0;0;0;20.38185;2.57316;-537.3055;-536.2452;-0.07167082;0.07323688;0;
-237.9509;0;0;0;21.70152;2.70454;-226.3592;-226.2994;-0.2665008;0.203098;0;
-257.5143;0;0;0;5.938601;7.859386;-243.9978;-246.2494;-0.3312004;-0.1869102;0;
20.9171;0;0;0;1.512004;9.72689;29.48505;29.17221;-0.2009329;-0.3816244;0;
611.7866;0;0;0;8.008195;11.12376;613.162;612.787;0.05913834;0.008563129;0;
548.5159;0;0;0;6.191487;13.92586;554.2627;550.14;0.2539809;0.1384892;0;
189.7073;0;0;0;14.08852;8.352409;199.8212;196.5147;0.3186931;-0.1864866;0;
220.7509;0;0;0;16.15145;8.210051;228.3559;228.8633;0.5782422;-0.4461686;0;
-6.919034;0;0;0;16.26894;8.335767;4.05162;4.183702;0.6426285;0.009051066;0;
-574.9391;0;0;0;18.39604;6.183938;-557.7325;-557.0384;0.3171461;0.398846;0;
-561.1805;0;0;0;12.61678;17.0957;-545.8654;-541.7986;0.1219254;0.008641209;0;
-233.0313;0;0;0;10.99652;19.95866;-219.5431;-216.2925;0.4466396;0.07359988;0;
-256.1604;0;0;0;11.78975;12.7047;-240.1245;-241.0626;0.3162562;0.2684279;0;
12.08731;0;0;0;10.43776;13.56271;21.86016;20.04848;-0.2038004;-0.1216458;0;
612.211;0;0;0;5.068634;8.190569;612.6038;612.2307;-0.1386282;-0.1864909;0;
551.0638;0;0;0;1.915709;5.168107;554.2048;552.3953;0.05641309;-0.1213362;0;
192.3151;0;0;0;4.258309;13.13376;200.0131;198.6427;0.3162258;0.008720391;0;
225.1678;0;0;0;2.981233;12.45073;231.6087;233.488;0.7057121;0.2036137;0;
-15.43766;0;0;0;2.777166;14.1128;-3.755856;-2.003329;0.510101;0.008507037;0;
-577.827;0;0;0;3.377588;15.2372;-557.911;-557.2222;0.1197843;0.07346585;0;
-556.3193;0;0;0;-2.721375;7.519101;-539.297;-536.7973;0.119664;-0.05654267;0;
-240.7312;0;0;0;-4.728372;7.176631;-227.6615;-225.4767;0.1845111;-0.05648586;0;
-260.8541;0;0;0;1.97516;-1.203203;-244.6741;-245.6149;0.249293;0.008538241;0;
13.45775;0;0;0;3.111275;-5.890799;25.74847;24.8711;0.05414052;0.07349702;0;
613.0803;0;0;0;1.165766;7.712411;617.2378;616.9235;-0.01088122;0.7230966;0;
558.1166;0;0;0;2.236322;9.714028;565.0185;562.2682;0.05409705;0.5924353;0;
196.9246;0;0;0;3.038358;5.551447;207.6301;205.9446;-0.07589199;-0.05783338;0;
228.086;0;0;0;5.11141;6.818545;236.6568;237.909;-0.07581573;0.07215942;0;
-5.276041;0;0;0;4.771481;6.27583;7.471589;7.410708;-0.1407069;0.5918257;0;
-579.9194;0;0;0;7.312282;6.604439;-560.313;-560.3114;-0.07559817;0.2663943;0;
-567.1553;0;0;0;7.237586;8.473325;-550.5671;-548.3166;-0.01055487;-0.05871012;0;
-234.8772;0;0;0;6.96287;9.134641;-222.1162;-221.4922;-0.2054463;0.2012182;0;
-253.6941;0;0;0;25.17426;7.517871;-238.5097;-240.8848;-0.01033783;0.07108139;0;
8.679079;0;0;0;31.4456;7.041437;19.41293;18.03976;0.1196072;-0.05892473;0;
608.244;0;0;0;25.11736;8.641952;611.8456;610.7237;0.1844544;0.006101814;0;
553.7224;0;0;0;27.97251;8.834217;560.6313;557.0117;0.2492364;-0.1888063;0;
196.5953;0;0;0;22.51842;8.624392;205.8085;203.9417;0.05408395;0.2011874;0;
239.2512;0;0;0;20.41969;9.620348;245.6441;247.09;-0.07590508;0.525822;0;
2.442192;0;0;0;27.43275;4.988981;13.9511;14.3961;-0.2057635;0.3953589;0;
-579.0804;0;0;0;27.40518;3.108568;-560.2743;-559.7673;-0.2705241;0.459929;0;
-565.5051;0;0;0;24.36256;10.40634;-549.4665;-547.4607;-0.2702523;0.3295322;0;
-240.5999;0;0;0;22.93156;10.59683;-228.2006;-227.946;-0.3349481;0.1342991;0;
-255.538;0;0;0;24.9856;10.45222;-241.2146;-243.2091;-0.2046768;0.004229436;0;
21.14227;0;0;0;25.09422;10.5087;31.26591;29.64822;-0.2694385;0.06919254;0;
615.8221;0;0;0;21.05051;6.479286;618.9391;616.8857;-0.4640698;0.1990577;0;
556.233;0;0;0;20.96201;5.535015;562.6577;557.6703;-0.1387668;0.1338903;0;
202.9139;0;0;0;16.65404;-1.03463;212.518;208.7851;0.121242;0.003821114;0;
233.3196;0;0;0;15.02972;-3.980839;240.6652;240.6841;-0.008814483;0.133752;0;
-2.796277;0;0;0;20.57432;-2.83813;9.601912;9.121084;-0.07377297;-0.06128446;0;
-567.697;0;0;0;20.75472;-4.442868;-548.4398;-548.7952;-0.07369884;0.1986465;0;
-561.442;0;0;0;24.95342;-1.022275;-545.8272;-544.1832;0.0563099;0.4583163;0;
-234.167;0;0;0;26.20115;0.1173405;-222.7534;-222.8602;0.1212207;-0.1918177;0;
-246.4255;0;0;0;26.50961;-0.5526068;-232.3996;-235.8171;0.2510335;-0.2565923;0;
8.194288;0;0;0;28.02322;0.6536413;18.64536;15.29371;0.4456833;-0.1263998;0;
610.8206;0;0;0;21.22991;3.667217;613.4526;610.3542;-0.2044379;-0.1262728;0;
567.7282;0;0;0;20.67271;6.543676;572.8563;567.1998;-0.1392651;0.3286255;0;
197.0938;0;0;0;15.428;2.786178;205.9024;200.9387;0.3806135;0.003458586;0;
226.8807;0;0;0;12.53211;3.118294;232.8693;231.5338;-0.204475;-0.2564143;0;
2.577841;0;0;0;19.35105;8.741605;12.55847;11.0369;-0.2692369;-0.1262219;0;
-573.3853;0;0;0;18.72937;9.402528;-556.668;-557.1261;0.1208377;-0.1260951;0;
-561.8771;0;0;0;26.48008;15.68935;-547.488;-544.5099;-0.07418575;-0.1909357;0;
-229.6667;0;0;0;29.736;18.62084;-216.6664;-215.8152;-0.009143869;-0.5805479;0;
-251.9871;0;0;0;22.13668;11.70301;-236.4387;-239.149;0.3806694;-0.4500299;0;
12.50826;0;0;0;21.77965;11.15539;23.0436;21.39796;0.3153195;-0.05977367;0;
608.9459;0;0;0;20.61967;11.94797;613.4736;611.9546;0.1201007;0.2001558;0;
554.9233;0;0;0;19.19145;11.4001;563.3821;558.7411;0.2499147;0.654726;0;
203.7295;0;0;0;17.90034;11.1877;215.1158;211.354;0.1846962;0.2642641;0;
232.9475;0;0;0;16.81063;11.51137;242.5108;242.8757;-0.1403261;-0.06083813;0;
-4.292415;0;0;0;14.24815;8.686645;8.821922;10.18603;-0.2051524;0.2640597;0;
-568.0672;0;0;0;12.2241;6.869377;-549.3439;-547.7938;0.05492309;0.198827;0;
-557.7513;0;0;0;18.50845;17.9814;-541.2957;-537.5607;0.0548679;-0.06124211;0;
-235.9149;0;0;0;19.76265;20.57554;-221.912;-219.1178;-0.07512191;-0.2560826;0;
-251.1076;0;0;0;16.66134;16.46903;-234.1828;-235.077;-0.2049811;-0.6456293;0;
12.51236;0;0;0;16.97939;17.92611;23.98538;23.02956;-0.5296118;-0.4500786;0;
