Fp1;Fp2;O1;O2;POLY3;POLY4;A1;A2;Video;Audio;event;
274.1639;0;0;268.1784;-6.235141;4.107454;264.2026;259.4992;0.2164712;-0.1557917;0;12:34:59 Глаза закрыты;
220.1655;0;0;213.249;-12.72659;-4.939125;209.3395;208.0142;-0.0436157;0.1042342;0;
127.1784;0;0;134.2618;-14.45511;-5.871923;118.4873;118.4126;0.02139547;0.2340642;0;
-450.1593;0;0;-406.7263;-11.76127;-0.9094079;-450.4709;-451.6699;0.1513087;0.03892696;0;
-639.1742;0;0;-617.7113;-10.81145;0.2302157;-639.6729;-639.5588;-0.3685821;0.03888785;0;
-299.8897;0;0;-322.3013;-13.74832;6.258204;-305.6977;-305.2715;-0.4331791;0.1687835;0;
-239.7435;0;0;-260.5708;-14.87261;8.529336;-243.9214;-247.0563;0.3468643;0.2335812;0;
-112.1916;0;0;-144.9295;-0.8588386;16.96037;-117.9271;-122.3706;0.4114831;0.1683792;0;
517.0425;0;0;447.1685;2.222507;21.23011;501.755;498.6902;-0.1736365;0.1032426;0;
681.8773;0;0;634.9996;3.292001;16.85501;666.7927;662.4816;-0.2384293;-0.02679581;0;
263.0898;0;0;261.9238;6.571223;18.3117;254.7669;250.71;0.08664694;0.03819847;0;
203.1055;0;0;197.8801;-2.74613;11.59513;194.0413;193.1744;0.3464293;0.1680948;0;
132.999;0;0;138.4611;-3.747748;8.77032;125.4432;124.3898;0.4760158;-0.02697617;0;
-443.7823;0;0;-402.7186;-8.231961;9.096422;-444.4589;-447.9476;0.4105702;-0.1568837;0;
-647.5462;0;0;-628.8251;-11.57259;5.202394;-648.5345;-650.8328;0.2152556;-0.4165955;0;
-289.3253;0;0;-314.2885;-8.613227;11.5603;-295.8723;-297.2312;-0.1747647;-0.6760463;0;
-224.8168;0;0;-250.5671;-11.28389;11.81662;-231.6072;-235.8383;-0.4344585;-0.02569353;0;
-115.021;0;0;-154.426;-4.239954;4.10195;-124.0534;-128.2802;-0.3040873;0.1692343;0;
512.6541;0;0;437.4317;-3.566108;3.22705;495.3849;492.0369;-0.173847;-0.1557724;0;
680.242;0;0;624.4604;-7.849432;-3.809278;663.1776;656.647;-0.04373765;0.1042535;0;
273.3877;0;0;260.7655;-7.907918;-7.958271;261.8376;255.2512;0.08624098;-0.025786;0;
215.8917;0;0;202.4077;-15.13462;-0.1803758;202.5417;199.8974;0.1511217;-0.4155641;0;
119.848;0;0;117.8092;-16.52593;-0.3141604;107.3235;105.6188;0.2159372;-0.2852119;0;
-453.4843;0;0;-420.1638;-22.60392;-2.926179;-457.438;-461.0775;0.2806875;-0.09002329;0;
-639.9972;0;0;-625.7631;-25.19415;-2.454358;-644.5717;-647.3329;0.08550347;-0.02496549;0;
-299.3375;0;0;-326.5969;-19.8102;-8.279285;-311.5285;-313.7873;0.1503849;-0.4797118;0;
-232.2578;0;0;-260.4268;-19.52187;-10.54826;-243.3746;-248.0049;0.02029911;-0.8040665;0;
-100.9653;0;0;-143.0365;-11.80007;-4.978204;-112.883;-116.5092;-0.49946;-0.4784218;0;
520.1365;0;0;442.7504;-8.573037;-4.504443;499.86;498.174;-0.4989582;-0.1531044;0;
685.2181;0;0;630.5234;-5.751384;-7.647993;665.0869;661.0288;-0.04368542;-0.08798324;0;
276.4222;0;0;267.5095;-2.664146;-7.640308;260.7465;256.8799;0.02132582;-0.2178295;0;
209.7404;0;0;200.7741;-4.47013;-8.369443;192.831;193.0912;-0.04366295;-0.02270861;0;
128.7577;0;0;131.8569;-3.393912;-8.561982;115.1137;115.6236;-0.1735538;0.04228156;0;
-444.8959;0;0;-405.693;-9.686165;-7.950533;-449.843;-450.6455;-0.2383467;-0.2176303;0;
-645.8476;0;0;-626.5491;-12.28938;-8.210476;-651.1021;-649.655;-0.0432052;-0.1524443;0;
-290.0022;0;0;-315.7629;-10.60209;-5.054028;-300.6237;-299.2405;0.1517402;0.1075783;0;
-222.6195;0;0;-249.7912;-12.46745;-4.044328;-232.6057;-235.5966;0.02165309;0.1724375;0;
-108.3282;0;0;-148.0912;-13.4593;-4.709971;-120.4283;-124.0409;-0.3681727;0.3021989;0;
519.9649;0;0;443.7602;-15.72295;-3.365702;500.4432;498.7708;-0.1079334;0.7566667;0;
685.484;0;0;632.8441;-13.09518;-6.778328;666.7316;663.4366;0.2819791;0.6259717;0;
269.9412;0;0;262.2691;-14.0864;-7.039449;256.0802;252.5387;-0.04314095;0.300506;0;
211.1994;0;0;200.1617;-15.21132;-5.625734;195.7281;195.7508;-0.3679343;0.2352367;0;
127.4042;0;0;128.9962;-14.52548;-6.490859;112.9479;114.4074;-0.2376299;0.04009832;0;
-445.1236;0;0;-406.9266;-26.90309;1.08449;-451.9442;-451.9854;0.02247821;0.1699927;0;
-633.269;0;0;-616.1623;-30.15761;3.427803;-639.8954;-640.0615;-0.04251172;0.2347892;0;
-288.4308;0;0;-312.2581;-23.83165;-1.39829;-299.798;-299.7766;-0.3023384;-0.09028339;0;
-229.1706;0;0;-249.9131;-22.5349;-1.06197;-239.2771;-241.0047;-0.4319693;0.234644;0;
-100.5049;0;0;-136.094;-24.78943;-3.874187;-112.975;-115.3881;-0.2366332;0.6242123;0;
523.8448;0;0;448.0617;-24.36238;-5.87966;502.0794;501.0431;-0.04149339;0.1688137;0;
676.8663;0;0;620.3996;-11.20974;-2.859642;655.3726;653.5876;-0.106419;-0.22116;0;
267.6415;0;0;254.7097;-6.241982;-3.861512;252.4163;250.1959;-0.1712795;-0.1559704;0;
213.3373;0;0;196.9202;-7.106366;-4.661305;197.0029;197.0961;-0.2360747;-0.4156831;0;
124.9172;0;0;116.6376;-4.55363;-4.924554;110.0361;109.9417;0.02403188;-0.2853307;0;
-447.9829;0;0;-419.7101;-1.736015;-9.206513;-454.1035;-455.5721;0.02400774;0.2346948;0;
-633.939;0;0;-622.7486;0.8103486;-10.1349;-639.4913;-639.0219;-0.1059511;0.1045243;0;
-285.9766;0;0;-315.8393;-7.093719;-12.00024;-296.0835;-294.9899;0.02409007;-0.09048281;0;
-229.655;0;0;-255.8019;-8.626833;-13.19387;-237.6902;-239.7211;-0.04090147;0.2344448;0;
-109.8593;0;0;-149.2234;-7.346344;-9.697505;-120.5726;-123.601;0.08907431;0.1042746;0;
520.1844;0;0;442.4417;-9.415067;-9.219003;500.2365;498.5855;0.1539522;-0.2856343;0;
683.8917;0;0;629.403;-1.970867;-6.195507;663.7764;660.7528;-0.04110457;-0.1554126;0;
270.6619;0;0;261.2053;0.04084557;-4.04595;254.19;250.9195;0.08887141;0.1695803;0;
215.7299;0;0;202.7221;-4.045033;-5.314438;195.7139;195.5076;-0.04115257;0.4292793;0;
133.1795;0;0;131.6166;-3.505104;-3.902579;114.0582;115.6013;-0.2360132;0.2339459;0;
-449.0367;0;0;-411.9925;-2.563577;-5.171211;-458.6436;-456.9771;0.34893;-0.2860279;0;
-642.9878;0;0;-625.2836;-2.42728;-5.567913;-651.5856;-648.2966;0.478514;-0.02587114;0;
-290.581;0;0;-318.1844;-1.018321;-1.67743;-303.418;-301.1318;-0.1066728;0.1690569;0;
-229.6945;0;0;-256.6454;-0.4814345;-1.34083;-239.1453;-242.0463;-0.3014677;-0.1559497;0;
-99.34161;0;0;-140.1335;-2.222263;-0.2007728;-111.7814;-115.1168;-0.2361974;0.1690437;0;
531.5037;0;0;450.7104;-2.956964;1.272931;507.1449;506.9363;-0.2359601;0.5586779;0;
684.7673;0;0;625.0447;-0.8105392;-3.484014;658.7463;657.9757;0.08911372;0.2982472;0;
276.4716;0;0;262.4111;-0.3412103;-3.480513;254.8496;254.3297;0.3488936;-0.2217912;0;
225.5943;0;0;211.9227;-3.153907;-4.481638;202.4947;205.2861;0.2186083;-0.4164704;0;
128.9161;0;0;129.1887;-3.284459;-5.615844;109.7753;113.1885;0.02348661;-0.5459866;0;
-455.6072;0;0;-420.0401;-2.678923;1.422762;-463.422;-462.3859;0.08843035;-0.6753727;0;
-639.3693;0;0;-625.8893;-2.073019;2.96194;-647.3011;-645.7664;0.3482109;-0.2199227;0;
-290.0272;0;0;-319.4767;-2.003587;4.70052;-305.0724;-303.102;0.08799161;0.1701024;0;
-233.3266;0;0;-260.2478;-1.73413;7.174044;-247.6071;-249.2618;0.1528705;0.03999676;0;
-100.7212;0;0;-141.0461;4.564252;2.880049;-116.6116;-119.1391;0.542521;0.1698913;0;
531.6872;0;0;456.6703;7.238984;2.542241;508.6289;508.3527;0.2171392;0.4945573;0;
683.264;0;0;638.1824;6.494775;4.348226;663.7271;662.2643;-0.1079157;0.2991583;0;
270.8469;0;0;270.7256;8.29691;4.008942;258.7009;255.7404;0.02212738;-0.09094636;0;
220.8497;0;0;215.2313;8.354947;3.46905;207.0293;205.9458;0.2170072;-0.4156917;0;
133.734;0;0;138.7409;8.614971;2.326854;120.0524;119.0325;0.2167891;-0.3503067;0;
-449.6072;0;0;-412.4965;11.28563;4.601936;-457.4655;-459.7963;-0.04329808;0.0398494;0;
-637.6232;0;0;-622.6012;12.0776;4.99921;-645.5985;-646.3652;0.1516474;0.2996787;0;
-282.848;0;0;-308.6956;10.92736;0.1715374;-294.2511;-294.3299;0.1514951;0.559247;0;
-231.9018;0;0;-252.7259;11.45225;-0.8333789;-240.7947;-243.7469;0.02140817;0.363783;0;
-107.6686;0;0;-141.8401;9.698452;-2.641081;-118.8014;-122.8127;0.3462234;-0.3512233;0;
527.308;0;0;453.9406;9.823405;-4.781759;506.8785;504.2456;-0.04392857;-0.7406744;0;
681.7627;0;0;632.7693;9.344044;0.7823853;661.916;657.2867;-0.4336885;-0.3501261;0;
279.4046;0;0;276.0625;7.995484;1.786343;265.6373;261.1376;0.2164207;-0.02493763;0;
226.9001;0;0;222.3745;16.09178;-2.301289;213.2091;213.0242;0.3461379;-0.2198146;0;
119.2261;0;0;127.2612;17.61682;-1.897079;109.172;108.7375;-0.1089813;-0.0246917;0;
-463.4134;0;0;-421.6533;16.05791;-5.646095;-465.3364;-468.8315;-0.1088718;0.1052678;0;
-638.8593;0;0;-619.2551;17.71671;-7.783875;-641.7175;-644.7092;-0.2386971;-0.284642;0;
-289.5801;0;0;-312.5367;9.995748;0.9984661;-296.9331;-300.1718;0.2812815;0.0404807;0;
-238.3773;0;0;-260.4362;8.646534;3.274883;-243.4115;-249.583;0.8007376;0.2353421;0;
-101.4564;0;0;-140.0474;6.427042;-4.699133;-109.4217;-115.7119;0.215227;-0.2846332;0;
531.5773;0;0;454.5445;2.402097;-6.03407;513.9375;509.4028;-0.04485866;-0.4792492;0;
681.2177;0;0;627.8129;13.85291;0.6031814;663.0958;657.8785;0.2800231;0.0409711;0;
276.174;0;0;267.8003;14.57592;2.544958;262.5056;258.4179;0.1498071;0.1708646;0;
223.2355;0;0;214.3079;10.74386;-5.227375;209.5808;209.6202;-0.3051148;0.04075825;0;
123.6861;0;0;130.3847;11.60372;-6.896696;115.7922;116.2689;-0.1748736;0.170652;0;
-466.7664;0;0;-421.2816;1.142238;-1.330305;-464.0327;-465.6805;0.0851715;-0.1543562;0;
-650.33;0;0;-627.0671;-1.671949;-1.931814;-649.1606;-649.1201;-0.3696855;-0.02426643;0;
-287.4836;0;0;-308.9092;-2.407203;1.419151;-294.249;-293.4588;0.02049004;-0.08920939;0;
-232.5347;0;0;-251.9398;-5.016753;2.824367;-238.7935;-241.44;0.6051755;-0.4789238;0;
-103.928;0;0;-135.8074;-2.265046;-3.876642;-112.3045;-114.2612;0.2147634;-0.08863853;0;
531.3571;0;0;464.9022;-3.133426;-4.810386;513.9311;514.3502;-0.2402238;-0.08854946;0;
678.5615;0;0;635.2242;2.830594;-7.149955;661.028;658.2608;-0.1750151;-0.2183952;0;
272.271;0;0;270.6439;5.77451;-8.817344;259.6277;255.6764;-0.2398066;0.106661;0;
228.082;0;0;222.3336;1.616498;-9.143399;213.9522;213.9403;-0.1096309;-0.1533156;0;
119.7821;0;0;125.4088;4.025772;-11.21056;107.603;108.8406;0.410218;-0.4779982;0;
-468.4801;0;0;-426.19;-2.273937;-5.438886;-472.9633;-472.7265;0.4747731;-0.08771387;0;
-634.6756;0;0;-612.4804;-4.616177;-4.428677;-639.779;-638.293;0.01952468;0.237211;0;
-287.4621;0;0;-308.5175;8.717699;-7.505442;-296.9331;-295.6361;-0.04546228;0.1720053;0;
-245.1319;0;0;-264.417;10.98612;-6.828071;-250.8453;-252.7979;-0.0454166;0.1068651;0;
-103.3317;0;0;-136.9028;10.03707;-12.11274;-109.7266;-112.7392;-0.3702077;0.1717251;0;
525.4561;0;0;454.9998;11.903;-14.04307;509.7599;506.7503;-0.4997704;-0.4131536;0;
664.9827;0;0;619.7721;7.871572;-12.28741;648.7401;643.4846;-0.3043662;-0.5426731;0;
269.5755;0;0;266.0768;7.52887;-14.82029;258.3466;253.5337;-0.239093;0.3024476;0;
221.5786;0;0;213.4608;5.646271;-9.045111;208.237;207.8643;-0.4337548;0.3021437;0;
112.5981;0;0;119.6684;4.033007;-8.500158;101.4564;101.8961;0.08641978;-0.2178986;0;
-471.9088;0;0;-430.5504;5.971337;-17.4001;-473.6066;-474.9789;0.6060717;-0.08774498;0;
-648.2832;0;0;-631.2042;5.496823;-19.65992;-650.6039;-649.9135;0.4105607;-0.1526242;0;
-289.2494;0;0;-312.0426;5.625021;-22.18551;-296.8152;-295.7506;0.02034409;0.04243124;0;
-234.861;0;0;-254.9451;5.886813;-24.03874;-240.3577;-242.7924;0.02032365;0.2372906;0;
-107.1266;0;0;-143.6197;4.87652;-27.96646;-114.8042;-117.2989;0.08527057;0.1071175;0;
527.4122;0;0;456.2231;4.536828;-30.01471;511.1841;509.9412;-0.2396518;-0.2827942;0;
678.3061;0;0;632.8007;5.805067;-26.16665;663.0313;659.4784;-0.1744437;-0.477412;0;
269.5172;0;0;268.3478;5.329743;-25.60449;259.8174;256.5804;0.4104377;-0.0871283;0;
215.1485;0;0;214.2927;3.180934;-20.08628;204.1467;204.4112;0.3450579;0.237796;0;
109.1106;0;0;120.4369;0.3646986;-15.71233;100.4311;101.1326;0.08484185;0.04265501;0;
-475.1429;0;0;-430.2199;4.249098;-19.24664;-476.7547;-476.3038;0.01978926;-0.1522899;0;
-644.8925;0;0;-622.1284;4.379527;-16.68195;-647.5646;-645.8647;-0.04519797;-0.02220218;0;
-294.1704;0;0;-314.72;-7.949733;-11.64159;-300.7129;-299.7644;-0.1101199;0.3676242;0;
-249.772;0;0;-266.8651;-10.48734;-8.883714;-253.9341;-256.3598;-0.3698786;-0.02254926;0;
-102.7198;0;0;-133.4764;-15.4333;-4.118999;-109.314;-112.2371;-0.04467025;-0.3473633;0;
530.4402;0;0;463.1703;-19.03511;-2.038511;515.3569;513.8111;0.215244;0.1077571;0;
659.3421;0;0;617.5646;-11.71497;4.192828;644.9612;641.4179;-0.2397437;0.3675182;0;
263.5657;0;0;264.3713;-11.5685;7.202725;253.6345;250.3447;-0.3044701;0.2372143;0;
224.6953;0;0;222.0643;-6.064517;3.377583;211.5881;212.4245;-0.04429481;-0.08786083;0;
106.9661;0;0;119.1428;-3.245384;4.445916;96.30836;96.89406;0.08568438;-0.2177072;0;
-481.4707;0;0;-433.6366;-5.787719;-2.591638;-481.9353;-483.2867;0.5403697;-0.3474232;0;
-646.5912;0;0;-621.8561;-4.843898;-5.402194;-646.8054;-645.4069;0.4748594;-0.02223736;0;
-288.4961;0;0;-304.3905;-6.580343;-1.042998;-294.02;-291.1861;-0.1752912;0.172687;0;
-235.6702;0;0;-248.3002;-7.176944;-2.716523;-240.0641;-240.169;-0.3050497;-0.1523232;0;
-101.5631;0;0;-131.5467;-6.098005;2.108855;-108.9511;-111.055;0.02009348;0.1076992;0;
528.3474;0;0;458.7888;-3.680005;3.513378;511.0342;510.2444;0.150008;0.4324277;0;
667.8086;0;0;622.4328;-15.73372;-0.3080573;650.8877;648.8492;0.1498573;0.3670259;0;
256.1566;0;0;256.0537;-18.06146;0.6969962;245.7495;243.026;0.214674;0.2367224;0;
212.0463;0;0;210.3193;-5.183567;-5.399029;200.7751;202.3021;0.01955628;-0.08835219;0;
108.1978;0;0;121.9648;-4.708868;-7.537058;99.99888;102.3989;-0.1753654;-0.1532308;0;
-482.7389;0;0;-433.3787;9.896923;-2.57287;-482.6213;-481.1607;0.08468018;-0.0231421;0;
-646.2964;0;0;-622.5979;15.31296;-3.775977;-647.4283;-643.8452;-0.04533959;0.04184851;0;
-284.8908;0;0;-304.6318;8.264002;1.854261;-292.2684;-289.3761;-0.1102614;-0.0231609;0;
-233.6302;0;0;-252.7267;9.462123;3.928869;-240.7505;-240.6722;0.2796535;-0.283007;0;
-91.21691;0;0;-124.8494;0.7450778;-5.184514;-100.2041;-100.5631;0.2144051;0.1070814;0;
530.7496;0;0;464.6673;-2.069686;-6.585946;513.7755;513.5418;-0.04567967;0.4967779;0;
659.4639;0;0;619.2474;-8.095826;-6.311396;642.8816;640.5242;-0.2405358;0.3013767;0;
265.1866;0;0;266.1774;-12.17353;-7.376781;254.0557;251.3884;-0.1103594;0.3660412;0;
221.0047;0;0;213.9361;-10.62008;-8.307131;209.2604;209.6566;0.08465349;0.3007061;0;
97.84445;0;0;103.3391;-12.55179;-9.102456;89.23532;90.13092;0.1495358;-0.2193348;0;
-487.7096;0;0;-442.3655;-5.038066;-7.485842;-487.9393;-487.8567;0.2143529;-0.3490491;0;
-643.0787;0;0;-618.4573;-2.88955;-7.277371;-643.683;-641.3516;-0.04573189;0.106073;0;
-283.2381;0;0;-297.8717;0.8643973;-4.32281;-288.3395;-285.7605;-0.1106533;0.1709338;0;
-233.2285;0;0;-244.2867;4.882993;-2.644015;-237.6376;-238.2471;0.01939259;-0.02414002;0;
-96.87503;0;0;-126.9126;-0.2131046;-3.378171;-103.9034;-104.5124;-0.04559424;0.1707863;0;
532.0937;0;0;465.4797;0.1219022;-2.035118;517.6386;518.7794;-0.2404505;-0.02428737;0;
668.8026;0;0;631.0536;0.4575484;-3.037817;655.6738;654.5021;-0.3701435;-0.1541976;0;
259.5234;0;0;268.3515;-1.084129;-2.632867;251.4054;249.6727;-0.0449349;0.1058267;0;
213.7855;0;0;219.8561;2.534283;-0.8886649;203.3643;206.0061;-0.1098571;0.04075299;0;
108.2487;0;0;124.9328;2.933878;-0.6198403;100.7115;103.4756;-0.174714;-0.08922265;0;
-483.0629;0;0;-432.1003;-1.891841;1.390149;-481.4097;-480.2726;0.1502982;-0.02416566;0;
-651.8675;0;0;-623.1949;-2.091011;1.723666;-650.5906;-647.5181;0.02021251;-0.08910872;0;
-290.2064;0;0;-304.2912;-8.3182;3.128576;-294.1783;-291.7335;0.08515954;-0.1539865;0;
-242.0639;0;0;-253.1985;-12.26196;3.795262;-244.8448;-245.8383;-0.1747954;0.1710049;0;
-98.83002;0;0;-123.759;-1.197575;1.31308;-103.8571;-104.3498;-0.6293911;-0.02406894;0;
536.9498;0;0;476.5012;-1.330093;1.445726;523.557;523.9393;-0.10902;-0.0890121;0;
660.0356;0;0;626.5093;-0.2570298;-1.770785;647.6558;645.414;0.2808936;0.5607508;0;
257.5743;0;0;267.5599;2.488919;-2.840733;250.2045;248.777;-0.04422536;0.6251547;0;
220.5215;0;0;226.499;-13.18734;-1.9671;211.4099;213.6696;-0.4989523;0.2347225;0;
94.17584;0;0;114.8275;-15.98713;-3.639697;88.88398;90.64163;-0.1736142;-0.2202848;0;
-492.8113;0;0;-437.6977;-13.09068;3.798944;-488.2278;-488.0961;0.4762336;-0.4149655;0;
-640.7415;0;0;-611.4204;-14.2166;5.268751;-636.9122;-635.2189;-0.04398364;-0.1546791;0;
-287.7748;0;0;-300.1497;-9.646991;0.172876;-290.3212;-288.4422;-0.3687761;0.365215;0;
-243.3203;0;0;-253.309;-8.565571;-0.1622124;-245.3644;-245.7362;0.1513331;0.5597501;0;
-94.15069;0;0;-120.5586;-2.863537;-2.372486;-99.44107;-99.43765;-0.04372096;0.2993183;0;
532.504;0;0;473.3891;-0.9182762;-2.504068;519.6602;519.6636;-0.4334811;0.3639849;0;
655.8441;0;0;624.2123;4.441281;-8.797826;645.0123;642.0172;-0.1731762;0.2986518;0;
251.7005;0;0;259.5806;8.321585;-11.33422;245.3772;242.9474;0.2168019;0.03848232;0;
213.1543;0;0;213.4054;-3.073632;-4.758621;204.4011;206.0966;0.2815514;-0.09149104;0;
101.9959;0;0;114.8654;-4.745482;-4.686857;96.0626;98.1937;0.2163012;-0.3512685;0;
-490.9961;0;0;-441.0332;-6.683097;0.7433483;-487.7405;-487.1733;0.08614914;-0.02607881;0;
-650.4224;0;0;-624.5601;-10.22636;3.823694;-647.5449;-644.9167;-0.1738068;0.4287188;0;
-284.8272;0;0;-301.8444;-3.249855;-0.3329676;-287.6373;-285.574;-0.2385995;0.03848397;0;
-238.0644;0;0;-248.9425;-1.973792;0.7390939;-239.185;-241.9339;-0.3682944;-0.1564567;0;
-100.6441;0;0;-125.5043;-8.268448;-1.271137;-103.3253;-106.2588;-0.4328917;0.2984719;0;
528.2034;0;0;468.7607;-8.393862;-2.609518;516.9668;515.6603;-0.3674894;0.5580413;0;
657.2326;0;0;626.8974;-6.241974;0.340353;646.507;643.2653;-0.1722181;0.3625786;0;
256.5233;0;0;269.5093;-6.905287;-0.9996477;250.7434;247.1927;0.02285696;-0.0275898;0;
217.2226;0;0;227.1971;2.478774;-0.1278651;209.2622;208.901;-0.1071007;0.03740528;0;
95.12814;0;0;117.3989;5.691464;-1.065498;89.54951;89.75086;-0.2369278;0.102335;0;
-495.2332;0;0;-439.6266;-1.146758;-6.288974;-491.6859;-492.3593;-0.1717224;-0.2226045;0;
-646.8467;0;0;-612.91;-0.8108131;-8.426108;-644.6147;-643.2885;-0.1715498;-0.4172828;0;
-293.499;0;0;-300.0761;-2.015447;-13.77615;-297.5786;-296.4411;-0.2363448;-0.1569942;0;
-250.1632;0;0;-251.1116;-2.214493;-16.50849;-252.4271;-254.6016;-0.04120527;0.1680003;0;
-93.92777;0;0;-108.2434;-4.422094;-17.49665;-99.12542;-100.9853;0.08877082;0.1028641;0;
538.1614;0;0;486.5039;-5.757798;-18.34984;522.8491;522.6152;0.08868162;-0.1571086;0;
655.1866;0;0;625.3201;0.87942;-18.39839;641.2015;638.4691;0.08859251;-0.2219181;0;
251.231;0;0;256.8766;2.285056;-17.978;243.7567;241.3394;0.08850349;0.1681089;0;
214.1845;0;0;214.2648;4.024072;-13.74014;205.2809;206.4892;-0.1714548;0.4278094;0;
96.15354;0;0;112.1008;6.431902;-12.58762;89.4453;90.90227;-0.3012172;0.1025428;0;
-498.1444;0;0;-446.1064;5.353713;-3.130624;-496.2877;-495.3319;0.2837915;0.1024398;0;
-655.9393;0;0;-625.1929;7.358065;1.829137;-654.5217;-651.6304;0.218539;-0.09256519;0;
-291.1507;0;0;-301.7269;1.992037;-6.076443;-295.3568;-292.6558;-0.1714846;-0.4822762;0;
-240.3211;0;0;-246.9511;-0.8903526;-5.266542;-243.9607;-244.3233;-0.04137761;-0.2219223;0;
-94.02802;0;0;-113.0827;11.6355;-6.39996;-101.0373;-101.9618;-0.1063034;0.1681048;0;
541.2472;0;0;486.792;12.96395;-7.800171;525.5618;525.7627;-0.04122922;0.2329032;0;
662.3922;0;0;633.5413;9.869467;-3.371582;649.2213;646.8608;-0.2360898;0.1027345;0;
250.0585;0;0;263.278;11.80193;-3.368194;242.5231;240.3523;-0.5606893;-0.02730341;0;
212.451;0;0;223.0336;-1.471815;-3.967534;203.5489;205.6281;-0.1703219;-0.02727598;0;
87.11295;0;0;114.8013;-4.752865;-4.365445;82.21772;83.73267;0.08971864;-0.2221506;0;
-505.8016;0;0;-444.9078;0.2084033;-4.294076;-502.5085;-502.3069;0.2195632;-0.0919927;0;
-649.9706;0;0;-616.3743;-1.130977;-5.160539;-647.9302;-644.6054;0.5441793;0.03803444;0;
-297.307;0;0;-305.0362;4.362516;-5.222337;-300.516;-297.132;0.5436324;0.1679309;0;
-251.2188;0;0;-255.1296;5.42986;-4.949158;-252.4256;-253.5428;0.02334749;0.1027948;0;
-88.86032;0;0;-108.1345;7.233065;-13.31693;-92.31477;-93.99307;-0.2365453;-0.2221452;0;
538.3513;0;0;483.9266;8.230175;-15.84878;525.9048;525.9148;-0.1713403;0.03794741;0;
649.3168;0;0;620.434;7.686042;-12.34986;638.6319;636.7054;-0.1062008;0.167844;0;
247.0537;0;0;260.4287;8.013111;-12.9403;242.7514;240.8268;0.2837099;-0.02722673;0;
211.2608;0;0;221.8113;1.775769;-9.980048;205.5885;206.8518;0.3483922;0.2976373;0;
86.23627;0;0;108.8951;0.3674652;-8.295568;83.31831;83.89316;-0.04176189;-0.02749844;0;
-508.489;0;0;-452.2448;-4.92419;-10.56453;-503.2206;-504.0207;0.08821476;-0.1574055;0;
-661.8382;0;0;-628.2017;-7.196417;-11.0228;-657.7621;-655.8127;-0.04180857;0.2975241;0;
-297.9183;0;0;-309.5429;-6.11746;-4.313549;-298.9687;-297.0837;-0.3666033;0.2322578;0;
-246.2073;0;0;-258.5073;-8.053696;-2.701747;-245.6949;-247.1851;-0.04139819;-0.1577797;0;
-96.16018;0;0;-123.0031;3.273902;-7.119783;-98.20951;-99.32343;-0.1063239;-0.2225885;0;
542.5529;0;0;482.3788;6.017279;-6.844697;531.9474;532.6462;-0.4960212;-0.02746278;0;
660.011;0;0;628.8827;5.206949;-12.93314;651.4152;649.9268;0.1541507;0.1674668;0;
237.8721;0;0;250.5032;8.014756;-15.33141;235.282;233.5452;0.2189631;0.1672986;0;
207.3983;0;0;215.7063;-1.236697;-13.23966;202.1246;204.0753;-0.4309303;0.2320978;0;
94.2467;0;0;117.9137;-3.780074;-15.10176;91.91428;93.3008;-0.2355953;0.2318646;0;
-510.2317;0;0;-450.1069;3.925907;-10.06298;-503.254;-503.0557;0.4143149;0.4265336;0;
-659.5187;0;0;-623.6296;6.200114;-9.048128;-653.9223;-650.7258;0.3489312;0.4910724;0;
-299.1618;0;0;-304.1633;-5.662461;-11.65137;-298.631;-296.2498;0.02374389;0.1657423;0;
-254.8209;0;0;-256.8188;-7.465432;-10.96983;-251.2296;-254.0357;0.1536547;-0.0293263;0;
-88.46082;0;0;-106.886;2.456031;-13.70499;-88.62127;-91.04972;0.283435;0.03567052;0;
542.5609;0;0;490.9834;3.52529;-13.42341;532.3432;531.8537;0.1532155;-0.09430002;0;
645.4013;0;0;623.5482;11.29128;-14.81644;637.1304;633.6429;-0.04184045;-0.02923793;0;
242.5175;0;0;262.4154;14.29404;-15.0025;238.5652;235.5185;0.08813628;0.1007261;0;
212.5387;0;0;223.4212;16.69058;-11.97332;205.5919;207.3584;0.4778518;0.2305596;0;
81.64086;0;0;104.9436;20.02369;-12.43017;77.63705;79.40172;0.2175023;0.42523;0;
-510.0188;0;0;-450.1953;7.544986;-1.968584;-506.1476;-506.0089;0.1523164;0.2299007;0;
-655.2456;0;0;-616.5341;3.786361;2.052248;-652.0654;-650.3651;0.3470653;-0.1601344;0;
-301.3273;0;0;-301.4477;6.528246;-5.384676;-302.2107;-300.8245;-0.04308744;-0.3548755;0;
-249.1131;0;0;-249.4833;3.172784;-4.441504;-249.5583;-251.4843;-0.1080115;-0.4194863;0;
-94.94014;0;0;-111.6768;3.571738;-7.920154;-100.3825;-102.4314;0.2819011;0.1656413;0;
537.0251;0;0;485.3229;2.630144;-9.251733;521.8432;521.6078;-0.1081862;0.0355402;0;
657.8621;0;0;628.9503;-8.156141;-5.62548;644.257;642.5851;-0.4978816;-0.4842342;0;
239.5359;0;0;254.1315;-13.43923;-5.150947;231.7542;231.2085;-0.04260989;-0.353813;0;
201.3768;0;0;213.9587;-3.1106;-5.480686;192.416;194.8068;0.02240026;-0.2235228;0;
88.41866;0;0;115.0433;-2.304168;-6.011042;83.15249;83.85424;-0.1725243;0.1015385;0;
-506.8085;0;0;-446.2277;-8.397421;3.50633;-504.0734;-504.1845;0.02255111;0.1664038;0;
-656.0366;0;0;-625.3141;-6.044459;7.588644;-655.0533;-652.2906;-0.1074062;-0.3535021;0;
-293.5592;0;0;-308.2199;-17.15682;-0.5236722;-297.6994;-295.2519;-0.04233097;0.03665713;0;
-246.1629;0;0;-255.7489;-19.14931;0.2806492;-249.2994;-251.1023;0.3475156;0.2964897;0;
-82.49771;0;0;-107.5038;-6.805212;-1.796104;-89.75401;-91.49255;0.2821991;-0.09361231;0;
548.5805;0;0;485.931;-6.196137;-4.205563;532.5234;532.4108;-0.04292118;0.1013838;0;
645.7927;0;0;610.3174;8.344774;5.711893;632.0005;629.6392;-0.3677148;-0.09362012;0;
235.5371;0;0;242.6387;13.62865;6.509949;227.6935;226.334;-0.3673453;-0.1584934;0;
203.7538;0;0;206.5379;8.858559;5.163749;193.9815;195.7468;0.1527626;0.4913393;0;
76.11316;0;0;95.32369;11.39525;6.230288;68.4121;68.80132;0.2175764;0.1660089;0;
-507.2951;0;0;-453.5587;0.06429787;-1.344922;-506.5552;-506.6661;-0.3023809;-0.4838313;0;
-641.4052;0;0;-612.6478;-2.816155;-2.750212;-641.9778;-639.2151;-0.4969791;-0.1585085;0;
-289.2499;0;0;-302.2504;-8.305681;-6.096473;-294.757;-292.8716;-0.3665451;0.2314548;0;
-241.733;0;0;-256.7819;-14.66035;-8.70256;-244.9232;-247.1626;-0.2362421;0.2312223;0;
-73.19971;0;0;-107.4738;-4.732632;-4.40703;-80.44717;-81.87225;0.02386465;-0.09384678;0;
553.6213;0;0;486.4607;-5.933325;-4.804499;537.0108;537.5862;0.4136447;-0.02878514;0;
650.641;0;0;615.6567;-6.396854;-1.852545;637.8578;635.8713;0.4781964;0.1011785;0;
230.5106;0;0;239.8517;-5.318699;-1.046888;224.7367;222.7522;0.4127486;0.1660442;0;
198.9822;0;0;200.8801;-13.6861;0.5617542;191.8398;192.4186;0.7371706;0.295812;0;
84.90199;0;0;99.1668;-14.81045;2.503573;79.07862;79.15705;0.5415278;-0.0942893;0;
-508.1978;0;0;-463.2127;-14.66184;-4.130009;-510.2672;-510.6885;0.411049;-0.02922721;0;
-649.0535;0;0;-633.4739;-14.24497;-4.393791;-656.6181;-654.1655;0.08579928;0.8153776;0;
-282.7727;0;0;-308.8753;-16.8436;-8.14042;-297.1387;-293.8765;-0.6289277;0.4897216;0;
-234.0754;0;0;-259.652;-17.83105;-11.14635;-248.2395;-247.8542;-0.04358966;0.1643928;0;
-72.23389;0;0;-115.9632;-4.952415;0.1847207;-91.81862;-91.12129;0.4112255;0.424097;0;
553.2119;0;0;479.7914;-0.9289508;2.930713;525.5883;526.8472;-0.04395906;0.2287689;0;
645.6093;0;0;608.1821;0.4121292;-2.631693;624.5103;623.394;0.1509871;0.2935063;0;
229.9816;0;0;241.7548;4.430203;-2.093185;218.3366;217.6588;0.1508354;0.4231461;0;
202.0145;0;0;208.9658;1.478991;0.05237201;187.7574;190.5161;0.02074918;0.2927862;0;
80.80981;0;0;98.18637;2.414533;-0.01466354;66.37971;68.94817;0.08569567;0.03262267;0;
-505.914;0;0;-455.8214;2.814249;3.803256;-514.2077;-514.7653;-0.1742598;-0.4221815;0;
-638.1514;0;0;-615.4704;2.008114;5.540991;-649.2479;-649.3676;-0.3689867;-0.5516919;0;
-280.0024;0;0;-297.9487;3.345267;-1.43068;-295.3356;-294.4557;0.2160901;-0.421203;0;
-236.6177;0;0;-251.0478;1.868037;-2.969849;-248.9995;-251.4313;0.5407097;0.09895901;0;
-71.77522;0;0;-105.2437;6.153068;-0.1535821;-88.5173;-90.82174;0.02042764;0.4886636;0;
555.9814;0;0;487.0644;7.955546;-0.5553254;528.3241;528.3333;-0.1744949;0.2283032;0;
656.6843;0;0;613.886;-3.907817;-1.76046;629.1173;626.6278;-0.1743196;0.1631065;0;
239.1715;0;0;242.9553;-6.248415;-2.361538;220.128;217.8908;-0.2391118;0.09797527;0;
200.5755;0;0;205.5424;-4.098682;-0.0817451;182.4256;185.0008;0.02099787;-0.03205787;0;
83.43273;0;0;100.8883;-6.506438;0.5881664;66.23811;69.37292;0.1509115;0.09790904;0;
-507.1668;0;0;-454.8088;4.41844;-2.158725;-515.3486;-513.0916;0.2157272;-0.03212404;0;
-647.274;0;0;-619.2689;8.633559;-2.826385;-655.2603;-651.1313;0.02060837;-0.0970591;0;
-279.2458;0;0;-296.3711;0.4532104;-2.220699;-293.6582;-290.9078;-0.1743144;-0.2268963;0;
-233.6754;0;0;-250.971;2.79728;-3.491021;-245.6372;-247.7621;0.08573016;-0.551505;0;
-71.45957;0;0;-105.6667;-0.01857022;-0.6073692;-85.78307;-87.28115;0.280546;-0.2910815;0;
561.8564;0;0;495.6372;-1.49242;0.3310021;538.2395;540.1787;0.02039478;-0.09588695;0;
657.9933;0;0;622.3878;15.18722;-7.037331;636.1492;636.7122;-0.3044624;-0.1607579;0;
243.4152;0;0;252.0732;18.923;-7.968021;227.6525;227.2154;-0.2391892;0.1642403;0;
213.9353;0;0;221.1478;18.5692;-10.10335;197.064;199.3135;-0.1090141;0.488912;0;
85.34734;0;0;107.1703;21.83307;-11.96872;71.36658;73.67625;-0.2388393;0.163584;0;
-503.6299;0;0;-452.9684;14.17532;-3.048204;-510.3503;-509.6671;-0.173632;-0.2263844;0;
-636.1195;0;0;-613.1825;12.61986;0.03607331;-644.6447;-641.7758;0.08641188;0.03371243;0;
-279.5342;0;0;-296.3503;14.9517;-3.848851;-291.799;-288.6831;0.02135771;0.1636132;0;
-230.5903;0;0;-246.0152;14.80296;-2.907345;-240.1566;-240.2922;-0.1735658;-0.2263552;0;
-52.7604;0;0;-88.1597;10.83597;2.186157;-67.12715;-67.3251;0.08647799;-0.5509645;0;
582.4109;0;0;508.2542;10.1555;2.987756;556.0021;556.4291;0.4761952;-0.4204762;0;
670.5311;0;0;621.5612;11.48446;7.070591;646.3977;644.7003;0.2808146;-0.3550864;0;
250.7555;0;0;247.7493;10.33482;9.005991;236.3915;234.7582;-0.04430423;-0.4196969;0;
214.5216;0;0;214.1421;20.57222;2.834634;202.4834;204.5999;-0.4990311;-0.09443849;0;
75.75069;0;0;91.61341;22.695;2.764803;69.47169;73.02284;-0.6284643;0.2304931;0;
-517.5897;0;0;-469.5716;21.13195;-4.337922;-516.5536;-514.3803;-0.2380288;-0.09457519;0;
-644.8804;0;0;-624.6466;22.44989;-7.950641;-648.0932;-644.6102;-0.1728223;-0.2244148;0;
-278.4163;0;0;-302.743;12.98286;-0.5076691;-287.8102;-283.3938;-0.04271397;-0.2241894;0;
-229.9108;0;0;-252.5263;9.35347;-1.176988;-238.5457;-238.1941;0.152231;-0.3538988;0;
-64.01303;0;0;-101.7857;6.731127;2.039253;-74.88811;-76.47342;-0.3026934;-0.2236085;0;
568.296;0;0;497.3279;1.634149;3.77876;549.998;550.3509;-0.1074872;-0.2233838;0;
662.2399;0;0;619.8289;3.909683;-0.779754;645.2098;644.9376;0.2824248;-0.02825732;0;
237.2878;0;0;238.46;2.097093;-0.7119876;225.3972;226.1872;0.08723903;0.1666731;0;
202.2544;0;0;200.6143;-6.009339;-2.385845;188.3142;192.914;0.3470207;0.1015383;0;
80.1749;0;0;93.59139;-8.615269;-3.455053;68.87245;73.03035;0.4116394;0.2963383;0;
-507.8601;0;0;-461.2238;-7.869678;-2.714891;-511.4676;-508.5632;0.2812911;0.03617116;0;
-640.7828;0;0;-620.9923;-7.92912;-3.448853;-645.1987;-640.673;-0.04382825;-0.3536693;0;
-280.0699;0;0;-302.2158;-8.859158;-1.636971;-289.4789;-285.8323;-0.3686209;-0.2233792;0;
-233.062;0;0;-252.437;-7.577458;-0.8985138;-241.7119;-242.5667;0.08652086;-0.2231547;0;
-60.78925;0;0;-96.0743;-5.894905;-1.165543;-72.24154;-74.28248;0.2163686;0.1668735;0;
571.1417;0;0;505.2825;-5.018325;0.7111505;551.0803;551.665;-0.1086855;0.4265752;0;
661.3347;0;0;627.9629;6.439944;-0.4282739;642.5428;642.4398;0.08632572;0.2312446;0;
247.0656;0;0;258.7047;11.59104;1.71561;234.9142;234.3741;0.281141;-0.02885714;0;
212.9594;0;0;219.7767;6.756619;2.584543;200.0706;202.8418;0.3458259;-0.4186322;0;
72.19103;0;0;91.24535;8.357421;3.385741;61.62654;64.89476;0.1505763;-0.1583422;0;
-515.4612;0;0;-463.7549;8.416372;13.22859;-517.5193;-515.4413;-0.239379;0.2965883;0;
-633.5711;0;0;-608.4659;7.336188;14.55495;-636.939;-632.6142;-0.1092038;0.231323;0;
-272.3033;0;0;-288.7025;10.94614;23.78373;-281.165;-276.907;0.28071;-0.02877885;0;
-229.1762;0;0;-244.2471;10.86779;28.04662;-235.9051;-236.4615;0.3453953;-0.1586846;0;
-54.15876;0;0;-87.08056;6.30252;13.75144;-64.44164;-66.30929;0.2800809;0.03637687;0;
581.8885;0;0;516.2662;5.157112;11.46032;562.1832;561.6292;-0.1100046;-0.02862704;0;
668.8848;0;0;633.5008;0.7313002;4.013822;651.5731;649.7703;-0.3047961;-0.4184023;0;
244.4257;0;0;254.7418;-1.480237;-1.750622;233.3158;231.9521;-0.04462047;-0.2880472;0;
214.6324;0;0;222.1271;0.6647038;2.00206;201.4722;204.0455;-0.2394777;-0.09285577;0;
85.54406;0;0;107.7113;0.1955214;-0.009317957;75.08321;78.96571;-0.3042044;-0.2876645;0;
-515.3024;0;0;-458.175;1.936637;-2.621643;-516.6323;-513.5659;0.020938;-0.3523428;0;
-638.5349;0;0;-609.6383;2.939069;-3.958545;-641.0504;-637.05;-0.1090177;0.362652;0;
-266.0802;0;0;-281.3779;3.471979;1.336962;-274.3403;-272.093;-0.4337449;0.4922223;0;
-227.6446;0;0;-240.7405;4.473845;3.278002;-234.0847;-235.8377;-0.1734397;0.1019237;0;
-54.00299;0;0;-85.20164;5.742147;1.265342;-62.43569;-63.87452;0.08660395;-0.09308078;0;
580.3574;0;0;513.8329;6.874477;3.072488;564.437;563.8741;-0.2383198;0.03694744;0;
661.3583;0;0;624.8231;5.594772;1.997673;647.5153;644.3918;0.1517237;0.361747;0;
242.9037;0;0;250.8829;5.58915;3.335325;234.6968;232.3886;0.6063427;0.1664815;0;
209.239;0;0;212.6499;5.182369;6.480171;199.3537;201.9828;0.3458641;0.03637955;0;
67.66229;0;0;85.81236;4.038086;9.554752;60.66046;64.41135;0.2155818;0.231245;0;
-522.609;0;0;-470.3694;5.641619;6.999801;-521.6078;-518.6104;0.3452999;-0.2887261;0;
-640.6493;0;0;-615.1362;4.697945;6.189094;-640.7736;-635.905;0.4748876;-0.4183706;0;
-281.9356;0;0;-299.4265;5.363786;24.93761;-286.2451;-282.5059;0.4744105;0.1667558;0;
-238.3615;0;0;-254.4606;6.295425;30.80693;-239.6682;-240.4305;0.2790318;0.1016209;0;
-57.58778;0;0;-90.84951;-3.490165;20.59481;-61.0171;-61.65368;-0.04608533;-0.2882853;0;
578.9002;0;0;511.8763;-5.831182;20.10524;566.3539;567.8419;-0.04603903;-0.2230282;0;
666.899;0;0;632.3637;-1.136274;23.83596;656.3643;655.9767;-0.1109601;-0.4177062;0;
239.5059;0;0;252.419;-0.7329906;23.87899;236.0407;235.2787;-0.2407833;-0.3523191;0;
201.1594;0;0;212.123;0.6069166;15.14746;196.1984;199.4352;-0.04563933;-0.09209573;0;
71.14749;0;0;96.59277;1.544312;11.85007;69.12758;73.17319;0.2142759;-0.2219379;0;
-526.8734;0;0;-468.0955;6.499253;11.57036;-520.5205;-518.0407;0.2140606;-0.09178019;0;
-649.782;0;0;-617.175;8.032964;8.611483;-644.9347;-641.3954;0.3437802;0.2331488;0;
-272.5059;0;0;-286.0335;10.10197;13.69341;-272.2237;-269.4376;0.3434348;0.03801246;0;
-234.1887;0;0;-250.0765;11.56569;15.08629;-231.6579;-232.123;-0.2416164;-0.02699309;0;
-58.54156;0;0;-92.2794;6.060738;10.51642;-58.44959;-59.16404;-0.5662103;0.3628381;0;
585.0688;0;0;519.8182;4.916548;11.51059;576.6649;577.7628;-0.1758374;0.4274409;0;
662.0045;0;0;631.0522;1.026842;11.36506;654.8584;654.6433;-0.04572599;-0.1576947;0;
242.3624;0;0;258.7299;-1.051271;11.55459;240.5958;240.7557;-0.1756147;-0.1575363;0;
209.8226;0;0;225.7364;-3.461112;17.50422;206.8709;210.9662;-0.1104709;0.1674587;0;
59.99943;0;0;93.70086;-5.73481;18.82629;61.98573;66.20186;0.2794441;-0.0925789;0;
-532.5755;0;0;-462.6762;-1.44214;22.55829;-519.7842;-516.8217;0.3441307;-0.2873879;0;
-643.0471;0;0;-599.3923;-1.77646;24.88003;-630.5809;-626.3095;-0.04601916;0.03773759;0;
-282.5193;0;0;-281.9493;3.785031;21.77394;-275.3755;-271.9205;-0.2408749;0.4275037;0;
-241.1311;0;0;-240.9365;6.795337;23.09159;-233.0575;-232.9168;-0.04573089;0.3621068;0;
-47.11126;0;0;-68.65585;-3.861411;14.36086;-42.29406;-43.15301;-0.04568494;-0.02806109;0;
580.8704;0;0;528.6129;-7.072711;10.05964;578.0616;577.1411;-0.5653778;-0.0280329;0;
648.5649;0;0;632.8416;1.641932;19.76181;649.0073;646.526;-0.5648097;-0.1579394;0;
234.8084;0;0;265.1403;1.57391;18.33531;241.997;241.0798;0.02046393;-0.09281337;0;
201.839;0;0;228.1423;-6.666695;18.38387;207.7709;211.165;0.150378;0.4270186;0;
64.76744;0;0;104.4126;-8.736101;18.16445;73.94179;76.83275;-0.1096424;0.1017529;0;
-527.1251;0;0;-455.0986;-12.74679;9.974527;-509.2769;-508.1379;-0.1095323;-0.09325142;0;
-650.7206;0;0;-606.9398;-14.81008;8.222949;-633.6399;-630.2532;0.08547983;0.1017443;0;
-276.3171;0;0;-277.0579;-15.79958;0.8468081;-264.1886;-260.493;-0.04454074;-0.09325996;0;
-233.1236;0;0;-233.4888;-16.78906;-1.699394;-219.7578;-219.6891;-0.1744307;0.03676845;0;
-61.66287;0;0;-79.45646;-13.55701;-3.104328;-50.93428;-51.42785;0.08561397;-0.1581705;0;
578.0151;0;0;528.7552;-13.20859;-5.445489;581.2991;581.6806;-0.04440674;-0.3529136;0;
656.7694;0;0;640.1676;-7.233474;4.808126;661.9867;660.6187;-0.1742968;-0.02772231;0;
231.5104;0;0;261.2145;-5.082752;6.209937;241.7824;241.6651;0.2806497;0.1672076;0;
196.4828;0;0;226.3445;-4.475409;13.97347;205.1827;209.4384;0.3453351;0.1020722;0;
46.11084;0;0;94.62064;-2.393831;18.91605;59.29979;63.05141;0.2150534;0.2319043;0;
-542.5146;0;0;-460.6953;-8.152202;8.447948;-520.2185;-518.5946;0.344772;0.361606;0;
-642.1691;0;0;-591.3541;-8.277732;7.769629;-620.895;-618.1482;0.3444256;-0.02856139;0;
-281.8922;0;0;-278.4793;-12.82474;6.355181;-263.3879;-262.0183;0.01924277;-0.5482714;0;
-248.2507;0;0;-248.1521;-15.1554;4.004515;-227.1414;-229.5837;-0.2406459;-0.3528185;0;
-54.78587;0;0;-74.36498;-8.308649;3.933508;-38.32045;-40.82277;-0.3053715;0.03734008;0;
578.5134;0;0;529.2189;-7.094852;2.65688;586.9038;585.7783;-0.564934;-0.2225668;0;
643.9614;0;0;629.449;-5.747576;2.788176;655.4044;653.0306;-0.304497;-0.2873105;0;
228.8976;0;0;261.0014;-4.20156;3.656152;245.514;243.5175;0.3454824;0.03781489;0;
195.6218;0;0;226.2565;-0.1778739;2.580752;210.4098;212.2883;-0.0446688;0.1677116;0;
46.87487;0;0;90.7846;1.831061;3.917817;65.45866;68.33479;-0.2395259;0.2325104;0;
-545.1247;0;0;-471.3991;0.3563284;7.12894;-517.9389;-515.9402;0.0205841;-0.1575273;0;
-656.833;0;0;-611.6047;0.2886214;7.724623;-630.2993;-627.5529;-0.3042733;-0.09240167;0;
-279.0501;0;0;-276.7207;3.16872;19.5726;-255.5415;-254.2347;-0.2390002;0.2325279;0;
-233.1676;0;0;-229.7161;5.911226;23.43782;-206.9965;-209.4391;0.151044;0.1673269;0;
-57.02176;0;0;-71.18987;-7.490324;18.2567;-34.37513;-37.1277;0.02095753;0.2970935;0;
578.2162;0;0;530.954;-9.894671;18.84121;592.157;591.4686;-0.4338349;0.1018929;0;
647.5377;0;0;632.994;-0.5076069;13.32979;663.7757;662.7757;-0.433399;-0.1580788;0;
218.2899;0;0;253.4234;0.1634646;10.77117;240.8835;241.3837;0.02180787;0.03698204;0;
182.3385;0;0;218.6236;8.870837;9.822588;204.722;208.8449;0.0867533;0.3617816;0;
33.54253;0;0;86.15793;12.14348;8.740991;60.27628;63.58298;-0.2381706;0.5563201;0;
-548.3862;0;0;-463.4649;16.21711;2.502918;-512.7463;-511.1295;0.08690544;0.4258264;0;
-641.4131;0;0;-584.813;20.08558;-0.1118099;-606.3713;-603.5068;0.1517855;0.03559449;0;
-280.0125;0;0;-262.762;13.56867;9.131703;-248.8164;-246.642;-0.4980405;-0.1593433;0;
-244.9361;0;0;-224.4546;13.55503;10.59615;-209.8983;-211.1618;-0.3676054;-0.2241506;0;
-51.47461;0;0;-49.75423;9.723021;14.40341;-18.22115;-19.6708;0.02256807;0.1658787;0;
577.0112;0;0;548.6825;7.034909;17.13512;601.8605;601.4742;-0.1723566;0.2956468;0;
642.5233;0;0;647.7061;9.036596;15.17552;669.7213;667.6488;-0.04224876;0.2303823;0;
227.3985;0;0;281.4266;7.419926;15.76311;260.941;259.995;0.02276103;-0.02971853;0;
189.1266;0;0;245.1619;8.216754;14.0727;221.5735;225.4385;-0.1721639;-0.2245907;0;
37.07539;0;0;107.5471;7.605285;13.25477;73.36272;76.97402;-0.1070235;0.03550436;0;
-554.5395;0;0;-452.7169;9.338955;10.42829;-510.605;-509.1212;-0.4317527;-0.09446602;0;
-660.1165;0;0;-588.7559;10.4013;9.948927;-617.6004;-613.8068;-0.4962862;-0.4841751;0;
-276.3957;0;0;-250.1467;7.979949;2.905844;-237.0458;-233.5059;-0.1059835;-0.2238193;0;
-234.7013;0;0;-205.1054;9.4458;-0.4461;-192.5798;-193.2914;-0.105877;-0.3535291;0;
-63.23904;0;0;-52.78825;3.876603;9.467578;-23.34632;-26.36846;0.2840334;-0.6780105;0;
574.7538;0;0;549.7744;2.131396;10.12789;605.6735;603.5914;0.4786501;-0.3524926;0;
646.5775;0;0;655.5436;10.70209;11.99312;678.2156;676.8228;-0.04156962;-0.09226901;0;
217.3932;0;0;274.576;10.82604;13.38771;255.6837;255.1668;-0.1064952;-0.1571436;0;
184.9409;0;0;242.0039;17.44562;10.89601;222.3184;225.3628;0.2184485;-0.3518878;0;
37.57907;0;0;111.8885;20.50955;11.01903;77.60516;81.52102;0.08829433;-0.4165015;0;
-554.2238;0;0;-449.0045;11.11181;4.44375;-506.5542;-503.3295;-0.1716637;-0.221181;0;
-652.1174;0;0;-580.2372;10.16264;1.692985;-606.1199;-601.649;0.02341077;-0.02605674;0;
-284.8964;0;0;-258.4406;5.530733;0.8874888;-242.1935;-240.1634;0.4131913;-0.0909979;0;
-251.002;0;0;-220.9497;1.707758;-1.390701;-205.5934;-207.0636;0.2178741;-0.3507758;0;
-55.22308;0;0;-44.62867;6.929979;-1.121372;-13.67073;-13.64015;0.02275315;-0.480358;0;
578.8262;0;0;554.3027;7.056738;-1.656108;611.2789;612.8712;-0.04223706;-0.09007134;0;
636.2155;0;0;645.3871;-0.719885;-1.453495;671.1967;670.8509;-0.107162;-0.08998083;0;
217.6613;0;0;272.4883;-3.197408;-0.9161714;260.4784;261.0075;0.08784774;-0.2847925;0;
183.772;0;0;238.1066;6.853488;0.0894932;225.9839;230.8852;0.1527268;0.1052978;0;
28.103;0;0;100.0616;10.12816;0.8930765;72.6463;79.1044;-0.04232867;0.494996;0;
-562.0037;0;0;-460.5072;0.7408564;4.710206;-508.8844;-502.5577;0.2175832;0.4295313;0;
-658.89;0;0;-588.7923;-0.4653368;6.781822;-606.9485;-598.8167;0.3472993;0.03929567;0;
-282.8541;0;0;-257.4294;9.850259;5.971213;-236.3996;-229.0255;0.08708095;0.1042235;0;
-250.5859;0;0;-223.5627;12.25126;7.974701;-202.1792;-198.748;-0.1079086;0.3639882;0;
-67.48856;0;0;-57.73376;11.16722;5.555424;-22.25387;-19.38835;-0.3676695;0.2336877;0;
575.1937;0;0;552.58;14.23746;5.884757;612.0122;615.8743;-0.3023327;-0.02641645;0;
639.5207;0;0;652.6617;5.314546;10.23261;679.613;681.7221;-0.04215959;-0.5461286;0;
212.6548;0;0;275.3202;2.160398;11.62885;259.8282;261.5604;-0.3019866;-0.6755145;0;
179.0829;0;0;239.8113;16.2244;17.17663;225.959;231.3752;-0.3666505;0.1047723;0;
26.79192;0;0;102.4518;17.41452;21.04438;77.1192;83.71677;0.1534566;0.1696344;0;
-564.063;0;0;-456.3703;15.58836;16.60236;-505.353;-500.5737;0.4131718;-0.09040546;0;
-656.9493;0;0;-580.1618;16.8455;16.31775;-598.1733;-592.3369;0.3477893;0.1045874;0;
-278.2917;0;0;-248.8701;8.924339;23.60237;-224.1975;-218.4918;0.1525378;0.1694497;0;
-245.4034;0;0;-216.2613;7.776297;23.04279;-189.6145;-187.4127;0.08741722;0.1043121;0;
-63.43569;0;0;-48.87803;2.946688;26.83754;-8.702291;-7.439794;0.1522967;0.3640766;0;
566.9362;0;0;554.8676;-0.2714538;27.8823;614.4307;617.2537;-0.1077257;0.2337761;0;
623.8376;0;0;648.7001;6.426624;14.79298;672.7213;674.2295;-0.3025194;0.1036065;0;
204.3589;0;0;275.4856;6.219096;12.0988;257.6286;259.76;-0.1722808;0.3633718;0;
177.8543;0;0;248.847;9.495377;2.508323;229.009;234.699;0.02279434;0.1681046;0;
28.50053;0;0;117.6628;10.82501;-3.455556;83.53938;89.03626;-0.3020653;-0.2868357;0;
-560.8569;0;0;-441.7993;11.0152;3.246088;-495.8784;-492.5734;-0.2367944;-0.2215801;0;
-660.6179;0;0;-572.1646;12.87917;1.166355;-596.017;-591.1536;0.1532476;0.2334139;0;
-290.0775;0;0;-244.8789;5.699905;8.399218;-230.539;-225.1183;0.0231589;0.2981468;0;
-252.055;0;0;-207.9013;4.220309;11.7398;-190.7023;-189.9097;-0.1067991;-0.02698956;0;
-63.64633;0;0;-37.90274;3.680205;4.360128;-5.228808;-6.061228;-0.0417244;-0.09192978;0;
569.287;0;0;565.3946;0.6623975;4.824627;618.9627;619.5679;0.08825221;-0.1568048;0;
629.4344;0;0;659.5914;7.494235;7.498975;680.3721;679.29;0.2830656;-0.1566472;0;
205.7022;0;0;282.0555;7.88787;8.496183;262.3982;261.5671;0.08787911;-0.02655511;0;
173.3866;0;0;247.1645;3.794108;7.951783;229.5884;232.1939;-0.3020132;-0.09149577;0;
24.47467;0;0;112.8586;3.790295;8.747588;84.80536;87.03343;0.1530616;0.1684656;0;
-563.8167;0;0;-444.0375;-0.29935;9.274662;-494.9885;-493.9495;0.4127772;0.1682963;0;
-659.5143;0;0;-569.5905;-0.9012856;9.734223;-591.5673;-588.9052;-0.237311;-0.2216769;0;
-281.8536;0;0;-234.4988;-5.32101;12.9395;-217.8479;-216.7503;-0.1071379;-0.2864215;0;
-245.3386;0;0;-198.8435;-8.665542;13.46236;-180.3353;-183.2992;0.2178065;-0.09123167;0;
-62.37146;0;0;-38.09937;2.596298;16.19501;-1.993643;-4.267392;0.282555;0.1687294;0;
568.3742;0;0;561.575;3.732765;16.64762;620.3206;619.6108;0.08736905;0.2984945;0;
623.8374;0;0;651.8401;4.599671;16.09503;678.1678;676.0845;-0.3674901;0.1032926;0;
201.1727;0;0;275.8113;8.412466;16.48076;262.2577;261.8006;-0.04228416;-0.2216479;0;
172.36;0;0;247.5482;-5.996951;7.689676;232.8838;236.1128;-0.107209;-0.5462619;0;
13.3916;0;0;107.1824;-8.535544;4.265942;77.04048;79.32925;-0.04213395;-0.350811;0;
-581.3229;0;0;-456.1422;-0.891158;6.739902;-509.9294;-508.58;0.3477124;-0.09058917;0;
-668.3823;0;0;-578.3097;-1.292404;5.460576;-599.2469;-595.2751;0.2823957;0.03943656;0;
-290.7127;0;0;-245.7705;5.005534;3.17767;-225.3324;-222.3017;0.2171446;-0.02557042;0;
-255.8754;0;0;-207.4177;7.612473;2.57163;-187.1876;-188.4702;0.2169264;-0.1554794;0;
-60.96616;0;0;-31.4851;6.80054;3.841722;3.967038;1.936067;0.08677378;0.03957885;0;
568.1539;0;0;566.6209;8.803439;4.239759;623.839;622.4972;0.1516539;0.03953908;0;
617.3705;0;0;649.8845;6.718489;7.115644;675.3734;672.2839;0.02156686;-0.025468;0;
202.271;0;0;280.4168;6.644389;8.85005;266.9622;265.1252;-0.3682589;-0.3502791;0;
172.2702;0;0;251.1496;10.92462;8.171328;235.5222;238.0597;-0.4328562;-0.7397312;0;
9.179026;0;0;105.8452;13.45924;8.631998;75.42837;78.71301;0.0873175;0.04062019;0;
-581.7207;0;0;-456.3536;7.149075;11.57045;-507.3545;-505.1351;0.1521971;0.4953508;0;
-665.5937;0;0;-575.8348;7.476685;12.8315;-592.989;-589.335;-0.04285785;-0.1548204;0;
-287.6146;0;0;-239.9872;10.68435;8.26389;-218.3936;-215.4305;0.08711989;-0.4795015;0;
-260.2142;0;0;-206.7002;10.07138;7.049894;-188.0643;-188.4774;0.1519997;-0.2191504;0;
-73.29657;0;0;-41.32553;23.85901;8.18152;-4.904781;-6.254572;0.02191228;0.04093922;0;
564.3941;0;0;563.0997;28.32302;6.900624;624.6587;623.5601;-0.1730117;-0.08903661;0;
620.7983;0;0;656.924;21.05991;7.563519;683.3762;681.5291;-0.3677399;-0.4137838;0;
198.9488;0;0;282.5142;20.70396;7.154022;266.8361;266.8024;-0.3024031;-0.2184661;0;
173.4491;0;0;254.8691;21.01795;4.534621;240.2062;243.9832;0.1526722;-0.1532792;0;
14.29223;0;0;113.2466;19.59031;3.927218;85.41753;88.87838;0.3474208;-0.08815785;0;
-583.3593;0;0;-452.333;13.40868;1.176972;-503.8097;-501.5392;0.02223498;0.1718001;0;
-667.7928;0;0;-568.5698;10.11268;-0.4316791;-589.7599;-585.6177;-0.1726894;0.1066601;0;
-296.2458;0;0;-238.8515;5.146028;4.860284;-222.4767;-219.8379;-0.04258119;0.3664224;0;
-266.5878;0;0;-208.1893;0.5865053;7.132699;-190.7065;-193.4426;0.2822983;0.3660541;0;
-59.3615;0;0;-22.6982;2.193506;1.767019;13.25769;9.087542;0.2170473;-0.02411772;0;
571.9434;0;0;579.2096;-0.8228077;2.234124;635.9314;632.5775;-0.1729748;-0.1540282;0;
616.7209;0;0;660.8362;3.5313;6.317716;683.0184;678.481;-0.1078337;-0.08890606;0;
215.4901;0;0;306.2252;5.872276;7.115163;287.1557;283.9347;0.2171114;0.1060853;0;
185.6009;0;0;277.994;-7.998725;15.01188;255.4455;256.4131;0.08695854;-0.1538907;0;
3.880691;0;0;113.2973;-9.732;18.34582;77.65305;79.61922;-0.1080309;-0.2187034;0;
-589.8248;0;0;-452.5946;-5.904805;16.92074;-507.381;-505.7291;-0.1728896;0.04138576;0;
-676.1884;0;0;-570.2055;-6.233664;19.51608;-594.6395;-591.5526;0.1521208;0.04134418;0;
-296.1996;0;0;-233.9263;2.346415;13.937;-219.8551;-218.208;0.2169353;0.10627;0;
-252.2365;0;0;-189.401;5.96138;12.71731;-173.7822;-176.3847;-0.1730868;0.04119585;0;
-64.13994;0;0;-18.29663;6.557626;16.45545;13.1735;9.449241;-0.4327822;-0.0238129;0;
567.5446;0;0;583.1694;9.565146;15.0324;636.5344;633.4386;-0.36738;0.3010477;0;
622.3839;0;0;671.8511;10.0914;20.57663;692.1166;688.1493;0.02279319;0.04087589;0;
196.7222;0;0;292.9286;10.61712;21.5607;271.7571;269.293;0.08773763;-0.3489693;0;
174.2232;0;0;269.0836;16.83574;16.51544;247.7459;249.095;0.02268213;-0.08874923;0;
18.12653;0;0;129.1959;19.83294;16.36488;95.63584;97.54572;-0.04230801;-0.1536274;0;
-579.8411;0;0;-438.9608;9.364161;11.32484;-492.9145;-492.131;0.1526365;-0.4783098;0;
-660.1553;0;0;-553.7744;7.81451;10.0409;-575.0027;-572.6582;0.5422872;-0.2179598;0;
-288.4285;0;0;-223.5087;7.137073;7.820377;-209.0461;-207.1413;-0.04296376;-0.08780608;0;
-260.4026;0;0;-191.675;2.909367;5.33415;-178.6637;-180.259;-0.2378226;-0.4775219;0;
-52.12056;0;0;-7.637268;16.16931;13.23265;27.34988;25.50626;0.1522204;-0.6069767;0;
573.8047;0;0;587.6337;18.09544;13.42031;645.3867;643.9822;-0.5625733;-0.2815302;0;
608.5229;0;0;660.194;11.17839;17.15775;682.6567;678.3801;-0.4970407;-0.02137791;0;
201.7406;0;0;297.0878;12.90847;19.68586;280.5475;277.9618;-0.1067372;-0.08632378;0;
174.9263;0;0;270.3651;-1.773889;10.89143;251.3427;254.3193;-0.3664993;-0.1512044;0;
-6.158534;0;0;108.2997;-7.063392;10.00983;74.36644;77.58995;-0.04129436;-0.0860851;0;
-594.5441;0;0;-452.1524;6.005499;5.712868;-505.4794;-503.5085;0.2835838;-0.4108353;0;
-666.91;0;0;-558.7068;6.334257;2.693017;-579.3716;-576.5905;0.1533642;-0.5403572;0;
-297.4253;0;0;-232.3717;5.72468;5.235541;-214.2227;-213.7558;0.02327543;-0.2149775;0;
-270.4523;0;0;-204.2772;7.059075;3.287897;-186.0215;-189.1782;-0.0417153;0.1750426;0;
-71.46797;0;0;-27.34828;5.645462;7.504396;8.255389;5.351665;0.3481307;0.3048013;0;
565.7211;0;0;578.3123;5.839884;8.233668;636.9311;634.7799;0.4777156;0.3044951;0;
609.5678;0;0;659.69;8.44696;4.943353;684.267;679.1819;0.08743148;0.4341238;0;
182.1699;0;0;280.5923;10.44723;5.541111;263.0408;258.0858;0.02237629;-0.08605115;0;
160.4976;0;0;258.9461;2.533478;0.310996;239.4757;239.5856;0.1522885;-0.4757687;0;
7.350743;0;0;124.0037;0.654922;-1.229802;90.06007;90.66965;-0.1077339;0.3043174;0;
-586.6705;0;0;-437.5262;6.616111;2.321407;-495.4237;-496.0016;-0.1076256;0.2390443;0;
-670.9759;0;0;-553.778;5.80518;2.720972;-581.7572;-580.3981;0.3472539;-0.4108693;0;
-294.1783;0;0;-223.3249;13.10036;3.589016;-209.7968;-209.9383;0.346905;0.1092823;0;
-264.0851;0;0;-194.7397;16.63717;4.925069;-176.4152;-181.1792;0.02171969;0.1741398;0;
-65.79433;0;0;-15.25915;5.033508;6.929486;19.28877;14.65451;0.02169786;-0.2158392;0;
563.8303;0;0;584.7671;3.822026;8.731062;640.0198;638.0764;0.1516107;-0.2805897;0;
601.8069;0;0;657.9549;4.354049;8.856256;680.1063;677.1653;0.02152372;-0.2153404;0;
190.2838;0;0;294.1638;1.536635;8.981322;273.9392;271.3135;-0.3033346;-0.08518935;0;
168.3535;0;0;269.1931;11.31435;12.92417;249.4886;250.7386;-0.4329645;0.04483094;0;
-13.91163;0;0;103.5683;13.84858;12.97817;70.70269;73.32574;-0.1726601;0.0447859;0;
-602.7891;0;0;-451.9441;1.778226;13.03211;-509.3268;-507.2686;0.4771868;-0.2151285;0;
-666.5261;0;0;-549.3158;-1.50609;13.42091;-574.4695;-572.1011;0.4767073;-0.539749;0;
-299.603;0;0;-224.5518;7.47138;3.494195;-212.1367;-210.7701;0.08642428;-0.1494026;0;
-272.3155;0;0;-194.966;7.999736;0.2085207;-182.2509;-184.5089;0.2162721;0.2405515;0;
-68.64413;0;0;-14.23579;-1.319051;-1.064242;19.2685;15.76344;0.02115279;-0.08452688;0;
565.0439;0;0;588.0383;-4.399185;-4.680252;644.4974;641.558;-0.3686725;-0.1494093;0;
602.7069;0;0;662.7221;-2.518754;-0.5895899;684.142;679.0817;-0.1084327;-0.01932448;0;
171.6302;0;0;281.1227;-3.85637;-1.593742;259.2928;255.4245;0.02161094;0.1106296;0;
156.1529;0;0;263.8487;-8.139403;-0.1186376;241.7909;242.4867;-0.3032475;0.5003225;0;
1.386209;0;0;123.7789;-9.001881;1.89097;89.62433;90.69422;0.3467306;0.1749831;0;
-597.9389;0;0;-443.3105;-11.9396;-7.756229;-501.2313;-500.2249;0.9310883;-0.6048008;0;
-673.05;0;0;-551.9352;-13.06668;-9.088094;-578.0638;-575.3718;0.410414;-0.7341278;0;
-293.6891;0;0;-216.0492;-9.569945;-5.461884;-203.6084;-202.7931;0.02019758;-0.2786188;0;
-268.8439;0;0;-186.1595;-9.7614;-5.590362;-176.2924;-179.5384;0.08514463;0.1114652;0;
-68.67421;0;0;-6.312793;-2.384202;-1.900805;19.349;16.41855;0.1500264;0.0463859;0;
558.9543;0;0;590.5186;0.4322094;-0.6262193;637.3314;635.7782;0.08490833;-0.08359541;0;
588.0653;0;0;652.5812;-4.659416;1.182827;668.9873;666.1238;0.2147577;-0.2784134;0;
177.1806;0;0;281.6741;-4.521012;2.454314;263.0813;262.1572;0.01963988;-0.01826432;0;
162.26;0;0;265.5865;-6.525225;2.920729;244.6386;248.1507;-0.3701839;0.1116887;0;
-16.25088;0;0;106.5245;-7.657744;3.989521;69.66808;72.67693;0.01999211;-0.1482929;0;
-603.5643;0;0;-452.0518;-11.33375;-0.9041199;-507.6743;-506.7299;0.08493936;-0.2131112;0;
-665.6763;0;0;-550.4854;-14.33647;-2.510802;-571.5693;-568.9392;-0.4998521;-0.01799505;0;
-301.0654;0;0;-229.5933;-9.231847;-1.570518;-211.9879;-210.235;-0.1745131;0.3718271;0;
-272.652;0;0;-197.7535;-8.75308;-2.841615;-181.8524;-184.9739;0.08553162;0.1765515;0;
-58.73544;0;0;-4.526825;-10.82137;-3.374624;28.66206;25.044;-0.3043584;-0.08349533;0;
565.9471;0;0;590.8035;-8.465968;-4.375977;645.8855;643.2706;-0.4339872;-0.1483788;0;
594.1765;0;0;657.3636;-15.8922;-4.103648;676.8456;672.2343;-0.1087145;-0.5380337;0;
177.2887;0;0;284.5776;-17.28275;-4.501422;264.4974;261.5775;0.3461662;-0.3425911;0;
161.8682;0;0;267.3002;-6.213324;-6.774197;246.9903;248.5085;0.2158837;0.1774919;0;
-1.275017;0;0;124.6032;-5.604845;-8.241014;88.63414;89.83847;-0.2391047;0.04737887;0;
-599.2231;0;0;-442.487;5.586571;-4.682761;-500.3464;-500.0179;0.215907;0.04733127;0;
-675.8323;0;0;-554.6108;10.67215;-3.137448;-579.4911;-577.3513;0.2806574;0.1122511;0;
-298.2177;0;0;-220.2838;-1.462364;-11.5739;-207.3456;-206.4573;-0.04446132;-0.01779644;0;
-270.2444;0;0;-188.3909;-1.729314;-12.56702;-177.4022;-180.0131;0.1504854;-0.01777856;0;
-65.3882;0;0;-2.982181;-6.88514;-10.61188;25.1743;21.1293;0.2153015;-0.01776069;0;
570.233;0;0;602.0292;-9.958705;-11.53898;653.3333;649.6671;0.3450198;-0.2126449;0;
600.6445;0;0;668.3906;-6.466074;-3.556662;685.9101;681.498;0.01983647;0.04743817;0;
180.8766;0;0;293.2198;-6.392228;-1.5436;271.4913;267.6459;-0.4349549;0.3722272;0;
167.2642;0;0;275.309;-6.855296;-0.1354076;255.9762;256.8198;-0.4345178;0.3068859;0;
-7.878458;0;0;115.8624;-5.977751;2.67789;83.9928;85.83505;-0.4990485;0.1766428;0;
-601.0099;0;0;-447.7833;0.7934094;-3.554092;-500.9851;-501.8308;0.02119164;0.1764653;0;
-667.9346;0;0;-548.47;4.075142;-3.952418;-569.6345;-568.9801;0.346007;0.2412554;0;
-301.5098;0;0;-224.0817;4.740633;-3.680515;-207.2439;-206.9026;0.1507574;-0.08382379;0;
-268.5357;0;0;-189.4363;5.138011;-4.88251;-172.4281;-176.7098;0.08563853;-0.01877222;0;
-52.68676;0;0;4.031857;17.59143;-0.9925936;38.63915;33.67463;0.1505198;0.3710507;0;
572.2396;0;0;599.7284;23.60197;-0.254784;654.978;651.3928;0.2803033;-0.01912619;0;
594.7155;0;0;662.1566;2.880654;-1.125306;680.2443;675.2884;0.08511959;-0.2789763;0;
181.2005;0;0;295.1129;-0.4037942;-0.7892607;272.3905;269.0637;-0.3697373;0.3060101;0;
170.3363;0;0;281.0733;5.69218;0.2161543;259.5606;259.9228;-0.5642678;0.1757679;0;
-9.119748;0;0;119.1846;3.8778;0.5508518;82.76354;82.81306;-0.3687988;-0.1492454;0;
-608.2469;0;0;-447.7752;9.298911;1.889957;-507.2106;-508.2231;0.1513105;0.1107739;0;
-673.6026;0;0;-545.6509;10.29492;3.495648;-572.7303;-571.8677;0.02122375;-0.08423943;0;
-299.8633;0;0;-217.1425;10.75309;-1.062582;-204.4021;-204.3525;-0.628471;-0.2140895;0;
-270.0768;0;0;-184.8154;11.41187;-0.994531;-173.8995;-178.2852;-0.3030028;0.04599503;0;
-56.28775;0;0;10.20984;11.80255;3.025322;35.91987;31.03882;0.3469751;0.2408508;0;
574.7642;0;0;606.7747;11.79069;4.830822;658.7582;654.8191;0.4115938;-0.01926055;0;
597.3;0;0;661.887;9.166872;5.964555;684.0208;677.9617;0.0863435;-0.3440779;0;
176.1612;0;0;287.16;8.554448;6.226494;267.4175;263.4259;-0.3035473;0.1110392;0;
157.6184;0;0;268.7555;3.522011;17.60709;245.7845;246.9819;-0.1733076;0.04596032;0;
-19.8883;0;0;109.1281;2.715165;21.34032;71.81238;72.5088;0.1517032;-0.2139552;0;
-608.5724;0;0;-450.2629;-2.043962;16.09433;-508.9054;-509.3341;0.2814855;-0.1487729;0;
-670.8668;0;0;-547.5739;-4.586527;17.14989;-573.174;-571.2285;0.2162353;-0.2785581;0;
-305.501;0;0;-226.4973;5.263719;11.03733;-212.2792;-212.2097;-0.1088187;-0.1483435;0;
-272.0857;0;0;-191.4122;5.660571;8.949892;-177.7082;-182.8236;0.08619268;-0.1481945;0;
-48.86185;0;0;9.366795;13.69283;8.338053;41.48531;36.43747;0.2160408;-0.2779803;0;
571.313;0;0;598.8111;17.22905;6.186221;654.5105;650.0924;-0.04404569;-0.2127336;0;
586.6685;0;0;650.8704;10.51393;10.66774;672.2811;665.2437;0.08593325;-0.1475525;0;
174.6608;0;0;284.9625;11.64147;11.72875;264.2478;259.279;0.3457163;0.1774325;0;
163.4283;0;0;274.9936;0.4439871;11.31506;250.9263;250.96;-0.04443515;0.3721562;0;
-15.02126;0;0;114.2354;-3.909739;12.8443;75.51226;75.85825;-0.2392925;0.1119129;0;
-612.8931;0;0;-455.0933;2.859343;12.96536;-514.2047;-514.2339;0.2806866;0.04683312;0;
-678.5565;0;0;-555.2104;2.789121;13.01932;-579.9048;-578.6221;0.1504699;-0.2780507;0;
-304.8747;0;0;-224.6934;-0.6963059;20.50808;-210.5699;-210.7878;-0.04458329;-0.08286925;0;
-274.2086;0;0;-192.796;-1.767333;23.63567;-178.3744;-182.715;0.02042885;0.2420507;0;
-59.72822;0;0;-1.385931;6.003975;16.84677;32.82373;28.05027;-0.1095264;-0.4078659;0;
576.0747;0;0;603.7488;7.00232;17.09777;659.5382;656.5187;-0.04444896;-0.6023581;0;
600.9206;0;0;666.6102;10.54526;14.87028;686.7365;681.721;-0.3042737;-0.08201412;0;
171.8447;0;0;286.3812;12.87919;12.51093;263.8212;259.8727;-0.2390006;0.04800299;0;
157.5541;0;0;272.3504;5.632576;20.26814;248.1888;248.6796;0.2809783;0.2428568;0;
-8.208463;0;0;121.2775;6.029058;20.58269;84.89641;85.26172;0.02082659;0.2426127;0;
-603.2136;0;0;-444.9973;-5.632274;20.02614;-502.956;-503.4656;-0.04416167;-0.1474351;0;
-673.2595;0;0;-549.9971;-11.45376;20.80981;-573.7897;-572.7996;0.4106541;0.1775498;0;
-306.517;0;0;-227.9186;1.351119;13.42103;-209.8333;-210.7182;0.2153394;0.3073061;0;
-282.1586;0;0;-196.6427;0.6801763;11.06314;-182.2612;-186.5186;-0.1097136;0.1120953;0;
-62.61031;0;0;8.014606;3.759976;12.39168;35.93731;33.05857;-0.1745707;0.2419173;0;
570.0721;0;0;611.3907;6.971378;11.44147;661.8365;659.398;-0.109428;0.1767069;0;
584.2419;0;0;659.4395;-4.958344;8.884743;673.7902;669.2302;-0.1742854;0.2414967;0;
176.0472;0;0;288.0882;-6.493604;8.139003;262.5695;260.138;-0.4339796;0.241254;0;
172.1847;0;0;272.244;-2.534964;7.661944;250.9364;252.3179;-0.1087069;-0.2787271;0;
-15.95635;0;0;97.93297;-2.599766;6.314587;63.09108;63.90897;0.2812064;-0.2134797;0;
-599.1472;0;0;-456.8866;0.2832347;14.41305;-513.1827;-513.0528;0.4108585;0.4364082;0;
-651.581;0;0;-544.0085;2.359055;17.21173;-566.8273;-565.4482;0.02064167;0.306035;0;
-298.3535;0;0;-233.5552;0.5480233;11.30006;-217.9328;-218.1168;-0.3691831;-0.3439459;0;
-272.0668;0;0;-208.5204;0.6148217;12.0925;-192.664;-195.8462;-0.1739101;-0.473535;0;
-48.65555;0;0;-9.598304;10.92933;7.793568;22.10928;19.05515;-0.3036701;-0.4730592;0;
583.4506;0;0;590.4222;14.87046;4.838488;643.4622;640.2238;-0.1734303;-0.3426492;0;
605.7279;0;0;651.0482;8.692605;13.60827;669.3648;663.4435;0.02164602;0.04749917;0;
180.5202;0;0;275.4575;9.086012;13.72856;250.5274;246.6735;-0.3681798;0.1124188;0;
167.9075;0;0;258.7515;12.62686;11.30338;233.9714;234.8065;-0.3028425;-0.01762887;0;
-5.236731;0;0;97.26003;13.95432;11.82789;59.94866;60.34562;0.08726586;-0.1475458;0;
-600.8071;0;0;-474.0506;12.73387;2.572601;-530.5648;-531.1677;0.3470475;0.04750445;0;
-657.6121;0;0;-566.8398;14.46336;-0.2432676;-589.6267;-589.4169;0.2817315;0.3073261;0;
-283.8263;0;0;-232.4381;8.35326;0.4268062;-219.3451;-220.3849;-0.1083556;-0.2127215;0;
-262.2393;0;0;-202.8443;4.526474;-1.917903;-192.638;-197.3;-0.1732141;-0.08257304;0;
-46.89646;0;0;-4.802439;23.74566;2.169861;20.69843;16.16609;0.0868293;0.307314;0;
588.0815;0;0;598.2742;26.80326;2.83751;645.4261;642.1477;0.4765461;-0.1477662;0;
602.608;0;0;648.8973;20.47969;1.829915;661.7065;656.4324;0.4760673;-0.3425198;0;
179.4649;0;0;269.9355;21.86563;3.435666;244.1887;240.9814;0.2806869;-0.01733888;0;
166.7284;0;0;253.5474;9.78722;-1.457418;231.0123;231.6813;0.4103395;0.3075153;0;
-18.72102;0;0;87.62587;6.227412;-3.130527;51.183;51.03917;0.08509052;-0.01763045;0;
-605.5947;0;0;-470.3692;5.083055;4.709378;-527.8899;-528.8456;0.1499724;-0.1475474;0;
-651.4628;0;0;-551.3557;1.527974;5.240509;-576.085;-575.6655;0.5396257;0.1774376;0;
-287.241;0;0;-229.4632;6.08079;4.766363;-216.2492;-217.142;-0.1105899;0.307194;0;
-263.4017;0;0;-203.8079;5.873609;5.766318;-190.5447;-195.1847;-0.2404135;0.1119833;0;
-36.50097;0;0;3.292894;9.819822;-1.205457;33.09693;29.21122;0.2795668;-0.212966;0;
588.5965;0;0;601.8637;12.89141;-2.342956;651.0031;648.558;0.01941654;-0.01784997;0;
594.6268;0;0;648.7975;8.256761;-3.345345;660.0316;655.715;0.08436438;0.2420373;0;
176.4267;0;0;276.7698;9.051771;-3.944831;246.1386;243.7628;0.01931226;-0.08304258;0;
168.4408;0;0;268.3083;11.11878;-3.538969;236.8958;238.9577;-0.2405765;0.04697556;0;
-9.201695;0;0;111.2425;10.43802;-4.406191;64.24441;66.5541;0.1494693;0.176863;0;
-603.3938;0;0;-453.398;20.2068;6.248278;-520.5887;-519.7806;0.08435175;-0.08318405;0;
-659.384;0;0;-547.27;24.54075;9.591024;-578.0365;-575.8549;-0.04566769;0.1118016;0;
-284.3472;0;0;-220.1967;9.980431;7.170124;-207.704;-206.3992;0.2142476;0.04672189;0;
-261.9476;0;0;-198.1739;7.626854;8.703526;-182.8202;-185.7021;-0.1108044;-0.2781618;0;
-48.35409;0;0;-6.008775;12.30726;8.225901;27.63278;23.62941;-0.1106931;-0.2129149;0;
578.5669;0;0;594.0706;9.615581;8.887465;646.8563;643.4816;-0.1755492;-0.212701;0;
590.4792;0;0;646.7594;16.5048;4.189851;661.3862;656.5156;-0.5002095;-0.537324;0;
173.2829;0;0;273.2345;16.62291;2.779;249.0535;244.5002;-0.04493552;-0.2119474;0;
158.9284;0;0;255.1564;12.38567;3.379054;232.374;232.5105;0.02007698;0.04813498;0;
-20.45373;0;0;92.41917;12.5743;1.835051;56.91611;58.05191;-0.04491054;-0.3417175;0;
-597.0808;0;0;-457.21;-0.767576;6.923788;-510.9182;-511.0329;0.2799713;-0.4713088;0;
-650.8286;0;0;-545.3935;-5.589576;7.854592;-565.877;-564.9296;0.08478796;-0.01606381;0;
-295.1031;0;0;-230.1287;0.3105386;6.574024;-213.4852;-214.6627;-0.04523192;0.3737564;0;
-267.008;0;0;-199.4128;0.3775756;7.170265;-183.0359;-187.5855;0.1497155;-0.01642322;0;
-36.0432;0;0;11.11938;-4.914089;3.01024;44.09647;38.92672;-0.1752716;-0.6011128;0;
583.1193;0;0;605.9967;-6.18195;0.2609154;654.8077;650.0804;-0.4999322;-0.2107047;0;
588.0931;0;0;651.4271;4.942697;7.695637;661.5835;656.4236;-0.1745932;-0.08055834;0;
176.084;0;0;280.7711;7.75077;9.295494;254.3731;250.8426;0.150419;-0.2104121;0;
163.9131;0;0;265.0592;10.08751;-3.708291;240.3119;241.3452;0.2802025;0.1796034;0;
-18.09772;0;0;104.436;13.69469;-6.048845;61.91;63.62943;0.279921;-0.2103811;0;
-607.6582;0;0;-455.575;7.853783;-4.23435;-519.9223;-519.6414;-0.04519698;-0.4700391;0;
-658.834;0;0;-543.3854;7.376401;-5.569754;-572.9354;-571.218;-0.1750863;0.05017195;0;
-282.4859;0;0;-210.6314;8.173272;-0.5405595;-201.2338;-200.9549;0.1499264;-0.07981317;0;
-262.6494;0;0;-188.8681;6.959611;0.7996423;-179.6673;-184.5736;0.01984105;-0.01476563;0;
-46.61894;0;0;5.72398;6.81792;2.87531;33.03136;27.63028;-0.04514623;0.2451186;0;
586.9844;0;0;609.2899;5.739343;4.814804;659.4333;655.7243;0.01986648;-0.01499709;0;
595.0153;0;0;656.5286;4.729198;4.609017;670.6397;665.1229;-0.04512083;-0.07994936;0;
171.3176;0;0;277.7465;3.786441;4.939301;251.6136;246.727;-0.3049448;-0.01490168;0;
160.9006;0;0;263.9117;5.256505;5.336235;238.6172;238.733;-0.3696058;-0.4046908;0;
-23.4185;0;0;96.3556;6.390299;4.861992;57.6558;58.52108;0.02056964;-0.5342188;0;
-608.226;0;0;-462.3354;2.900277;2.512826;-519.1747;-520.4967;0.410353;-0.07891063;0;
-648.9691;0;0;-538.0201;3.701646;1.572541;-562.0687;-562.5148;0.280006;0.05110336;0;
-288.8102;0;0;-219.0146;4.099092;-4.457381;-205.9951;-208.1899;-0.3049814;-0.07888269;0;
-268.9048;0;0;-197.93;4.162323;-7.199081;-183.6743;-189.9273;-0.2397076;-0.01383609;0;
-32.00359;0;0;17.41074;14.74169;-4.981533;49.89297;43.64622;-0.04456474;-0.07878952;0;
587.7171;0;0;611.2822;18.74536;-5.847305;661.0981;656.1694;-0.04451996;-0.208645;0;
588.0011;0;0;651.0852;17.05159;-5.037634;663.0575;657.1968;0.2803615;-0.1434681;0;
184.9875;0;0;290.6118;19.31261;-5.099555;264.6537;260.3606;0.08517775;-0.2082912;0;
170.8087;0;0;272.6412;18.95743;-2.415114;248.3958;247.8551;-0.04484252;-0.2730493;0;
-24.95211;0;0;95.45619;19.2068;-1.206995;56.555;55.70252;0.2800393;-0.2078076;0;
-607.0719;0;0;-456.7372;19.1875;-4.420963;-518.7127;-520.2515;0.08485584;-0.2075988;0;
-648.066;0;0;-532.3026;17.56063;-5.08635;-562.7316;-562.3948;0.1497379;-0.01248816;0;
-281.6612;0;0;-205.5567;21.42776;-2.468905;-199.4735;-200.4488;0.08462012;0.05249175;0;
-264.0744;0;0;-184.4232;22.14316;-0.9927993;-179.7828;-185.0675;-0.2403016;0.052439;0;
-41.046;0;0;12.53825;11.26992;-5.814573;39.41272;33.82098;-0.2400602;0.2472883;0;
588.179;0;0;609.4756;7.708621;-4.20114;660.7483;657.5984;-0.1748516;0.1171052;0;
592.9603;0;0;652.4038;11.1835;-6.876114;666.9559;662.8098;-0.04474123;-0.1428819;0;
168.515;0;0;272.6888;9.564672;-7.00317;247.1839;243.2293;-0.04469628;0.05216374;0;
155.5396;0;0;257.2974;11.16265;6.333104;232.2554;232.4277;-0.1096187;0.376948;0;
-25.77559;0;0;94.68297;12.75903;9.407955;53.98653;54.471;0.4751975;0.1816673;0;
-613.4543;0;0;-464.4437;4.173366;18.17302;-525.464;-526.3543;0.5396874;-0.2083194;0;
-657.7528;0;0;-544.9363;2.159441;22.30758;-571.7874;-570.6154;0.2143084;-0.01320801;0;
-292.8375;0;0;-220.8014;12.00291;20.27568;-212.3933;-212.1594;0.1491257;0.4415767;0;
-277.6757;0;0;-202.651;13.79951;21.461;-195.6881;-199.8898;-0.3707629;0.05132892;0;
-44.76364;0;0;7.884356;12.2454;11.05732;33.51837;29.25844;-0.500325;-0.3385267;0;
589.3376;0;0;614.1967;12.76896;7.295291;659.8574;656.7261;-0.2399529;-0.01334986;0;
591.1818;0;0;652.1851;16.23875;-0.6828862;664.6915;660.0018;-0.3046792;-0.07830379;0;
174.5468;0;0;272.4703;18.09845;-7.447232;252.1682;250.2942;-0.109471;-0.07822511;0;
164.2515;0;0;257.0792;10.31073;-3.420895;239.546;242.6089;0.0205737;0.2466902;0;
-30.62813;0;0;84.90725;8.826502;-6.02967;48.7761;50.71151;0.08552037;0.376377;0;
-619.9886;0;0;-472.3355;10.89374;-8.033099;-531.8561;-531.4219;0.08543444;0.1810968;0;
-656.5969;0;0;-543.0126;10.48065;-9.163737;-570.7394;-567.9943;-0.1745208;-0.3388239;0;
-289.2465;0;0;-218.0676;10.3364;-7.412974;-208.8475;-207.0422;-0.3042801;-0.1435814;0;
-268.7785;0;0;-199.0454;9.455355;-5.998884;-186.3988;-188.7807;-0.1090723;-0.2084045;0;
-37.99928;0;0;7.863183;14.73714;-10.74864;41.11171;39.48185;-0.1739301;-0.3381298;0;
587.7244;0;0;604.4929;15.59299;-10.80483;657.8229;658.8808;-0.108788;0.05201405;0;
587.0089;0;0;639.4926;15.04146;-9.454311;658.3488;657.2193;0.08622337;-0.01300557;0;
167.3172;0;0;263.2888;16.09807;-9.779726;243.8328;243.1417;-0.5635367;0.1819095;0;
159.528;0;0;255.0283;8.312363;-3.071728;233.9052;238.4621;-0.6279378;-0.07814263;0;
-23.60287;0;0;92.29118;5.825764;0.07943402;53.32331;58.43788;-0.04260075;-0.4678681;0;
-616.6561;0;0;-467.895;9.570954;-5.480107;-531.124;-527.0765;0.02240939;-0.077594;0;
-659.3271;0;0;-545.823;10.29827;-5.273652;-574.1934;-569.1505;0.02238688;0.1823533;0;
-287.1014;0;0;-219.0635;2.986906;-0.3787209;-206.3011;-203.2623;-0.04260296;0.1172028;0;
-278.5046;0;0;-208.4736;0.9741727;0.9613183;-197.2233;-197.6857;-0.2374622;0.311987;0;
-47.34084;0;0;-2.367613;10.15022;0.7594036;28.42407;28.02454;-0.2372236;0.1167715;0;
589.3867;0;0;603.3303;10.87598;1.294504;656.1425;656.6179;-0.1720179;-0.2731499;0;
586.4207;0;0;640.83;17.69756;1.561135;655.9829;654.7087;0.023057;-0.4028101;0;
178.9734;0;0;276.9936;22.30147;0.5548223;253.8381;253.7521;0.3478705;-0.2724707;0;
166.5498;0;0;264.284;11.227;5.108982;240.8394;244.7515;-0.04228305;-0.07729486;0;
-35.89091;0;0;83.6716;10.61251;6.644456;42.63446;46.35522;-0.3021099;-0.01224985;0;
-616.6254;0;0;-469.7593;12.67893;-3.007519;-531.0576;-529.3395;0.152965;-0.2721069;0;
-651.7379;0;0;-542.563;11.79553;-4.947001;-569.1295;-566.2888;0.1528113;-0.07693147;0;
-287.2034;0;0;-221.4914;12.25219;-4.607116;-209.9254;-208.087;0.02272309;0.3129499;0;
-268.549;0;0;-200.7792;9.962707;-6.209955;-189.8495;-191.5112;0.1526349;0.1177334;0;
-33.02247;0;0;12.75284;18.25809;-1.515032;40.66301;39.81507;-0.04242045;0.05264778;0;
593.8206;0;0;610.627;19.57989;0.4958561;658.9988;658.4016;-0.2372798;0.4423989;0;
585.6653;0;0;642.6845;10.45054;-3.925394;654.2762;650.931;-0.3020088;0.3120197;0;
172.1593;0;0;273.0992;9.099893;-4.524296;244.8867;243.294;-0.236738;0.1817715;0;
166.6141;0;0;264.0167;4.603746;5.594429;236.3324;238.8641;-0.5613368;0.3764909;0;
-26.95614;0;0;91.77537;3.192601;8.201142;46.00293;47.96994;-0.3009034;0.1162432;0;
-618.944;0;0;-473.3453;-1.164864;4.776772;-538.9368;-538.5959;0.284105;-0.07877561;0;
-656.1155;0;0;-552.1424;-2.703935;5.106887;-578.3752;-576.8478;-0.1709518;-0.01372911;0;
-281.8316;0;0;-222.9403;4.398729;1.551782;-208.6046;-208.0157;-0.3656821;0.05125204;0;
-265.9937;0;0;-207.6613;6.336692;-1.06199;-191.0912;-194.251;0.0244894;0.1161679;0;
-34.71758;0;0;2.441829;14.09986;0.6135289;35.48703;32.51775;0.08943213;0.1810185;0;
596.6874;0;0;608.7596;18.57367;-0.2578657;658.3882;655.5469;-0.1055598;0.1808366;0;
590.903;0;0;645.5042;22.03763;-8.831178;655.9776;650.9527;-0.2353884;-0.1441818;0;
180.1404;0;0;282.0379;26.30239;-12.03736;249.0851;247.1887;-0.2351519;-0.4039063;0;
168.5901;0;0;265.2003;23.06078;-10.55177;235.3416;236.8829;-0.04001354;-0.2085984;0;
-38.78761;0;0;74.21723;23.30603;-11.94768;32.76938;32.06021;0.024994;-0.1434215;0;
-616.021;0;0;-477.0178;25.02393;-11.26585;-536.6649;-538.8101;0.08993623;-0.07831004;0;
-632.5184;0;0;-534.5718;25.06613;-11.52246;-555.3659;-555.51;0.1548132;0.1166707;0;
-274.8123;0;0;-218.006;18.14109;-7.960908;-202.1726;-203.5659;0.02472296;-0.01338125;0;
-270.8505;0;0;-207.1673;13.83693;-5.541646;-196.8471;-201.2375;0.2196001;-0.0133678;0;
-24.32715;0;0;16.99077;21.39149;-11.36335;43.60495;41.15549;0.2843468;-0.1432891;0;
603.3193;0;0;613.5488;20.83413;-12.15573;662.9998;660.3654;-0.1057429;-0.5329491;0;
588.8451;0;0;637.3575;14.18177;-6.851982;652.6509;646.7084;-0.170604;-0.2075769;0;
189.079;0;0;281.2083;12.49355;-6.108285;257.8808;253.6933;0.1544041;0.1824357;0;
181.1429;0;0;270.9933;11.2082;-6.638011;247.6891;247.8162;0.2192163;-0.2075516;0;
-30.12047;0;0;79.81693;12.00025;-6.095478;39.54477;39.42181;0.08906135;-0.4022451;0;
-617.6699;0;0;-481.3562;0.8697546;-6.223319;-540.391;-541.8257;0.02400452;0.05293046;0;
-646.9717;0;0;-547.5891;-3.015885;-5.212443;-571.707;-571.3911;-0.1709216;0.3127466;0;
-274.6334;0;0;-217.392;12.72728;-9.360025;-204.2544;-205.7505;-0.3006846;0.1175304;0;
-262.426;0;0;-202.7433;14.4558;-10.28838;-190.3686;-196.3608;-0.04051307;0.247347;0;
-36.65064;0;0;4.356396;20.00098;-4.517634;31.33636;25.53753;-0.170407;0.4420004;0;
594.8813;0;0;605.8622;24.53621;-3.374385;654.3042;649.5732;-0.4301052;0.376589;0;
589.6608;0;0;636.0504;14.93239;-1.22754;651.3979;645.2973;-0.1048363;0.1813086;0;
174.1519;0;0;264.4727;14.11408;0.7160763;240.9494;236.8539;0.1551384;-0.01377566;0;
168.2923;0;0;255.7113;13.16189;0.3134592;233.6483;234.4295;0.2199499;0.05120553;0;
-32.52596;0;0;75.29491;10.80414;1.652803;36.3251;36.7307;0.2846962;-0.2087153;0;
-618.6986;0;0;-483.25;12.93674;1.584159;-542.1082;-544.5765;-0.04042658;-0.1435382;0;
-644.3762;0;0;-546.1701;13.9291;2.252397;-569.7993;-570.4536;0.08954873;-0.143394;0;
-284.4718;0;0;-224.4702;4.939143;2.116168;-214.5925;-215.4335;0.4792628;-0.2731846;0;
-270.5678;0;0;-207.5656;3.192868;1.712144;-198.9471;-203.8478;0.2189119;-0.01304075;0;
-21.60848;0;0;18.77934;11.16026;5.729277;46.19217;40.92162;0.02378988;-0.07799499;0;
601.1627;0;0;614.586;11.75226;6.661282;660.1496;656.2587;0.1537006;-0.142884;0;
583.1924;0;0;633.3962;21.31865;4.377291;643.9316;638.5453;0.1535462;0.117129;0;
183.8693;0;0;274.1275;25.38306;4.10496;248.8578;243.8518;0.02345725;0.1819786;0;
179.5616;0;0;267.4803;22.2761;4.70356;242.4859;240.8582;-0.106501;-0.07807359;0;
-33.13697;0;0;76.43238;24.3308;4.765817;33.90945;33.03299;0.02354069;-0.1429625;0;
-614.7488;0;0;-478.1157;18.81301;2.349765;-540.0861;-542.1486;0.1534517;-0.4676555;0;
-636.9321;0;0;-539.3542;17.12015;1.878523;-565.4679;-567.4659;-0.1715392;-0.8569897;0;
-273.537;0;0;-218.2235;14.95949;-0.2668182;-207.8292;-210.9496;0.08850256;-0.2064552;0;
-261.5805;0;0;-203.8863;10.32276;-2.811779;-194.7518;-200.8676;0.4782177;0.118589;0;
-27.74758;0;0;6.962689;20.15803;4.826856;35.01594;28.53155;0.08793311;-0.2063669;0;
599.2776;0;0;605.4049;21.47792;5.558818;653.6073;648.1289;-0.3019593;0.1186772;0;
585.1823;0;0;632.2828;9.131476;0.3956689;642.081;635.5462;-0.3016559;0.05359062;0;
164.9927;0;0;256.7734;7.916852;-0.2745579;226.9567;222.1151;0.02348393;-0.07639793;0;
164.0148;0;0;249.5813;2.683984;-3.757272;223.7926;222.9539;0.08842768;-0.07632116;0;
-30.05253;0;0;74.41848;-0.3991953;-4.289361;33.60074;32.07566;-0.3014652;-0.2711465;0;
-618.1642;0;0;-481.6268;9.179399;-9.107699;-546.9537;-547.915;-0.3661297;-0.2059067;0;
-635.2841;0;0;-534.741;10.97884;-10.23726;-567.2687;-565.4179;-0.1708597;-0.1407325;0;
-265.0816;0;0;-207.4304;12.91019;-8.35145;-200.945;-202.6568;0.0891813;-0.2055584;0;
-259.0681;0;0;-201.7247;16.17877;-9.7497;-193.2469;-199.0174;0.3489611;-0.01044984;0;
-15.43013;0;0;16.11856;15.96144;3.991354;45.01515;40.31233;0.08874106;-0.2053414;0;
605.1484;0;0;608.8044;17.75406;7.805249;657.537;652.5891;-0.2361848;-0.07520035;0;
581.1147;0;0;625.1217;21.15248;4.515242;635.3246;628.8824;-0.1060128;0.3146793;0;
180.9816;0;0;267.3606;22.80616;6.587176;238.1356;234.386;-0.235841;0.05449372;0;
175.9272;0;0;259.096;24.52456;-0.2515798;230.9623;230.6522;-0.3655387;-0.07549573;0;
-39.64131;0;0;62.80916;26.91081;-1.657847;20.52339;19.52647;-0.04033468;-0.2053546;0;
-616.3116;0;0;-488.6018;19.51638;-5.742018;-547.3368;-548.9574;0.1546079;-0.4650176;0;
-628.3735;0;0;-538.3356;17.28597;-9.353327;-562.5289;-562.7736;0.02451784;0.05518841;0;
-264.4247;0;0;-214.3323;25.44028;-3.114637;-204.0811;-205.325;-0.2353762;0.5748717;0;
-254.3514;0;0;-202.1854;24.81248;-2.575644;-192.0695;-196.8104;-0.300107;0.3144247;0;
-16.52775;0;0;15.84574;28.60496;-6.323978;41.06894;36.95748;0.349868;-0.595434;0;
611.2358;0;0;618.152;30.45223;-6.45159;659.9666;656.8587;0.2195817;-0.6598031;0;
596.6912;0;0;638.333;19.23585;-2.493237;647.9341;642.2682;-0.04050827;0.2504027;0;
180.6129;0;0;262.8175;16.4025;-1.08409;235.9898;231.3291;0.3493365;0.3151184;0;
179.0571;0;0;259.6174;16.85551;-0.6141198;231.13;231.0342;-0.1057859;-0.2699043;0;
-20.52255;0;0;80.25907;14.82885;0.7930168;35.37107;35.08792;-0.170647;-0.6594371;0;
-613.9536;0;0;-483.4133;14.94767;0.4573053;-549.9328;-551.8398;0.4791979;-0.5938072;0;
-637.637;0;0;-545.2087;15.46851;1.260641;-576.1793;-576.835;0.3487817;-0.3983085;0;
-264.3711;0;0;-219.1995;10.56382;1.259374;-207.5353;-209.8146;0.2834639;-0.4628756;0;
-255.6097;0;0;-212.0452;9.146689;1.459058;-198.2688;-204.5438;0.4780811;-0.07260649;0;
-16.34804;0;0;5.246208;18.2462;1.993455;35.43803;30.35625;0.2826987;0.1223685;0;
607.2924;0;0;601.2538;19.50067;1.388606;651.2179;647.8279;0.08751264;-0.007689146;0;
588.254;0;0;619.7026;25.44292;4.602269;635.2587;629.7482;-0.237412;0.1222533;0;
191.1122;0;0;266.5696;29.50319;4.664628;242.0053;238.4993;-0.2371735;-0.1377389;0;
183.9862;0;0;259.8675;18.01934;3.588336;231.7671;232.3876;-0.04203311;-0.2675352;0;
-36.77532;0;0;57.27061;16.05885;3.919645;14.58079;13.70136;-0.04199087;-0.07236438;0;
-616.447;0;0;-498.6325;17.78403;-1.643755;-558.3959;-560.7112;-0.04194868;0.1226104;0;
-632.4442;0;0;-552.4167;15.42163;-2.445899;-578.5743;-578.7634;0.02306081;-0.007447527;0;
-270.6153;0;0;-232.5846;16.47787;-4.452929;-222.4217;-224.0474;0.08800498;-0.2023421;0;
-255.9131;0;0;-216.7962;15.59065;-5.25225;-206.2063;-211.6409;0.1528839;-0.07220407;0;
-8.342796;0;0;7.746328;12.89567;-0.2903573;36.7539;32.01191;0.1527303;0.1877379;0;
615.3521;0;0;604.5635;12.54792;1.451491;651.7203;647.2955;0.08760947;0.1225819;0;
593.6819;0;0;624.3833;8.650545;6.00475;631.4503;626.1553;0.3473908;-0.007475989;0;
186.2273;0;0;260.6259;6.766819;8.811999;228.0183;226.102;0.2171071;-0.1374032;0;
184.3536;0;0;255.4915;11.85023;11.21441;224.7907;225.5;-0.5627192;-0.2671998;0;
-27.47529;0;0;61.14487;11.83833;12.07392;15.9822;16.00356;-0.3672517;0.05790543;0;
-616.2767;0;0;-505.3194;13.36667;15.34383;-566.4911;-567.2194;0.08788867;0.577586;0;
-629.588;0;0;-559.3467;14.69339;15.59634;-583.6005;-584.453;0.08780036;0.3821036;0;
-260.578;0;0;-230.5122;9.38734;9.150554;-220.9461;-223.1095;-0.1071899;0.1218503;0;
-248.3222;0;0;-215.538;8.439902;7.533769;-207.5432;-212.9529;-0.3669516;0.0567605;0;
0.614789;0;0;10.06531;10.64125;-4.396519;37.60472;31.01359;-0.2366482;-0.07323123;0;
621.1147;0;0;604.4439;11.83698;-9.951563;650.3214;644.674;-0.04150834;-0.0081903;0;
594.7536;0;0;617.0799;4.858862;-7.262247;625.805;620.0383;0.1534354;-0.00818207;0;
192.4829;0;0;255.6413;2.777875;-9.465386;226.8764;223.3018;0.3481832;-0.1381085;0;
192.4769;0;0;252.3234;12.35328;-7.781302;224.6494;224.8266;0.3478334;-0.07300242;0;
-25.66945;0;0;55.29379;13.01045;-7.438569;10.5312;10.20844;0.3474839;-0.07292906;0;
-615.2223;0;0;-505.4174;18.62346;-3.077326;-570.9996;-572.3215;0.08726536;-0.2027905;0;
-620.9759;0;0;-550.5742;22.62421;-0.5959871;-579.6712;-579.3676;-0.237659;-0.4624561;0;
-256.9096;0;0;-227.7454;12.01793;-0.1934906;-220.4565;-222.0273;-0.0425182;-0.1371547;0;
-255.5895;0;0;-222.4566;11.13519;1.414294;-217.0491;-222.9911;-0.1074428;0.05788517;0;
0.1638577;0;0;8.338494;12.53053;1.010975;33.8555;27.91946;-0.4321716;-0.2020424;0;
624.5374;0;0;604.2181;11.11141;1.076943;648.3251;644.394;-0.4317373;-0.2668067;0;
593.1752;0;0;612.9188;16.19046;0.8079287;618.4384;613.0745;-0.2364015;-0.07163659;0;
192.5928;0;0;255.4823;17.64807;0.8740999;222.3907;217.0322;-0.431066;0.5131415;0;
193.024;0;0;252.6019;14.88464;-5.021154;220.7305;219.2504;-0.6905022;0.3826912;0;
-24.49825;0;0;54.38509;15.27085;-7.427373;6.928536;5.387471;-0.1700696;-0.2673668;0;
-612.7404;0;0;-506.9499;20.3467;-3.133124;-574.786;-577.325;0.34984;-0.3320655;0;
-620.8704;0;0;-558.4769;23.20664;-3.196959;-588.5138;-588.5515;0.1545864;-0.4616665;0;
-250.1201;0;0;-231.3299;18.89642;-4.734354;-224.3552;-226.3919;0.02449641;-0.3312679;0;
-243.4969;0;0;-218.6662;19.01115;-5.466409;-217.0083;-223.1034;0.0244718;0.05886901;0;
2.374267;0;0;0.6308997;24.88655;-1.040043;23.52641;18.49941;0.02444721;0.3186792;0;
627.4327;0;0;591.6457;25.79857;0.3675217;639.5681;634.6086;-0.105512;0.4482937;0;
604.5634;0;0;608.6674;30.93021;-5.72805;618.1234;610.7327;-0.04043868;0.6427453;0;
201.5957;0;0;250.423;34.18166;-6.99497;217.2035;211.8192;0.08953664;0.7720341;0;
202.3926;0;0;246.4233;24.63549;-5.648405;212.3626;211.8562;-0.04048801;0.4464217;0;
-9.641751;0;0;50.46155;22.13249;-6.245454;2.692016;1.811325;0.2843894;0.05616906;0;
-598.7109;0;0;-513.0559;29.2102;-8.650564;-578.8934;-580.8976;0.1541689;-0.008854741;0;
-615.5381;0;0;-570.3239;28.77969;-9.713599;-599.3011;-598.7421;-0.1058553;-0.07381319;0;
-250.7901;0;0;-248.8496;27.34425;-10.70858;-239.6294;-240.6952;0.3490224;-0.2036737;0;
-237.5447;0;0;-233.6071;27.85264;-12.77417;-225.9579;-231.1455;-0.1060997;-0.07353436;0;
17.69083;0;0;-4.424943;19.65298;-6.732994;22.89417;18.39892;-0.4957971;0.1864089;0;
638.2986;0;0;588.469;17.35508;-5.520658;634.1264;630.8851;-0.04052754;-0.00868044;0;
609.234;0;0;600.4339;18.74416;-13.75377;606.6277;602.0778;0.1544152;-0.1386064;0;
212.7583;0;0;244.5716;16.5155;-15.34754;213.403;210.6693;0.2192274;-0.07349979;0;
213.2942;0;0;240.2654;21.1206;-14.79625;211.0022;211.3946;-0.365699;-0.1383933;0;
-10.05798;0;0;34.06503;20.2951;-15.1163;-8.66199;-9.769237;-0.2353968;0.1865825;0;
-600.2512;0;0;-530.8727;24.83003;-19.05298;-591.6727;-594.2156;0.4145131;-0.1384417;0;
-609.7055;0;0;-577.0659;28.42241;-20.10556;-604.3215;-606.1747;0.2841619;-0.3332046;0;
-242.2148;0;0;-251.212;9.906069;-15.39668;-242.9582;-246.6211;0.3488438;0.1868689;0;
-230.1024;0;0;-239.7777;6.547213;-14.37646;-231.8445;-238.6272;0.5433952;0.1866812;0;
27.18711;0;0;-6.403955;9.755816;-10.34317;19.19988;12.61142;0.4778819;-0.07337579;0;
653.47;0;0;592.8638;5.928596;-7.98837;637.2449;631.1003;0.08759768;-0.008334719;0;
619.0179;0;0;595.4539;16.77363;-7.913361;605.6202;597.2954;-0.3672617;0.1216084;0;
204.4165;0;0;223.6047;16.8905;-6.967648;194.0307;188.4005;-0.1719907;-0.07341588;0;
206.4599;0;0;223.9423;17.34204;-8.099357;192.0867;191.8343;0.02308416;-0.2032768;0;
-3.079805;0;0;33.87519;18.93221;-9.899757;-13.81546;-15.06701;-0.1068737;0.05679684;0;
-594.4045;0;0;-528.3762;5.450222;-7.545408;-597.5706;-599.8204;-0.1717337;-0.07319493;0;
-603.8647;0;0;-575.5089;3.100221;-7.939723;-610.4009;-609.8374;0.02334091;-0.3329907;0;
-234.1309;0;0;-248.6571;-3.466977;-18.31386;-245.3458;-246.2196;-0.04164989;0.05714791;0;
-223.3385;0;0;-236.2259;-6.879745;-21.37655;-234.1048;-238.6634;-0.3014774;0.2519925;0;
33.94421;0;0;-4.230011;-4.595657;-24.3693;14.63052;11.76319;-0.3661418;-0.2679994;0;
650.725;0;0;583.5413;-5.997559;-27.35892;620.4988;617.9467;-0.1708719;-0.3326975;0;
613.2147;0;0;585.8285;4.793086;-23.11163;586.0173;579.8446;0.1541365;0.05744087;0;
219.6086;0;0;232.3547;7.735031;-22.75349;195.8743;191.8942;0.08901428;0.1223505;0;
219.8252;0;0;224.75;12.48268;-19.51557;193.1787;194.6998;0.1538922;0.1871949;0;
-12.52897;0;0;9.632163;16.22118;-17.01759;-35.21318;-32.75656;0.3486396;0.2519741;0;
-593.7867;0;0;-545.7234;13.39184;-16.5986;-610.2637;-608.6216;0.0884199;0.05681893;0;
-595.8137;0;0;-584.4678;14.98598;-14.7735;-613.8984;-611.6333;-0.301473;-0.07317286;0;
-239.3939;0;0;-263.5415;6.263383;-12.01236;-258.9597;-258.446;-0.2362027;-0.2680013;0;
-225.2854;0;0;-246.785;3.645121;-9.923938;-242.7075;-246.817;0.08887132;-0.3976668;0;
35.74742;0;0;-10.843;1.564378;-11.2535;13.96999;9.364878;-0.1710874;-0.4622345;0;
656.2746;0;0;582.9319;-2.455682;-10.03662;625.5236;621.7352;-0.2358828;-0.2019007;0;
622.4443;0;0;586.4691;5.986879;-14.38031;593.3484;586.128;0.1541583;0.2530736;0;
209.9009;0;0;216.1282;6.583099;-17.17902;185.8942;179.6806;0.1540034;0.3177866;0;
212.9384;0;0;214.7866;7.51449;-8.052323;185.2076;183.8728;0.0888813;0.1875326;0;
5.82843;0;0;24.22896;11.25798;-8.714062;-20.06286;-21.14646;0.02382465;0.1223769;0;
-580.3828;0;0;-535.2017;-0.140183;-8.102459;-598.3145;-599.5845;0.4785721;0.05728656;0;
-582.7356;0;0;-577.5174;-2.016052;-6.888625;-603.8353;-604.0419;0.6729932;-0.0727057;0;
-214.2725;0;0;-250.2888;8.703242;-20.88077;-239.4739;-242.1791;-0.1722584;-0.2675347;0;
-213.37;0;0;-243.1657;9.967296;-24.14195;-233.5486;-239.9992;-0.107118;-0.4621679;0;
41.02908;0;0;-11.47525;13.64097;-27.19879;16.99775;11.74052;0.2178264;-0.2668015;0;
659.9892;0;0;579.1769;16.24021;-31.12333;626.2369;622.7966;-0.1721966;0.05830334;0;
613.0993;0;0;572.7229;16.15655;-26.00148;581.1925;576.1314;0.08784582;-0.07168994;0;
212.1845;0;0;216.0764;19.15442;-27.04708;184.5576;181.3132;0.02279021;0.05831679;0;
219.9048;0;0;223.6054;9.623355;-20.45569;191.4936;193.1874;-0.2371021;0.5130296;0;
-9.575958;0;0;15.67261;6.465854;-17.42103;-32.33643;-30.45685;-0.04196179;0.4475468;0;
-589.0251;0;0;-539.3766;17.64514;-21.55634;-604.1415;-604.0129;0.08801506;0.05729301;0;
-581.874;0;0;-575.2539;17.69476;-19.32437;-600.8483;-600.2201;0.2178613;-0.07269926;0;
-227.6546;0;0;-263.957;18.27922;-26.60585;-252.6068;-253.7284;0.02274037;0.1222758;0;
-220.3669;0;0;-252.5099;19.601;-28.92352;-245.2316;-249.4754;-0.04224982;-0.07274908;0;
45.47102;0;0;-8.128926;11.81177;-18.37838;16.32099;13.14335;-0.172142;-0.3975127;0;
661.8655;0;0;583.0821;10.72817;-16.21646;627.6848;625.2599;-0.7566751;-0.2022112;0;
615.2235;0;0;578.9355;6.028344;-18.27663;584.6379;580.5913;-0.1712088;0.1228287;0;
204.5615;0;0;214.0369;2.404964;-16.38275;178.067;176.3983;0.6085714;0.3176073;0;
213.1015;0;0;223.5669;9.904636;-16.43327;186.3838;188.2151;-0.1066809;0.4472228;0;
1.556127;0;0;32.87552;9.559891;-15.88089;-21.0118;-20.24438;-0.4314104;0.0569694;0;
-589.8357;0;0;-536.8087;10.21987;-12.11401;-605.8217;-605.6797;-0.04117287;-0.4628266;0;
-592.9911;0;0;-586.9313;11.34868;-11.96788;-611.085;-609.2566;0.08880318;-0.1375248;0;
-221.2069;0;0;-264.1285;5.911291;-8.405878;-244.0927;-245.1396;0.1536813;0.1874501;0;
-212.9261;0;0;-254.9301;5.303115;-7.526653;-235.7265;-241.1452;0.08855953;0.05732704;0;
47.40706;0;0;-15.79404;3.622847;-13.94933;19.25732;14.96852;0.0235032;-0.007697916;0;
662.8;0;0;575.1123;2.481107;-15.67675;627.2449;623.7725;-0.1714224;0.05727718;0;
608.7859;0;0;567.0382;2.478614;-20.75158;577.4518;572.6711;-0.4960869;0.122187;0;
208.1877;0;0;212.3964;0.733835;-24.48177;182.6322;180.2301;-0.1057844;0.3819336;0;
218.4733;0;0;220.179;8.368908;-24.05527;192.0064;192.8551;0.3490933;0.4465171;0;
-9.569223;0;0;14.12371;10.90609;-26.57633;-31.13693;-30.47654;-0.04106152;0.3161338;0;
-586.4572;0;0;-538.2379;3.393047;-24.13836;-601.0692;-600.9092;0.02394708;0.1209141;0;
-580.9329;0;0;-574.616;3.323265;-22.50652;-600.4652;-599.993;0.4137271;-0.009142086;0;
-230.4;0;0;-266.3183;2.716713;-30.78954;-256.0347;-258.3741;0.2833767;0.05583446;0;
-215.8632;0;0;-251.6829;1.374813;-31.62938;-239.5356;-246.058;-0.04174477;-0.009189002;0;
55.7173;0;0;0.693274;7.200581;-24.29671;30.19466;24.36592;-0.04170283;-0.07414711;0;
659.9825;0;0;588.2722;8.733587;-22.59772;630.3626;626.5388;0.2831758;0.1208294;0;
608.9072;0;0;578.7481;4.638975;-16.68064;581.441;576.3716;0.5427606;-0.009226676;0;
210.0581;0;0;214.2245;4.29952;-12.84597;182.0572;178.1798;0.2823459;-0.1391521;0;
219.842;0;0;215.9458;6.438654;-13.43591;186.7468;187.0587;-0.04277453;0.1858245;0;
2.167895;0;0;17.51595;6.030043;-11.14499;-28.08291;-26.89678;0.08720313;0.5104744;0;
-587.1006;0;0;-546.4057;8.101065;-9.593185;-609.5749;-608.8272;0.02214817;0.3150595;0;
-592.82;0;0;-586.8361;8.628788;-8.04306;-614.4596;-612.2135;-0.3027108;0.1848082;0;
-233.0923;0;0;-260.0354;3.395205;-9.575464;-254.148;-253.7782;-0.367374;0.5094593;0;
-227.7357;0;0;-250.0915;1.784204;-9.900757;-244.6473;-249.0879;-0.04216812;0.1841106;0;
41.60785;0;0;-7.274604;1.380269;-6.072904;18.84122;14.52999;-0.3019951;-0.2058784;0;
664.5029;0;0;586.7466;0.03971167;-5.263007;630.8896;628.5817;-0.4316263;-0.07573687;0;
609.6125;0;0;572.5389;-1.434197;-6.262462;577.7821;573.7274;0.2184808;-0.2705628;0;
211.2624;0;0;214.8931;-2.504483;-6.055221;184.3365;181.2854;0.1532939;-0.2053236;0;
227.0421;0;0;225.3593;-2.099824;-5.44629;197.707;197.9697;-0.1716969;0.3146214;0;
-8.5053;0;0;11.61518;-2.432507;-5.03892;-34.00032;-33.55041;0.0233777;0.249338;0;
-588.5177;0;0;-543.3051;-1.827827;-5.301789;-606.6158;-606.2288;0.1532889;-0.1407166;0;
-578.6185;0;0;-571.4323;-1.959712;-4.760598;-599.6345;-597.4988;0.08816753;0.1842615;0;
-235.4593;0;0;-265.2617;-0.4175014;-5.291678;-260.5771;-259.3181;-0.2367578;0.5738804;0;
-224.9154;0;0;-253.6258;0.2534795;-5.420327;-247.1969;-249.8122;-0.4963892;0.1834997;0;
53.48325;0;0;3.437416;-1.555436;-1.797924;28.53805;25.80044;0.02384826;0.05338065;0;
659.1251;0;0;586.5159;-0.8842881;-0.7243905;627.3334;625.3481;0.348661;0.1832617;0;
605.8017;0;0;572.8081;-3.160575;-2.867116;577.1654;572.621;-0.04149338;-0.1417592;0;
209.5169;0;0;216.7238;-2.755258;-3.935962;184.4701;181.0546;-0.4312557;0.1182527;0;
217.927;0;0;219.2546;-3.757843;0.5558488;188.9074;189.9931;-0.4957897;0.1831012;0;
-5.991984;0;0;14.762;-4.758445;1.425946;-32.23385;-31.77391;0.1543818;-0.2068869;0;
-592.816;0;0;-547.5327;6.432119;-6.479228;-612.9095;-614.1992;0.1542267;-0.0767443;0;
-590.4712;0;0;-588.2743;9.507115;-8.817121;-613.4182;-612.8949;-0.365667;-0.1416345;0;
-230.8708;0;0;-266.9069;7.621552;-9.210158;-256.4184;-256.8327;0.1544392;-0.01155753;0;
-229.5769;0;0;-260.0795;9.489904;-11.81312;-253.4746;-258.0739;0.4141534;0.3782581;0;
41.58009;0;0;-15.00376;5.126112;-11.46633;10.83485;6.115242;0.02393316;-0.07689334;0;
670.7845;0;0;586.7089;3.111229;-13.0624;632.3865;628.4213;-0.04105823;-0.5315874;0;
615.6379;0;0;574.5002;7.864501;-14.85769;583.0256;576.8779;-0.1059843;-0.4011186;0;
203.851;0;0;205.9204;8.191392;-15.91449;175.5818;171.8766;-0.1708452;-0.2058136;0;
215.765;0;0;211.3357;0.4136291;-17.64006;183.5887;184.1976;-0.1057062;-0.07567208;0;
-8.589089;0;0;3.602623;-1.329075;-17.82328;-38.29679;-38.75052;0.1542694;0.05433865;0;
-590.413;0;0;-554.433;-1.929976;-23.23087;-615.5306;-616.2963;0.3490164;-0.07565065;0;
-581.7613;0;0;-586.7969;-3.736698;-25.88672;-611.3514;-609.8674;0.2836984;-0.2055093;0;
-228.6664;0;0;-273.0522;0.219172;-15.94748;-261.7876;-261.8043;0.2834134;-0.07536814;0;
-219.5661;0;0;-260.5339;0.0842539;-13.25226;-249.3431;-253.7951;0.08822654;0.05464229;0;
62.51282;0;0;-2.214365;4.170006;-18.86539;28.70527;23.88297;-0.1717315;0.1845221;0;
679.0776;0;0;591.2396;6.77876;-17.30582;637.1206;632.8029;-0.3664609;0.05440198;0;
614.8646;0;0;573.0294;-1.869215;-18.69508;578.3221;570.6354;-0.3660927;-0.2704894;0;
211.8866;0;0;213.1342;-3.407578;-19.21215;180.878;174.8233;0.02407918;-0.335185;0;
226.1039;0;0;221.2908;0.6143335;-9.54743;189.8792;190.2023;-0.2358144;-0.4647828;0;
-1.134165;0;0;13.73516;0.7484141;-6.858642;-35.13612;-33.81384;-0.3005448;-0.07451178;0;
-586.2764;0;0;-545.2477;-0.8599283;-7.387614;-612.1233;-611.4894;0.219496;0.5752365;0;
-580.315;0;0;-579.8696;-0.7926913;-5.571651;-606.8231;-604.3159;-0.1055613;0.05491978;0;
-219.8503;0;0;-262.3838;-3.135443;-5.967951;-250.2048;-249.7615;-0.430292;-0.2699721;0;
-211.8208;0;0;-253.437;-5.476818;-4.689278;-242.1448;-246.3247;-0.5597942;-0.2047335;0;
58.44378;0;0;-7.243451;5.780842;-9.641182;22.7155;19.22698;-0.5592318;-0.00962577;0;
674.5753;0;0;581.2805;9.124912;-11.77495;631.2618;628.8387;0.0260362;0.5101227;0;
617.8007;0;0;566.0788;-3.477536;-4.060201;577.9664;573.6093;0.2209121;0.1847734;0;
219.6298;0;0;211.8128;-5.215354;-3.252448;184.5207;181.8546;0.09075541;0.1845877;0;
234.1517;0;0;220.5329;-3.803594;-5.392512;197.0164;198.6633;0.09066422;0.6391736;0;
-0.7156696;0;0;4.544813;-5.808528;-4.985196;-35.43981;-32.98248;-0.03936157;0.1187926;0;
-586.6704;0;0;-554.6162;-0.9135475;-7.659504;-615.3002;-612.9703;0.09061266;-0.4010655;0;
-570.4638;0;0;-581.7325;0.561239;-8.790518;-602.3757;-599.236;0.02555428;-0.1407931;0;
-215.0689;0;0;-266.7435;-4.530516;-7.241077;-252.1336;-251.6208;0.09049594;0.3790871;0;
-214.0407;0;0;-260.1037;-3.922751;-7.769665;-249.8813;-253.0546;0.8700131;0.1838042;0;
63.40998;0;0;-7.219316;-3.986158;-8.498671;22.79537;21.06201;0.6742369;0.05368481;0;
679.3491;0;0;586.4271;-3.847455;-8.624097;632.3411;632.2336;-0.365918;0.3784676;0;
619.8211;0;0;569.9708;2.385701;-9.887985;577.2955;574.752;-0.2356157;0.1182179;0;
221.9605;0;0;211.8903;4.057268;-9.342186;182.1638;181.3094;0.1544251;-0.1417702;0;
229.7334;0;0;217.0497;6.330367;-10.80642;187.353;191.5595;0.2842046;0.1832089;0;
-1.381356;0;0;3.251423;7.262011;-10.12574;-39.34635;-35.51896;0.4788211;0.1180575;0;
-576.6533;0;0;-548.7869;8.393789;-8.374127;-606.834;-604.947;0.2834379;-0.2068979;0;
-573.6376;0;0;-579.9695;9.256012;-7.829849;-604.7875;-601.9029;-0.04168357;0.1831141;0;
-227.8597;0;0;-269.0427;2.146764;0.1488652;-263.7884;-262.8432;0.1532603;0.7676362;0;
-212.7632;0;0;-252.0933;0.3359461;2.827911;-249.8427;-253.2713;0.4129757;0.3770608;0;
72.6197;0;0;5.218318;-3.88395;2.624121;29.58047;26.15536;0.3475934;-0.1430568;0;
687.7375;0;0;594.6668;-6.894157;3.559245;638.4322;636.1974;0.08737477;-0.01297838;0;
620.455;0;0;572.83;-4.610054;3.019805;576.5715;572.7772;0.4121237;0.1819367;0;
215.4722;0;0;208.6246;-5.87822;2.949788;174.8188;173.4646;0.6066116;-0.01314815;0;
233.1842;0;0;217.4729;0.490699;-3.952174;187.5741;190.9689;0.2811654;-0.3379717;0;
6.0015;0;0;4.986133;4.040179;-6.62752;-35.93961;-34.04744;0.1509482;-0.2726647;0;
-579.4603;0;0;-557.861;-4.402997;-8.831298;-613.1133;-612.5349;-0.04410553;0.05244599;0;
-566.072;0;0;-581.7881;-5.336579;-11.83653;-601.7527;-597.864;-0.4988326;-0.07754141;0;
-208.1828;0;0;-259.1154;1.232867;-10.21705;-246.3264;-244.2532;-0.6932334;-0.07746349;0;
-212.3464;0;0;-256.6062;0.1599012;-11.74739;-248.765;-251.1917;-0.3027328;0.05254904;0;
60.23008;0;0;-7.535925;9.47049;-8.989287;18.66311;16.48879;0.2822775;-0.1424058;0;
680.3578;0;0;583.2372;13.68053;-8.37753;631.2114;628.9144;0.1520592;-0.01232803;0;
618.3925;0;0;559.9126;-3.614566;-11.11529;571.2945;567.3131;-0.107963;0.1176191;0;
221.9701;0;0;205.153;-4.749034;-10.97016;178.9174;176.4392;-0.4326912;0.05253353;0;
234.1783;0;0;215.3791;-9.835453;-13.4375;189.6072;189.7552;-0.6921258;0.6371868;0;
-2.50065;0;0;-0.1665378;-14.2462;-13.8259;-43.59123;-43.94313;-0.1716916;0.6365466;0;
-575.6475;0;0;-550.4523;1.441877;-14.34775;-610.2001;-611.1763;0.2182849;0.2461029;0;
-559.8268;0;0;-572.8251;3.516533;-14.33333;-596.6559;-596.8816;0.283033;0.310823;0;
-217.8734;0;0;-263.967;10.01071;-12.1756;-257.9139;-260.5131;-0.04208816;0.180576;0;
-212.8444;0;0;-255.3935;16.69846;-10.8237;-251.3454;-257.3778;-0.3668826;-0.07947485;0;
76.0369;0;0;6.481648;2.749228;-6.860957;32.38963;26.98801;-0.2365793;-0.3392644;0;
685.779;0;0;589.9943;1.273573;-3.572021;635.4914;630.0952;-0.04143951;-0.3389235;0;
616.187;0;0;558.9793;12.32436;-2.563688;570.0729;561.996;0.1535042;0.1811558;0;
218.0802;0;0;201.1597;13.11528;-0.01576027;176.3228;170.8776;-0.1714868;0.5707778;0;
229.9799;0;0;211.2024;12.76731;3.199314;186.1406;185.4485;-0.3012492;0.310335;0;
0.1142988;0;0;1.033244;13.55779;4.602741;-39.87046;-41.43637;-0.0410771;-0.2746829;0;
-584.342;0;0;-556.1252;7.314873;10.82741;-616.2281;-618.6046;-0.1709705;-0.469309;0;
-574.0723;0;0;-581.9282;4.561832;13.76365;-607.4256;-608.4254;0.154038;-0.208968;0;
-211.9896;0;0;-261.3168;8.643085;8.79321;-249.8072;-253.1173;0.4787199;-0.1437907;0;
-208.7157;0;0;-256.6815;8.23226;9.320238;-244.7461;-252.6131;-0.04149983;-0.1436462;0;
64.66924;0;0;-4.67508;4.138151;4.823138;24.73947;17.75499;-0.1064255;0.05140013;0;
680.4197;0;0;586.47;4.201342;1.737077;631.6595;627.0558;0.02361614;0.1812832;0;
611.8951;0;0;557.2701;-1.965798;10.10808;564.3083;557.6479;0.02359241;0.1161337;0;
212.4808;0;0;196.5786;-4.575791;10.5668;167.7529;162.286;0.1535034;-0.01391772;0;
233.2567;0;0;213.3726;5.743935;7.474968;186.8871;185.861;-0.1714876;-0.2737731;0;
-2.047019;0;0;2.014316;7.413103;7.668406;-42.06066;-43.2107;-0.3662173;-0.07859599;0;
-582.1284;0;0;-551.522;7.941517;2.369171;-613.4187;-614.6925;0.02395476;0.05141769;0;
-560.4915;0;0;-569.8333;9.808572;-0.3124051;-593.4995;-593.2728;-0.106004;-0.338438;0;
-216.9133;0;0;-262.7898;5.981299;3.438831;-252.5118;-255.0964;-0.3007995;-0.5979673;0;
-216.6953;0;0;-260.6517;4.768864;2.363649;-251.3835;-257.2763;-0.2355299;-0.1425951;0;
73.56413;0;0;2.977837;7.510738;-0.9877509;32.47655;27.96394;-0.3002606;0.4422542;0;
679.4356;0;0;585.3071;7.36947;-2.728315;629.2065;625.8228;0.08984515;0.4418099;0;
610.2874;0;0;555.6086;3.007808;-4.467008;561.9827;556.3536;0.1547222;0.0515619;0;
224.0555;0;0;207.1003;3.273206;-5.534246;179.0477;174.9235;-0.1053026;-0.01345727;0;
234.5749;0;0;216.1375;-7.313631;-9.34659;186.1142;186.7417;-0.04022947;0.5712624;0;
-5.227856;0;0;0.09133567;-12.66492;-10.47591;-48.08022;-47.45331;0.2846477;1.155394;0;
-584.9937;0;0;-551.3191;4.762884;-11.53711;-615.809;-617.0568;0.4792637;0.8293967;0;
-565.9152;0;0;-572.0045;6.433037;-12.73121;-598.6985;-599.5703;0.4138148;0.2438573;0;
-207.7138;0;0;-255.2761;4.952705;-7.359904;-246.4612;-248.6439;0.3484316;0.3085796;0;
-211.9404;0;0;-257.7057;7.694395;-6.414748;-250.0866;-255.0157;0.3480815;0.2433022;0;
65.13344;0;0;-6.635381;-2.829535;-2.992295;20.84111;16.10437;0.2177971;-0.276681;0;
688.6296;0;0;590.8834;-4.635353;0.1589094;635.6986;630.4669;-0.04229113;-0.08150098;0;
622.7828;0;0;564.6776;-4.831766;-6.539422;572.0291;562.9919;0.3475554;0.2434176;0;
217.7978;0;0;199.7933;-6.970365;-6.599833;170.8431;164.0015;0.6720429;0.1132384;0;
230.3851;0;0;210.6495;-4.216695;-5.253543;182.8528;181.8277;0.3465309;-0.2117121;0;
-2.167154;0;0;-0.1437926;-5.284185;-6.119043;-42.90501;-45.80316;0.6710194;-0.4064014;0;
-581.2489;0;0;-553.1782;-1.394109;-0.1515353;-613.4501;-617.9695;0.6703452;-0.3410257;0;
-561.487;0;0;-572.4874;-0.4547035;1.590051;-598.4659;-599.4201;0.2798676;-0.01584637;0;
-215.1591;0;0;-263.1923;-1.593323;0.7177974;-257.5981;-259.6133;0.5394557;-0.1457651;0;
-220.5651;0;0;-264.8019;0.2842886;3.061357;-260.9;-267.0361;0.603881;-0.2755533;0;
69.13602;0;0;-2.667439;-6.414778;-1.56342;24.21899;17.33945;-0.04639918;0.3094296;0;
681.6961;0;0;583.728;-6.006191;-2.097712;629.7653;623.205;-0.6310586;0.179184;0;
610.7964;0;0;554.0311;-9.282685;4.200669;562.1036;553.426;-0.1756531;-0.2108001;0;
226.0008;0;0;205.8366;-12.15277;4.665329;180.1056;172.5611;0.2143274;0.1792158;0;
236.5808;0;0;213.1885;6.613686;9.01441;189.1075;185.6311;-0.1107247;0.5688398;0;
-10.7827;0;0;-8.227014;10.69288;10.41199;-50.96194;-55.74672;0.01932127;0.2434315;0;
-585.1082;0;0;-557.1303;7.400579;7.588248;-616.6888;-622.2809;0.0842692;-0.08164984;0;
-558.8456;0;0;-570.7509;9.401899;7.178726;-594.2052;-596.9181;0.01921718;0.1133342;0;
-209.5844;0;0;-258.709;3.833723;1.07631;-250.4056;-253.6155;0.2140999;0.1132204;0;
-217.9945;0;0;-265.9453;1.216926;-2.675816;-258.0875;-263.2932;0.2138848;0.1131066;0;
67.08138;0;0;-10.05651;1.818916;-2.807093;21.4689;16.33092;0.08373518;0.1779603;0;
692.0123;0;0;590.2769;0.2768466;-5.885365;638.3248;633.3169;0.3435204;-0.01712057;0;
620.0403;0;0;567.0701;-10.10591;-7.955922;571.0919;564.7772;0.4731099;-0.147038;0;
219.1185;0;0;206.1189;-13.8468;-9.153499;175.5915;170.2827;0.3426999;-0.3417923;0;
240.0752;0;0;218.3431;-12.42636;-15.44057;194.2181;192.6003;0.4073229;-0.5363509;0;
0.1419375;0;0;0.3581538;-13.68668;-17.03265;-41.29625;-42.91249;0.5368482;-0.4058773;0;
-583.2524;0;0;-559.1735;-10.12295;-16.07778;-618.0273;-620.9538;0.4063741;-0.2755348;0;
-557.6165;0;0;-571.73;-9.041052;-17.06636;-595.4174;-595.9671;0.1460964;-0.01538857;0;
-216.4149;0;0;-263.3727;-4.342918;-8.207713;-256.6141;-257.4756;-0.1139197;0.3094636;0;
-221.1325;0;0;-266.7937;-1.99403;-5.252216;-258.7925;-264.026;0.2110315;0.179218;0;
81.12539;0;0;6.587052;-0.1169924;-6.787547;38.06841;32.77776;-0.04904996;-0.01586414;0;
694.0482;0;0;592.5359;1.558064;-4.972187;641.0396;636.5038;-0.7636414;0.1140865;0;
618.2011;0;0;556.0211;1.690221;-6.239867;565.9329;557.9034;-0.2431354;0.2439065;0;
237.4585;0;0;211.8226;4.09942;-6.166614;188.1163;180.6572;-0.1779237;0.1137268;0;
246.0905;0;0;215.6702;-10.57311;-5.691537;193.9243;191.2828;-0.5025817;0.1785799;0;
-11.40249;0;0;-15.80523;-16.12219;-5.015989;-58.08148;-60.90776;0.4724334;0.2433678;0;
-583.4785;0;0;-558.8289;-2.508332;-9.230752;-620.4279;-624.6257;0.8617628;-0.0817135;0;
-552.47;0;0;-567.95;-2.840604;-9.75734;-590.8191;-594.3254;0.5360602;-0.2765334;0;
-204.7144;0;0;-258.2847;-2.502957;-7.537221;-245.836;-251.4004;0.6654562;0.3084505;0;
-209.6936;0;0;-253.9647;-0.3569884;-7.864563;-247.5255;-256.2702;0.2749835;0.5030426;0;
72.81273;0;0;5.785036;-6.85434;-0.2877106;29.95881;21.84766;-0.2450315;0.1777005;0;
691.616;0;0;594.7957;-4.971443;1.788927;640.122;632.6437;-0.179818;-0.2122822;0;
624.8293;0;0;571.1471;-10.25871;2.456959;577.1351;567.6653;0.1451994;-0.6668403;0;
226.7762;0;0;215.5017;-10.2484;4.330012;183.3779;175.9166;0.08008619;-0.4712682;0;
239.2919;0;0;220.7199;-0.2577686;-0.3630216;192.8138;189.1706;-0.1798636;-0.2758926;0;
-2.264714;0;0;-0.3908471;2.020642;-0.9655032;-45.26041;-49.89945;-0.04974823;-0.4705174;0;
-585.7192;0;0;-555.6738;15.41422;-3.107987;-621.7376;-625.8098;-0.04969825;-0.1452079;0;
-559.3936;0;0;-569.7956;20.2215;-4.444401;-598.1245;-599.5688;0.01531903;-0.2100294;0;
-204.5721;0;0;-256.5677;23.28265;-5.109764;-246.6373;-250.9538;-0.0496637;-0.4047204;0;
-209.3015;0;0;-259.9331;26.40708;-6.444288;-249.513;-258.6977;-0.1145811;-0.1444443;0;
83.57418;0;0;7.256391;18.20888;-1.347232;37.15629;28.41809;0.1454034;-0.6640379;0;
696.1823;0;0;597.9522;16.65034;0.2617117;641.4402;633.6478;0.2102246;-0.4684687;0;
614.336;0;0;559.7452;3.504464;0.1274829;563.5845;553.3636;0.145046;0.3765775;0;
233.16;0;0;215.6055;-3.464306;2.404652;185.9577;177.996;-0.05000175;0.0513624;0;
247.1685;0;0;225.4463;-2.724867;-0.4109249;196.7653;193.7467;-0.1149189;-0.3384933;0;
-15.57286;0;0;-16.53368;-6.941688;-1.080341;-60.99041;-65.00555;0.2100333;-0.01331644;0;
-587.4572;0;0;-568.1772;-6.398849;8.766992;-624.9581;-629.9063;0.1448549;0.4414684;0;
-549.6981;0;0;-572.2915;-7.530519;11.97324;-590.9094;-592.9166;0.2096767;0.2461227;0;
-209.3791;0;0;-266.37;-4.17405;5.799024;-255.1092;-258.4261;0.4043681;-0.1439286;0;
-214.1037;0;0;-266.9144;-2.495893;6.396044;-259.7879;-267.5992;0.01415772;0.1160854;0;
85.96069;0;0;3.592961;-1.756451;5.518839;33.38842;25.5849;-0.1807585;0.1159687;0;
700.4404;0;0;593.9801;0.2550462;4.173635;642.2988;635.0653;-0.2455443;0.2457869;0;
619.4644;0;0;561.0245;-0.8842859;9.66192;568.6276;559.6523;-0.5051669;0.2455399;0;
225.4148;0;0;210.4492;-0.4139068;9.585228;181.2507;174.5332;-0.634594;0.1803259;0;
239.8684;0;0;223.2312;0.9930286;10.58034;194.062;191.9116;-0.568989;0.5049813;0;
-9.310009;0;0;-3.629142;1.795338;11.44049;-51.00988;-53.533;0.08125614;0.1146699;0;
-590.5085;0;0;-561.4701;0.1195708;3.592112;-624.5453;-628.5651;0.7308479;0.2444894;0;
-552.2466;0;0;-568.2147;0.721687;0.9762898;-592.0588;-594.0131;0.4052768;0.1792764;0;
-196.8701;0;0;-255.8006;-0.08234533;1.109275;-243.6387;-248.0274;0.01506557;-0.4705772;0;
-207.2294;0;0;-263.2896;0.2525301;-1.035294;-251.7647;-261.7711;0.01505043;-0.1452677;0;
88.45528;0;0;4.902748;3.132664;-1.436151;38.7174;29.09586;-0.2448341;-0.08015435;0;
704.8065;0;0;594.2891;3.464309;-2.238503;646.498;638.6977;-0.6343921;-0.2100085;0;
622.4519;0;0;560.0214;10.15863;-3.910705;569.1369;560.4075;0.01591876;0.2449739;0;
235.1458;0;0;218.8174;12.09081;-3.973759;188.1937;181.9093;0.3407395;0.3096951;0;
247.0284;0;0;228.1552;11.47642;-5.644339;199.9986;196.719;-0.1793416;0.1794492;0;
-9.465968;0;0;-8.580189;12.87141;-6.509446;-50.9513;-55.35206;-0.04922675;0.1143016;0;
-584.1676;0;0;-563.1053;2.744422;-0.1396485;-619.3019;-624.3854;0.2106921;0.1791541;0;
-548.9105;0;0;-569.0987;-2.081107;1.468082;-588.07;-591.5867;-0.1143563;0.3089088;0;
-201.0336;0;0;-256.7461;5.824238;0.7967777;-244.589;-249.6013;0.2105953;-0.01623836;0;
-205.2668;0;0;-254.3017;5.617315;2.604394;-245.9674;-253.5984;0.4702531;-0.1461567;0;
87.54234;0;0;19.37886;-6.578491;-0.01043497;44.38395;38.38477;-0.1798929;0.04889217;0;
696.2109;0;0;606.6267;-9.920783;1.128285;647.0364;642.2302;-0.3746141;-0.01612431;0;
619.8619;0;0;567.5365;-8.436946;-2.824841;573.7353;566.1852;0.2754357;-0.3409448;0;
233.7453;0;0;214.7058;-9.701266;-5.0993;189.8515;182.8088;0.08025689;0.04920183;0;
245.2545;0;0;221.1117;-9.490448;6.493627;197.0945;192.4951;-0.3096278;0.6338584;0;
-12.36255;0;0;-13.36769;-10.15147;7.759655;-57.91301;-63.25735;-0.179382;0.3083849;0;
-595.4945;0;0;-573.3228;-4.113053;8.220739;-633.4405;-639.2167;0.01570027;-0.08172908;0;
-554.0417;0;0;-572.3719;-1.830768;10.02102;-592.5118;-597.5326;-0.04928285;-0.276549;0;
-198.2885;0;0;-251.7701;-4.10708;1.303411;-238.0943;-245.3589;-0.3091027;-0.08136908;0;
-207.5845;0;0;-259.5132;-2.561736;-0.9753179;-245.1638;-256.1068;0.1459793;0.5683861;0;
85.6018;0;0;8.612975;-5.172107;-3.787499;42.563;31.81839;0.2757673;0.1780109;0;
696.0214;0;0;598.1205;-5.099561;-7.668704;646.0919;636.8573;-0.3741832;-0.4718413;0;
610.3023;0;0;557.3522;-6.500956;-4.713749;564.7957;554.7583;-0.1139379;-0.08156319;0;
227.8185;0;0;216.4632;-8.705227;-5.646773;186.1057;178.2024;0.53585;-0.08148123;0;
248.1418;0;0;231.3631;1.351204;-9.191073;203.5349;198.7629;0.3404096;-0.211334;0;
-15.78754;0;0;-10.93517;3.760744;-9.315804;-56.97629;-61.36866;0.3400675;0.113715;0;
-591.9821;0;0;-564.5834;-3.141911;-11.98576;-626.3203;-629.334;0.4046932;0.04863342;0;
-545.2854;0;0;-561.0801;-2.937683;-12.91148;-582.2128;-583.5368;-0.1154522;-0.0163828;0;
-199.0987;0;0;-249.9849;-4.676044;-7.874907;-239.2374;-243.1838;-0.1803035;-0.08133368;0;
-205.1455;0;0;-253.9816;-5.140836;-6.929233;-243.12;-251.4352;0.2096817;-0.08125196;0;
92.97336;0;0;15.95059;-3.327009;-4.644851;48.10304;40.54586;0.2744384;-0.08117031;0;
696.1392;0;0;595.5807;-2.519383;-2.6978;642.5059;635.7684;0.4040973;-0.3409581;0;
610.8572;0;0;553.4406;0.02776822;-4.704455;561.1509;551.5466;0.4036912;-0.2756482;0;
233.058;0;0;215.1793;1.90375;-3.561019;185.4631;177.9924;0.1434162;-0.2753712;0;
242.6314;0;0;220.7102;5.049669;-5.83486;192.3982;189.1828;0.01333744;-0.1451598;0;
-24.97797;0;0;-23.51393;6.853257;-5.695032;-68.97638;-72.50082;0.1432587;0.3097574;0;
-597.1028;0;0;-572.3394;11.20063;-5.153446;-632.0615;-636.0197;0.01318009;0.04957682;0;
-552.4;0;0;-570.7648;13.46655;-6.019045;-589.4475;-592.2773;0.2730362;-0.08040769;0;
-198.2726;0;0;-256.1617;9.835694;0.4172419;-240.6552;-245.731;0.5326312;0.0496078;0;
-202.3838;0;0;-260.7144;8.754085;0.8187202;-244.4739;-254.2922;0.142292;-0.4052134;0;
87.54897;0;0;3.040153;11.69303;3.296144;40.25376;29.44582;-0.1177204;-0.6646757;0;
697.4044;0;0;590.0545;12.75203;4.632491;643.4726;633.3627;0.2072347;-0.2742037;0;
614.9323;0;0;552.3553;0.6827742;-3.878752;566.3644;555.9523;0.4668958;0.2458105;0;
221.3869;0;0;201.5388;-3.068956;-6.018309;176.8659;170.2748;0.1415899;0.5704002;0;
235.5947;0;0;212.2059;3.56556;-7.887784;188.7446;186.8453;-0.183389;0.1800231;0;
-16.32804;0;0;-17.32958;2.28918;-9.018446;-56.63432;-59.53121;-0.1182374;-0.1449946;0;
-594.3961;0;0;-572.1583;6.238995;-15.70756;-627.6029;-631.7462;-0.1181186;-0.2747836;0;
-548.0093;0;0;-571.8333;7.304452;-18.83985;-588.0543;-591.319;-0.1179999;-0.2745074;0;
-189.8259;0;0;-252.7937;4.886215;-9.577518;-237.0771;-242.8372;-0.1178814;-0.1442969;0;
-202.6911;0;0;-257.2249;5.282471;-9.099013;-247.4585;-256.8985;0.01217176;-0.07918461;0;
91.92702;0;0;14.9594;2.531473;-2.123889;45.01823;36.14999;-0.1827425;-0.0141377;0;
702.5901;0;0;599.588;2.863722;2.16503;649.2943;640.6848;-0.2475262;0.2457459;0;
608.806;0;0;549.5104;-3.703239;-7.750375;561.0609;549.8988;-0.1823102;0.1805316;0;
224.8244;0;0;208.8167;-6.245113;-8.680226;184.2487;174.7846;-0.4419963;-0.2094538;0;
241.2777;0;0;223.9742;-0.7464815;-6.662138;199.5558;194.2241;-0.3116176;0.050626;0;
-27.51729;0;0;-20.62804;-2.353322;-7.660188;-65.07431;-70.65054;0.01353228;0.2454772;0;
-598.2653;0;0;-569.3315;8.298963;-9.527891;-629.9749;-636.4826;0.07848603;0.05032847;0;
-544.7532;0;0;-560.2012;12.51116;-11.05893;-581.0537;-587.0551;-0.1164949;-0.07965679;0;
-194.5066;0;0;-246.5457;-0.5632061;-12.52144;-234.4563;-242.5131;-0.3112798;-0.3394461;0;
-203.619;0;0;-250.1086;-1.634367;-14.71917;-239.593;-251.0775;0.01386965;-0.4040724;0;
91.37495;0;0;20.50685;-3.70883;-11.62329;51.25167;39.90366;0.07882306;0.05110503;0;
700.1021;0;0;606.1293;-7.322425;-11.94652;650.8362;641.2488;0.2086785;0.1809884;0;
611.5678;0;0;562.1671;-2.492297;-14.41277;566.4119;556.7091;0.7282076;0.05087182;0;
223.3356;0;0;214.5892;-4.364827;-13.79544;182.7228;175.716;0.4026392;0.115788;0;
241.8518;0;0;228.304;-1.882194;-21.68544;198.4687;194.3425;0.2722999;-0.01426299;0;
-15.63692;0;0;-9.368498;0.06207996;-23.74;-55.72801;-60.78718;0.207059;-0.4040527;0;
-594.7051;0;0;-567.1412;-13.1335;-18.49172;-629.7584;-634.8126;0.1418836;-0.3386794;0;
-547.0062;0;0;-561.8862;-14.86161;-18.33917;-584.8979;-589.4471;0.4665777;0.051465;0;
-194.6959;0;0;-244.3559;-14.91403;-13.43099;-234.486;-241.2796;0.4011416;0.181348;0;
-207.3688;0;0;-251.4817;-17.44464;-10.47037;-243.9955;-253.4059;0.07590178;-0.143671;0;
92.00167;0;0;22.00864;-5.839186;-10.39287;50.7891;41.32567;0.01085817;-0.2084939;0;
697.105;0;0;603.5692;-3.957308;-7.368314;646.2512;637.3596;0.1407819;-0.07834978;0;
605.5752;0;0;552.613;-0.8728491;-10.24105;555.772;545.4525;0.07567314;-0.3381404;0;
229.2181;0;0;211.4165;2.812699;-10.76663;181.7763;173.2787;-0.05433758;-0.4677353;0;
241.9188;0;0;220.6368;-5.63022;-2.517153;192.2133;188.7842;0.07565171;-0.01249396;0;
-29.0632;0;0;-26.39832;-5.959356;-1.509879;-72.97163;-76.20987;0.2704777;0.1824206;0;
-600.4343;0;0;-572.9095;-8.565336;-0.2356864;-636.1777;-640.787;0.1402713;-0.2075667;0;
-552.7296;0;0;-564.7752;-11.03498;2.041848;-590.4361;-593.9788;-0.1197391;-0.2073582;0;
-209.2216;0;0;-257.4869;-5.264088;-10.41866;-250.0137;-255.8641;-0.0546514;0.1176869;0;
-211.1353;0;0;-256.9158;-4.655586;-13.89118;-250.2622;-259.9174;0.2702402;0.2475033;0;
98.60872;0;0;22.51449;-6.928084;-7.982973;54.02395;44.19107;0.334936;0.3771893;0;
706.8289;0;0;603.075;-6.653679;-9.113539;653.3559;644.0951;-0.2501066;0.4417777;0;
611.5412;0;0;550.6201;-5.306847;-7.563897;561.4952;550.5571;-0.1848879;0.2464318;0;
218.374;0;0;196.3696;-5.167792;-6.685518;173.6257;163.5107;0.01019986;-0.01368525;0;
235.4584;0;0;210.1028;-1.612626;-8.018459;189.0059;183.024;0.07515695;-0.07863884;0;
-16.90147;0;0;-21.80432;0.2640281;-6.871692;-58.87197;-65.53507;0.3349508;-0.2734618;0;
-595.2188;0;0;-582.7504;-3.822074;-7.869532;-631.0252;-639.6181;0.1397122;-0.1432524;0;
-552.4544;0;0;-581.3528;-3.215021;-7.52671;-590.8485;-597.9336;-0.1852649;0.1167609;0;
-198.327;0;0;-257.3062;-4.41724;-4.17;-237.9944;-246.1968;-0.05514404;-0.2081931;0;
-207.623;0;0;-258.3595;-5.149735;-3.495981;-244.0021;-255.0073;0.009878709;-0.01308189;0;
93.62184;0;0;18.07375;-0.1207189;2.937649;52.84398;43.16166;-0.3149679;0.4417027;0;
699.4732;0;0;599.6382;0.1468461;7.422432;651.6149;642.3171;-0.3796188;0.05145478;0;
595.6347;0;0;539.3157;5.236913;-3.167963;550.8229;539.6605;0.07553405;-0.143499;0;
216.8513;0;0;197.6953;7.844595;-3.566678;175.1456;167.3051;0.01049081;-0.01342009;0;
239.6843;0;0;216.4246;1.00421;4.206682;196.3338;192.3118;-0.1844218;-0.468178;0;
-35.48083;0;0;-28.48234;0.8021304;5.274182;-71.60387;-77.8082;0.1406003;-0.5326749;0;
-602.785;0;0;-570.2439;-2.748649;10.56041;-630.6884;-637.4487;0.530263;-0.3372377;0;
-545.4578;0;0;-558.9888;-6.09479;12.15739;-577.9558;-581.9608;0.3997955;-0.4018661;0;
-204.3934;0;0;-255.142;2.953664;13.61868;-241.8562;-247.044;0.07455712;-0.07662562;0;
-206.4369;0;0;-252.3869;4.558287;13.80594;-242.113;-251.0437;0.1394495;-0.2064833;0;
100.4913;0;0;29.16277;-3.617967;11.04589;60.29092;51.86895;0.009374739;-0.7909819;0;
698.5897;0;0;605.7811;-4.484988;9.226254;652.3077;644.269;-0.1855367;-0.01057903;0;
600.9365;0;0;555.6348;-2.605447;3.657523;559.636;550.2936;0.009551748;0.639105;0;
219.1492;0;0;214.1229;-2.468132;1.84543;182.4505;176.6157;0.1394768;0.1836915;0;
240.2933;0;0;230.7118;-0.7916882;-10.54802;202.1947;199.9889;0.1393367;0.2484742;0;
-25.50216;0;0;-9.899195;0.8840466;-15.62801;-58.68995;-63.07993;0.399066;0.1182899;0;
-606.6219;0;0;-566.6094;-0.1885686;-8.311284;-634.1542;-639.5392;0.5285997;-0.01176368;0;
-556.7247;0;0;-559.4184;0.07906457;-9.039745;-588.6646;-591.0457;0.1382646;0.1831502;0;
-201.6559;0;0;-241.8282;8.586428;-2.332613;-237.4993;-241.877;-0.3166458;-0.3367726;0;
-204.8266;0;0;-242.9595;11.79298;0.4830145;-239.2596;-249.2551;-0.2513603;-0.4014015;0;
101.1005;0;0;33.14599;8.498601;4.501383;59.14342;49.40781;0.1386964;-0.01119417;0;
707.1942;0;0;614.383;9.293369;9.252526;655.4717;647.0577;0.07358966;-0.1411176;0;
605.7842;0;0;559.1057;8.480723;1.473453;557.0497;546.7077;0.2034504;-0.4658125;0;
225.304;0;0;215.4663;6.73089;1.538956;180.8038;172.2838;0.5280827;-0.2054751;0;
248.3784;0;0;233.6156;11.68062;3.814707;203.2358;199.347;-0.05715401;0.4444048;0;
-31.10582;0;0;-18.86737;12.40582;3.007079;-69.76878;-73.71618;0.007870754;0.3789909;0;
-606.4104;0;0;-572.9449;5.158707;7.424809;-637.4758;-642.4187;0.5925689;0.05377339;0;
-547.7053;0;0;-558.6886;4.818731;8.623041;-582.2377;-584.8018;0.2671368;-0.20615;0;
-208.9499;0;0;-256.3414;-0.7448401;4.863454;-247.4456;-251.6314;-0.05796833;-0.1409755;0;
-207.9279;0;0;-257.5831;-2.887546;4.188738;-246.4474;-255.439;0.0720246;-0.0108992;0;
115.1188;0;0;33.90436;3.745812;4.921341;68.89187;61.09616;-0.1229498;-0.3357249;0;
711.7656;0;0;610.2056;3.474605;3.375789;659.0884;652.3625;-0.05785891;-0.01055091;0;
599.8563;0;0;544.3752;13.98731;5.917748;552.6669;543.1991;0.3320033;0.5091984;0;
223.4425;0;0;201.7502;18.39389;5.442922;179.174;171.215;0.396637;0.2488174;0;
253.7652;0;0;225.7853;12.61463;0.2798889;207.3547;202.4646;-0.05853292;-0.01130197;0;
-20.1023;0;0;-20.38045;14.27689;-1.327983;-59.28223;-64.79205;-0.3183435;-0.1412253;0;
-607.2869;0;0;-582.9522;10.44415;-8.024819;-637.7444;-643.6235;0.07178045;-0.2060507;0;
-556.327;0;0;-574.0581;9.361933;-12.30354;-590.0647;-592.9394;0.1366757;-0.1408764;0;
-203.82;0;0;-256.5781;8.348147;-8.004394;-241.8965;-245.3305;0.006603652;-0.3356368;0;
-209.7371;0;0;-261.1928;5.52672;-9.134938;-247.2132;-255.5788;0.1365317;-0.01046287;0;
97.81918;0;0;18.99142;15.5015;-12.80982;53.75908;46.15151;0.07142717;0.249417;0;
708.1016;0;0;609.3006;18.83483;-13.46666;656.4646;651.0511;0.2662574;0.05426439;0;
605.6912;0;0;554.7155;6.289973;-16.19943;559.8532;552.3212;0.3959246;0.3790466;0;
216.8402;0;0;204.8337;4.944482;-17.18789;176.6705;171.4574;-0.05924465;0.5086004;0;
242.0471;0;0;221.9942;7.752553;-15.63001;199.1691;198.334;-0.1241525;-0.07661675;0;
-26.87358;0;0;-24.72999;4.462234;-15.68129;-66.02287;-68.10647;0.200809;-0.2714418;0;
-607.1799;0;0;-579.9885;17.58689;-14.66079;-639.7931;-642.4993;0.5254439;-0.07626702;0;
-552.5969;0;0;-565.1005;19.8464;-14.64606;-587.8635;-588.1932;0.5249159;-0.2061251;0;
-210.0261;0;0;-254.1886;8.573322;-13.29169;-246.0693;-248.5851;0.5243886;-0.3358526;0;
-216.1868;0;0;-252.4964;7.626703;-12.94354;-248.1334;-254.3323;0.4588943;-0.3355152;0;
100.2465;0;0;38.54861;-3.96791;-15.81068;64.08411;59.51566;0.003661786;-0.4651127;0;
701.9682;0;0;617.2814;-9.389906;-16.9335;659.5953;656.4683;-0.1262766;-0.3347107;0;
600.8759;0;0;560.377;-4.959842;-18.25602;560.4196;555.3591;0.2636544;-0.009537665;0;
226.8972;0;0;220.2971;-6.227656;-19.3094;186.1693;182.1134;0.1334548;-0.1394628;0;
248.4708;0;0;232.6944;-7.694291;-21.36647;203.5359;203.0448;-0.1265487;-0.594094;0;
-27.07798;0;0;-17.41382;-7.351767;-21.54595;-66.15811;-67.02353;-0.1913889;-0.4635624;0;
-603.0113;0;0;-570.2434;-1.919372;-24.00255;-633.5564;-635.7328;-0.5160333;-0.008325211;0;
-544.372;0;0;-555.3027;1.096666;-24.31335;-577.1353;-577.8727;-0.06074339;-0.2681862;0;
-193.6885;0;0;-240.2778;1.363984;-19.7342;-229.7922;-232.6528;0.1342197;-0.3328841;0;
-202.177;0;0;-246.9704;2.099548;-18.91057;-236.2455;-243.2886;0.004150121;0.05725447;0;
101.1862;0;0;30.57592;9.532178;-11.1218;62.77922;57.11747;0.5238847;0.1221643;0;
705.5307;0;0;614.3143;10.99647;-7.895441;660.9779;656.4463;0.653293;0.05707419;0;
599.9995;0;0;553.9146;8.439823;-9.896996;558.9897;552.5261;0.2628325;0.1869515;0;
215.9643;0;0;207.8441;9.770514;-8.346443;176.6199;171.8495;-0.2571703;0.446633;0;
245.4824;0;0;230.9361;-4.706641;-14.3664;201.8047;200.5373;-0.1919446;0.3162496;0;
-30.62562;0;0;-22.91847;-8.520305;-17.23223;-70.19893;-71.96482;0.327987;0.1210298;0;
-612.1151;0;0;-580.0529;-6.770432;-12.92801;-643.0904;-644.917;0.1977228;0.2508429;0;
-552.6545;0;0;-558.1683;-9.375597;-13.3839;-583.9736;-584.1742;0.002622059;0.05568878;0;
-211.333;0;0;-248.5752;-3.204235;-21.14035;-244.4322;-246.2567;0.1975214;0.05563283;0;
-216.7429;0;0;-250.3245;-4.071671;-23.53037;-247.6224;-251.9438;0.0673883;0.1855116;0;
100.628;0;0;39.03175;7.788765;-22.56909;65.46919;61.96417;-0.2575161;-0.07454418;0;
697.8516;0;0;611.2049;12.26794;-24.08689;655.4818;652.2302;-0.19229;-0.009501931;0;
587.3931;0;0;542.0627;0.1991748;-20.11082;546.5026;541.4427;0.1327399;0.1204423;0;
211.8039;0;0;201.8138;-0.2031669;-18.81794;172.4537;169.8976;-0.2571975;0.250256;0;
238.0777;0;0;222.0382;-5.829041;-22.41611;196.3309;197.338;-0.6467432;0.3799392;0;
-41.39611;0;0;-33.18169;-8.10036;-22.7285;-77.0416;-78.47173;-0.2562892;0.2496227;0;
-614.5039;0;0;-585.1209;-11.10633;-20.83014;-643.1796;-645.6702;0.1337723;0.2493719;0;
-553.4793;0;0;-567.5415;-13.64077;-21.07714;-585.7493;-586.5508;0.2635726;0.1191867;0;
-216.4048;0;0;-261.4373;-7.196698;-21.18993;-249.2671;-252.1918;0.2633078;0.05409958;0;
-220.9975;0;0;-259.2381;-6.787325;-21.50355;-250.5784;-256.4986;0.2630432;0.4438493;0;
97.5021;0;0;31.50138;0.9216776;-22.75462;61.76653;55.53995;-0.2569599;0.1185666;0;
697.6649;0;0;610.2413;4.739145;-22.39684;654.7189;647.4991;-0.516571;-0.1414219;0;
589.2056;0;0;547.7217;2.389858;-29.94316;549.551;540.8392;0.00368675;0.3784589;0;
210.3037;0;0;203.844;4.463562;-32.99417;174.812;168.4202;0.2635524;0.3131113;0;
243.8879;0;0;228.3142;1.579665;-26.26297;205.9955;202.8586;0.06838557;-0.01204005;0;
-24.03514;0;0;-17.85405;1.44338;-27.30831;-59.39066;-64.27356;-0.06161783;-0.1419626;0;
-606.2808;0;0;-575.2434;-3.715635;-22.19028;-634.5419;-640.8566;0.2632808;-0.0118853;0;
-548.8876;0;0;-557.1742;-8.601045;-19.68962;-578.2448;-583.1788;0.1330816;0.247996;0;
-199.6989;0;0;-245.7081;4.067249;-31.05669;-232.0874;-239.203;-0.06195418;0.3127142;0;
-207.4317;0;0;-253.2698;5.33596;-33.10183;-239.4129;-250.5193;0.5228142;0.2474326;0;
110.2421;0;0;38.58809;-6.994261;-32.86762;71.60893;60.63863;0.3273868;0.1172493;0;
710.767;0;0;619.5073;-8.996964;-35.179;665.301;654.5292;-0.2576482;0.2470662;0;
589.7382;0;0;546.4837;-13.20748;-32.06256;549.6278;537.3676;-0.1274547;0.1818506;0;
211.6479;0;0;206.7926;-15.80618;-31.69543;176.138;166.8885;0.002608079;-0.07820152;0;
245.2308;0;0;236.6322;-15.05434;-35.48148;208.882;204.0771;-0.1273292;-0.1430903;0;
-33.50067;0;0;-15.10418;-15.97624;-36.11566;-64.19074;-69.67799;0.3925374;-0.07797916;0;
-608.6154;0;0;-569.2479;-13.75036;-32.79721;-633.0903;-639.3841;0.5220777;0.1819686;0;
-542.2869;0;0;-546.9994;-13.53548;-31.69265;-571.1099;-575.8358;0.001814389;0.3117204;0;
-205.4111;0;0;-243.2896;-7.359933;-33.46922;-237.8908;-244.1111;-0.3230242;-0.07839687;0;
-210.3896;0;0;-247.0432;-4.47215;-33.56956;-240.9626;-251.0497;-0.2577322;-0.1432854;0;
120.9679;0;0;52.92942;-7.079625;-29.7849;84.3661;74.10175;0.002396113;0.506532;0;
710.6124;0;0;620.8408;-4.996407;-28.4823;667.0509;657.9213;-0.127541;0.3760883;0;
580.9007;0;0;539.2576;-8.607732;-29.86032;542.6304;532.2606;-0.2573475;-0.273963;0;
205.1931;0;0;202.1974;-8.733781;-28.49066;170.3345;161.7242;-0.1271542;0.05114899;0;
241.531;0;0;233.7283;-6.848995;-33.95451;204.0838;199.2303;-0.3219285;0.1810323;0;
-30.82489;0;0;-13.44492;-7.377977;-36.33178;-62.79974;-68.27306;0.003231684;-0.01405166;0;
-609.9403;0;0;-570.2141;-1.342343;-25.84618;-634.6367;-641.104;0.06819578;0.4407339;0;
-548.7329;0;0;-551.5252;-0.4703386;-24.54753;-577.4649;-581.9267;-0.2567095;0.1804217;0;
-203.0425;0;0;-242.3137;2.2768;-25.59459;-235.3688;-241.138;0.2632872;0.2452077;0;
-211.9589;0;0;-249.5664;4.350617;-23.69336;-241.2543;-251.0156;0.003153304;0.569798;0;
104.0328;0;0;41.85048;-4.293942;-31.97531;70.58154;60.95492;-0.6465233;-0.08044795;0;
702.1276;0;0;617.2067;-6.165638;-33.88556;662.1507;652.0341;-0.7758083;-0.2103018;0;
585.5428;0;0;540.6872;-4.41813;-29.6987;549.3542;536.8739;-0.3202574;0.1797136;0;
205.5202;0;0;196.3167;-4.547413;-29.53489;171.6169;162.5224;0.1998031;-0.1453037;0;
233.8619;0;0;219.4203;-9.431988;-29.37125;196.6193;192.4065;-0.1902017;-0.01522303;0;
-41.7347;0;0;-32.67361;-10.69531;-28.27001;-74.75449;-79.21294;-0.3199452;0.6344657;0;
-607.5958;0;0;-577.9292;-4.187827;-26.70112;-635.5225;-640.7885;0.07018027;0.5688608;0;
-537.9575;0;0;-553.6104;-2.910821;-25.40161;-569.9166;-575.1149;0.1350771;0.2434525;0;
-206.2709;0;0;-257.0154;1.110591;-21.29025;-240.6966;-248.0761;-0.05996065;-0.1465961;0;
-214.1846;0;0;-262.2544;3.186556;-19.5273;-247.4512;-258.0717;0.07003428;-0.3413509;0;
116.7394;0;0;40.41957;5.326808;-16.02469;77.75907;67.46166;-0.1899055;0.2436982;0;
710.5111;0;0;615.34;7.397561;-13.1953;666.8223;657.4098;-0.7744207;0.2434533;0;
586.5466;0;0;539.5719;3.170569;-18.74151;549.3984;537.8715;-0.6437079;-0.3414974;0;
212.2076;0;0;202.1991;3.301105;-18.85664;179.1573;169.7033;-0.5131264;-0.01631753;0;
240.6675;0;0;226.5461;-2.194568;-19.17261;205.0266;200.3923;-0.3177088;0.3735029;0;
-39.9334;0;0;-28.42853;-4.939029;-21.16283;-70.91577;-77.04471;0.0724145;0.1132583;0;
-611.8558;0;0;-579.9352;-3.058057;-13.17072;-637.4347;-644.7444;0.2022764;-0.01679023;0;
-545.8364;0;0;-558.7379;-6.337513;-11.61688;-576.3246;-582.0027;0.007171142;-0.2766427;0;
-202.96;0;0;-250.5811;5.25678;-16.56182;-236.9783;-245.5868;-0.3826401;-0.4062994;0;
-213.9379;0;0;-256.0139;9.672127;-16.41121;-245.5482;-258.5833;-0.2523209;-0.01608714;0;
105.4916;0;0;39.22005;-7.886387;-17.73438;68.47825;56.20587;-0.2520674;0.2437984;0;
713.2051;0;0;627.0102;-9.418705;-17.5826;669.8571;659.0963;-0.3167815;0.1785861;0;
588.1135;0;0;547.9821;-6.864621;-20.31123;551.3683;538.9316;0.3981776;-0.08146273;0;
198.1557;0;0;195.5458;-8.397965;-21.76432;165.8203;155.5201;0.7226142;-0.2113156;0;
234.1884;0;0;227.2083;0.2506613;-13.83871;199.1993;193.2822;0.3970514;-0.08116855;0;
-41.40849;0;0;-24.39363;2.12642;-12.21722;-70.86522;-77.40102;-0.1230863;0.04884771;0;
-609.7062;0;0;-572.3437;6.544912;-9.726696;-632.6991;-640.1028;-0.1229626;0.308668;0;
-538.1292;0;0;-543.6577;10.82524;-5.430137;-565.5342;-571.4938;0.5268344;0.3083578;0;
-210.7528;0;0;-249.4465;0.9013806;-16.54348;-241.6285;-249.3313;0.331403;-0.08175606;0;
-218.4121;0;0;-252.6942;-1.578748;-18.80428;-247.5077;-258.576;0.2011353;-0.08167391;0;
116.6391;0;0;55.65489;6.996654;-7.599478;82.70016;73.07979;0.3308679;0.1133102;0;
702.4149;0;0;621.4396;6.186316;-7.725808;662.8879;654.1517;-0.05926863;0.1131963;0;
574.0233;0;0;538.7314;5.777959;-5.239798;538.5964;527.4328;-0.4490131;-0.3416888;0;
212.9402;0;0;212.9161;7.1123;-5.16755;179.6729;170.9568;-0.5135293;-0.2763781;0;
240.1499;0;0;236.8775;-8.769679;-10.18596;204.2924;199.7079;0.006725426;0.373573;0;
-52.50687;0;0;-29.66419;-12.8467;-11.58224;-81.95658;-87.66087;0.266588;0.3082303;0;
-616.608;0;0;-573.6734;-10.62397;-23.9622;-638.407;-644.6053;0.4612222;0.1779859;0;
-546.0861;0;0;-548.5468;-14.96657;-29.63155;-572.6732;-577.3661;0.2658567;0.04787238;0;
-207.2075;0;0;-248.2713;0.1190132;-29.53479;-237.8283;-245.3275;-0.1242145;-0.2770124;0;
-213.8708;0;0;-252.4571;3.401423;-32.72018;-241.5249;-253.6392;-0.189057;0.04810262;0;
104.2468;0;0;39.52493;-6.314886;-35.09868;70.24872;59.77072;-0.1238997;0.372891;0;
705.7147;0;0;619.0064;-6.509611;-37.34071;662.3804;654.3492;0.07112684;0.1126469;0;
583.3792;0;0;544.2342;-10.65528;-31.00704;544.3989;534.3143;0.1360227;0.1125338;0;
193.6136;0;0;194.6128;-13.72603;-29.23433;160.4821;152.4066;0.2008534;-0.08248136;0;
225.7778;0;0;219.5921;-12.84158;-30.41065;190.9929;186.8611;-0.1241851;-0.4722025;0;
-46.12497;0;0;-34.7508;-14.63734;-28.57155;-77.00192;-82.81624;-0.1890277;-0.08192401;0;
-618.0411;0;0;-586.0013;-19.6455;-31.15506;-642.2654;-648.9484;0.525803;0.048093;0;
-550.2039;0;0;-558.0512;-21.56912;-31.7266;-578.2769;-583.4539;0.1354706;-0.276792;0;
-216.506;0;0;-259.5153;-23.891;-28.21173;-249.2359;-256.4068;-0.2544696;-0.4714159;0;
-224.6593;0;0;-266.8757;-26.01044;-27.64752;-255.5447;-266.394;0.005655495;-0.4059749;0;
113.8339;0;0;41.98738;-19.75502;-30.23207;77.54479;66.89379;-0.3191869;-0.210665;0;
703.8604;0;0;612.3459;-17.65906;-30.53661;659.8616;650.1584;-0.2538988;-0.4053553;0;
574.9052;0;0;530.5215;-20.25329;-31.91245;535.136;524.6304;-0.1886764;-0.210046;0;
216.3199;0;0;207.8379;-18.15683;-32.81814;181.4008;174.0292;-0.5133235;0.1799691;0;
239.9656;0;0;228.1812;-18.87552;-29.83804;204.5818;200.7783;-0.382873;-0.2100158;0;
-55.87695;0;0;-42.72452;-18.25334;-28.73633;-85.97784;-91.33925;-0.4474556;-0.5996088;0;
