Fp1;Fp2;O1;O2;POLY3;POLY4;A1;A2;Video;Audio;event;
384.382;0;0;273.2023;-14.7253;7.78576;380.3278;380.11;0.04118929;-0.01312341;0;12:38:13 Глаза закрыты;
702.6481;0;0;483.1971;-19.73435;7.175091;698.4106;695.8817;0.430952;0.05185713;0;
329.192;0;0;267.4448;-10.06898;7.636762;331.8302;327.6172;0.1056822;-0.07812967;0;
179.3114;0;0;237.441;-7.848058;9.035729;180.1354;179.7997;-0.1542933;0.1168509;0;
164.6385;0;0;212.09;-13.80202;4.605899;165.2118;166.8754;-0.284073;-0.01320124;0;
-349.8934;0;0;-252.1398;-12.448;5.672998;-340.8874;-340.9745;-0.2188202;-0.01318797;0;
-667.1946;0;0;-576.7856;-10.0246;3.054963;-657.1982;-655.2238;0.1712037;-0.1431094;0;
-361.9274;0;0;-334.3902;-8.205865;0.9084399;-358.2503;-354.029;0.04109701;-0.2729003;0;
-226.8814;0;0;-213.927;-7.125892;17.78686;-222.9581;-222.5517;-0.283781;0.2471127;0;
-193.9823;0;0;-176.4808;-6.449147;21.65388;-189.9381;-191.9683;0.1712755;0.376799;0;
375.7388;0;0;267.7233;-1.084032;19.4218;370.9084;370.1296;0.4959401;0.1815184;0;
713.1915;0;0;485.907;0.3909255;22.95226;705.4299;702.7153;0.3005398;0.1163687;0;
343.5977;0;0;273.0255;0.4569056;11.74329;341.4037;337.1926;0.04036846;-0.208585;0;
181.4588;0;0;238.5184;1.997664;9.052299;179.267;178.6208;0.0403279;0.1814287;0;
171.1566;0;0;216.4772;-3.96619;14.13378;169.6541;169.8207;0.1702221;0.4411157;0;
-347.942;0;0;-249.0065;-4.765512;12.98087;-340.6974;-342.53;0.170051;-0.2739682;0;
-683.6735;0;0;-587.3986;-5.967149;12.63291;-673.2502;-672.8946;0.4947169;-0.07879095;0;
-370.0189;0;0;-339.9324;-7.702465;11.54849;-365.2907;-362.749;0.3642851;0.1161903;0;
-213.1008;0;0;-196.038;-0.05891525;12.87655;-208.8771;-209.274;0.169017;-0.4036652;0;
-176.9672;0;0;-157.3604;1.817154;11.92585;-172.9977;-174.8309;0.2987819;-0.2083576;0;
377.557;0;0;268.6462;2.351192;13.99034;372.4021;372.0075;-0.1562897;0.1166885;0;
702.1393;0;0;483.6431;5.362939;15.65085;694.5533;692.5974;0.1037367;-0.01336347;0;
331.807;0;0;270.7014;1.338086;3.444476;330.8504;327.4596;0.2985345;-0.2082521;0;
172.2412;0;0;232.1361;1.001949;0.4937662;172.7223;172.146;-0.4164063;-0.2730102;0;
166.8832;0;0;215.2238;8.837824;2.904656;168.6132;169.4118;-0.09115115;-0.01286647;0;
-339.0927;0;0;-241.7004;10.37016;0.4234906;-329.3685;-330.0075;0.2987445;0.3119832;0;
-671.2099;0;0;-578.1633;9.9576;7.656978;-658.9342;-657.6985;0.1685096;0.4416044;0;
-374.5592;0;0;-341.8883;10.95197;8.988942;-366.3564;-363.7476;0.2333076;0.311226;0;
-223.8209;0;0;-207.4872;6.787781;6.836457;-215.314;-215.8937;0.5579099;-0.2088255;0;
-179.4307;0;0;-161.4892;4.838578;8.437178;-172.8064;-174.5724;0.3624473;-0.468485;0;
377.0949;0;0;272.5175;7.580382;3.405102;374.3423;374.0148;-0.2226229;-0.3380796;0;
707.6746;0;0;486.261;7.170624;3.066766;702.8633;700.4122;-0.3523339;-0.3377399;0;
345.1454;0;0;278.6266;4.417728;1.724026;346.0236;342.3881;-0.09211054;-0.2724332;0;
186.6281;0;0;247.0499;5.216597;-0.5550042;187.5679;187.3718;0.2328187;-0.1422248;0;
178.8194;0;0;226.9991;-1.151657;9.894647;180.258;182.1236;0.03768275;-0.01214719;0;
-339.9121;0;0;-238.4327;-2.490647;12.36295;-331.1037;-329.6772;-0.1572571;0.05283238;0;
-680.0244;0;0;-578.3971;6.286742;7.728828;-669.7256;-666.489;0.1677376;-0.2070901;0;
-371.0586;0;0;-333.0015;8.156435;9.060721;-365.5177;-361.6597;0.1026017;-0.07694732;0;
-213.0775;0;0;-193.0496;11.89831;4.228968;-207.2298;-206.2493;0.03753126;0.2479667;0;
-176.694;0;0;-155.8117;13.15915;1.947299;-171.6644;-171.8717;0.1674282;-0.01215182;0;
376.0807;0;0;270.1308;21.98816;7.772735;372.6721;373.5269;0.1022927;-0.3369763;0;
706.6615;0;0;485.0637;26.72149;7.229062;701.1948;700.7994;0.1021899;0.05316634;0;
336.6995;0;0;271.6833;11.28832;7.556713;337.3603;335.0912;0.1670545;0.3129823;0;
172.3187;0;0;227.5574;9.134502;8.151966;173.7284;173.3981;-0.15795;0.2477005;0;
169.0846;0;0;210.962;8.38839;1.847501;170.8676;172.4743;-0.5475954;0.3124189;0;
-339.2049;0;0;-242.2098;4.89636;0.9078838;-330.2397;-329.1969;-0.4820778;0.1821703;0;
-673.3834;0;0;-580.8586;10.65222;-2.040155;-662.9905;-660.4495;-0.09178936;0.3768893;0;
-372.5452;0;0;-344.3935;10.77524;-4.583457;-367.4725;-364.5593;-0.1566645;0.4414779;0;
-217.8734;0;0;-204.68;10.56334;1.985354;-212.6184;-212.7691;-0.2864417;-0.01373708;0;
-170.928;0;0;-152.8128;11.89287;2.117325;-165.6158;-166.7033;-0.1562192;-0.33856;0;
376.7186;0;0;279.3111;8.933183;3.923737;373.4047;373.5677;0.1038071;-0.1433178;0;
697.4911;0;0;486.4886;8.120899;5.728211;691.8693;689.9706;0.4285395;0.1166956;0;
339.22;0;0;274.6685;14.87789;0.6318745;340.163;335.83;0.4930762;0.3114804;0;
186.8306;0;0;244.1578;17.07277;1.234086;187.3978;185.5054;-0.22206;0.5060694;0;
187.1426;0;0;233.1678;9.620877;-3.991701;187.6468;187.318;-0.2868042;0.2456916;0;
-331.7222;0;0;-234.2691;8.405761;-6.934817;-323.0976;-324.0508;0.2981901;0.05054266;0;
-691.208;0;0;-595.0397;11.21035;4.994869;-679.4686;-677.7347;-0.02694624;-0.1444102;0;
-383.6678;0;0;-351.2516;10.59588;7.468097;-376.3754;-374.0185;-0.2867885;-0.4041344;0;
-213.0553;0;0;-197.4133;8.777546;2.704927;-207.0197;-208.4133;0.03833634;-0.2088263;0;
-187.7289;0;0;-167.9796;6.557923;3.840919;-182.5739;-184.7781;-0.02666952;-0.2086165;0;
360.2469;0;0;256.9131;11.3741;3.16723;357.2758;356.698;-0.2215447;-0.2733742;0;
708.8345;0;0;487.414;11.96589;3.097064;702.8055;700.0418;-0.1563548;0.0517372;0;
337.746;0;0;271.5325;3.782191;4.701543;337.1577;332.1479;-0.2861324;0.05168521;0;
169.5535;0;0;230.7176;2.370895;4.093972;168.591;166.6472;-0.3508122;0.05163328;0;
188.4985;0;0;233.4218;-2.453282;7.036986;187.0997;187.5317;0.2992137;0.1815161;0;
-324.6206;0;0;-229.2054;-5.532276;7.36483;-317.897;-318.6524;0.03904368;0.1163663;0;
-681.9896;0;0;-587.6697;-1.7093;4.276337;-672.9615;-672.6541;-0.6756363;-0.14362;0;
-375.7079;0;0;-347.1998;-2.578238;3.468245;-371.8113;-370.0675;-0.09025135;0.1813611;0;
-227.4672;0;0;-216.2916;1.510189;-0.5540943;-223.5745;-223.7065;0.03977402;0.3111135;0;
-195.1923;0;0;-180.5921;3.853196;-2.89794;-191.6783;-193.0595;-0.2201353;-0.07900315;0;
368.8454;0;0;263.6786;-1.643032;-3.095977;364.235;363.4173;0.03995525;0.5057823;0;
710.3655;0;0;487.551;-1.239239;-4.633474;702.9485;700.8199;0.1698498;0.7001761;0;
352.2688;0;0;275.9797;-0.9705506;-5.432491;351.0437;347.7928;-0.0252229;0.04979918;0;
189.7464;0;0;239.5331;-2.107675;-6.096862;189.9593;189.0854;-0.2200996;0.1796838;0;
192.1169;0;0;232.5458;4.592248;-6.760565;192.7045;193.0808;0.1049583;0.4393727;0;
-316.0708;0;0;-222.3968;5.860431;-6.887738;-307.238;-308.1113;-0.09004921;0.3739638;0;
-676.8842;0;0;-583.4292;2.438291;-6.344954;-664.6245;-663.9352;-0.3498281;0.2436534;0;
-380.4777;0;0;-351.3344;2.50319;-6.271595;-373.6026;-371.1025;-0.02463988;-0.2763302;0;
-222.1123;0;0;-206.1791;-0.9155768;-4.456876;-215.8063;-215.4326;-0.1545498;-0.6008892;0;
-197.6513;0;0;-173.5508;-2.254803;-3.782569;-191.7265;-192.5401;-0.4142639;-0.6002855;0;
360.2045;0;0;258.2816;-4.596087;-4.850373;357.8775;357.7519;-0.4138476;-0.2098783;0;
715.9761;0;0;487.7192;-7.471856;-4.979465;712.2771;710.1526;-0.1535624;0.05020202;0;
352.3766;0;0;279.8958;-0.7665433;-4.773513;355.7402;352.9307;0.04149391;-0.01481578;0;
176.0484;0;0;240.6967;0.5743735;-4.299958;179.2838;180.2252;0.2363542;-0.1447356;0;
179.932;0;0;231.8341;-6.660848;-9.051304;182.2896;185.229;0.3660514;-0.2745248;0;
-324.183;0;0;-222.2957;-7.256392;-10.71666;-313.9568;-312.7069;-0.2839898;0.1155551;0;
-683.364;0;0;-580.3297;-7.718591;-6.017209;-669.6498;-668.2138;-0.6085411;0.05047163;0;
-384.4523;0;0;-344.4899;-8.782562;-5.676248;-376.6239;-373.4402;0.04174373;-0.4693178;0;
-218.5242;0;0;-196.0307;-1.941234;-6.206408;-211.5783;-210.5842;0.3015712;-0.07904221;0;
-186.6331;0;0;-162.2881;1.275897;-5.865257;-179.2568;-180.4501;-0.08853591;0.2458739;0;
361.2167;0;0;264.8479;-6.160125;-5.189534;360.7145;359.6473;-0.3483163;-0.07920985;0;
706.6174;0;0;489.7186;-6.689798;-4.581595;703.617;700.3021;-0.02312962;-0.01416291;0;
350.6485;0;0;283.3925;0.4168704;-6.720324;353.1483;348.8372;-0.02310638;-0.1440834;0;
175.9463;0;0;241.3163;0.4164515;-7.450383;177.8189;177.4476;-0.3479199;-0.3388406;0;
172.896;0;0;225.0193;7.382258;-6.237204;174.2669;176.2074;-0.2176356;-0.07863078;0;
-325.9646;0;0;-226.8547;9.919459;-6.431886;-317.0363;-315.7225;-0.02251489;0.1163503;0;
-674.774;0;0;-577.0132;1.000885;-6.626372;-663.1686;-660.4193;0.04247507;-0.01370134;0;
-376.7455;0;0;-343.488;0.1292227;-6.418765;-370.0243;-366.8405;-0.2824043;-0.1436222;0;
-215.4479;0;0;-199.9023;-5.229542;-7.283093;-209.0457;-209.8006;-0.3470879;-0.1434779;0;
-185.6837;0;0;-166.6556;-8.103699;-6.806895;-180.7248;-182.7283;0.3029343;-0.2083011;0;
361.8527;0;0;260.9221;-7.559693;-8.407645;358.1236;358.1835;0.4975319;-0.2080918;0;
712.1879;0;0;489.1075;-9.96397;-9.202992;706.9632;705.5863;0.3670973;-0.1429154;0;
352.4027;0;0;281.5952;-4.527975;-2.361608;354.3047;351.5549;0.3017611;0.1820649;0;
176.1995;0;0;241.2074;-3.987562;-0.5506962;178.7868;179.8503;-0.02337882;0.1169147;0;
189.3283;0;0;239.7156;-4.050904;-1.889802;190.9135;193.4127;-0.02335532;-0.01313751;0;
-311.2354;0;0;-213.8599;-3.108829;-0.3472952;-302.4055;-302.4076;0.4964069;0.3117124;0;
-676.1766;0;0;-580.1483;-6.320886;-3.830059;-664.1697;-663.3596;0.6908101;0.05152983;0;
-377.4595;0;0;-344.9958;-6.515605;-4.496039;-371.0243;-368.341;0.3652793;-0.2733587;0;
-218.9722;0;0;-200.1592;-7.915578;-0.405563;-212.1687;-212.674;0.1050429;-0.3380513;0;
-198.3249;0;0;-177.0321;-7.841251;0.4656226;-190.4663;-193.5323;0.1699047;-0.3377117;0;
354.659;0;0;252.8673;-10.17692;-0.3386405;354.014;352.9501;-0.2850375;0.2473338;0;
713.8719;0;0;489.1818;-10.50149;0.465495;709.2921;707.1047;-0.4146857;0.2470852;0;
358.0206;0;0;280.9821;-5.936584;1.000769;358.8801;354.696;0.2354044;-0.4678038;0;
177.8138;0;0;232.474;-5.059963;1.401661;179.2346;178.2406;-0.08966887;-0.3373991;0;
179.3217;0;0;223.4324;1.977719;3.744655;180.1165;181.185;-0.4793828;0.1826787;0;
-318.046;0;0;-222.6305;4.789747;4.276756;-309.4435;-309.3756;0.3656743;0.1824951;0;
-676.796;0;0;-582.6008;4.583863;5.277203;-665.4534;-663.4491;0.4302742;-0.07755761;0;
-381.2641;0;0;-352.006;6.253221;5.606814;-375.9925;-372.1161;-0.3497662;-0.4023164;0;
-215.0269;0;0;-201.9151;2.764313;5.467215;-208.886;-207.8246;-0.02457807;-0.5968142;0;
-190.698;0;0;-171.165;2.493115;6.399361;-182.8766;-184.0651;0.4951853;-0.1414431;0;
354.0949;0;0;256.5421;-2.398534;-1.108914;353.7875;353.7871;0.3647531;0.1835358;0;
715.9945;0;0;490.7289;-5.209163;-3.988066;712.8764;711.5641;0.2344519;-0.07651804;0;
365.0136;0;0;286.0885;-3.328895;2.580147;367.7707;364.7106;-0.02565302;0.1834282;0;
180.5519;0;0;244.1969;-5.670074;2.175657;184.3057;183.56;-0.2205293;0.1182766;0;
185.7428;0;0;240.8906;-1.10905;3.98201;189.6802;190.3096;-0.1553403;-0.3366137;0;
-309.3201;0;0;-208.938;-0.5056988;5.853409;-298.2028;-298.5735;-0.09021691;-0.2713081;0;
-679.8854;0;0;-581.0409;-5.528057;-0.984488;-666.7802;-665.0891;0.1697431;0.3786379;0;
-383.3509;0;0;-349.698;-5.589851;-1.385396;-376.5058;-373.1922;0.3644746;0.8330289;0;
-212.6139;0;0;-196.2361;-11.07659;0.2235861;-206.1504;-206.2759;0.2341737;0.3124531;0;
-204.0294;0;0;-181.1089;-13.00784;0.3573273;-196.8229;-199.0097;0.03903634;0.05226978;0;
338.9652;0;0;242.6726;-12.32519;3.438061;337.7313;337.0459;-0.1559049;0.4420213;0;
711.1249;0;0;490.2417;-14.8584;4.439351;706.7063;705.2095;-0.02581357;0.3766098;0;
355.9635;0;0;284.6647;-5.398998;7.850897;357.9836;354.9266;0.2340817;0.116362;0;
172.6353;0;0;237.4023;-2.847978;9.24965;175.528;175.0977;0.1688792;0.1812125;0;
182.207;0;0;233.4781;-10.81572;10.98179;184.2222;185.9163;0.2336768;-0.1438063;0;
-312.8524;0;0;-213.2821;-10.8722;12.3774;-304.0301;-303.3997;0.4283441;-0.07869451;0;
-679.541;0;0;-577.6345;-14.3439;7.475328;-667.5417;-665.1628;0.2330116;0.3111886;0;
-391.0029;0;0;-352.6669;-16.80773;6.061176;-383.7009;-379.8251;0.1678102;-0.01396078;0;
-227.3171;0;0;-205.7612;-11.83435;5.720171;-220.3972;-219.2739;0.4924783;-0.5336854;0;
-205.2247;0;0;-176.9438;-11.68874;4.240921;-198.2493;-198.1266;0.232114;-0.4681819;0;
338.7707;0;0;251.0814;-12.07914;3.164932;338.0555;339.3649;-0.4177926;-0.3377768;0;
703.5593;0;0;490.3337;-9.856196;2.759855;701.0956;699.8425;-0.2224708;-0.2075027;0;
361.3989;0;0;291.6282;-17.81689;0.6806107;365.3096;361.6839;0.03762212;-0.2722615;0;
181.0638;0;0;246.0454;-19.40658;0.2781512;183.7836;183.5349;-0.4821544;-0.3369553;0;
182.7559;0;0;236.0531;-8.2013;2.957067;184.0362;186.5988;-0.5466373;-0.07674737;0;
-307.8687;0;0;-207.6487;-6.318025;2.887113;-298.0315;-297.8452;-0.09131663;0.1831991;0;
-681.1216;0;0;-579.6904;-4.301945;8.912554;-667.5461;-667.6724;0.03870981;-0.01188699;0;
-391.6449;0;0;-354.4709;-2.823753;10.779;-384.0176;-381.7699;-0.02629643;-0.07684238;0;
-212.4662;0;0;-196.6938;0.4606375;8.222939;-206.3458;-205.7246;-0.1562047;0.1181369;0;
-203.9444;0;0;-183.0654;3.675355;8.683557;-198.1425;-199.5209;-0.2210151;-0.01191654;0;
331.7414;0;0;237.3448;-9.255433;6.263445;330.2286;330.0385;-0.220793;-0.2068066;0;
712.9037;0;0;491.1036;-11.79173;6.65905;709.5185;707.7043;-0.1556038;-0.1416314;0;
357.4907;0;0;282.0275;-6.353897;0.1552581;360.1058;356.1071;-0.2204148;-0.1414891;0;
162.3544;0;0;223.4609;-6.482211;-1.452488;164.2173;163.5334;0.1046434;-0.2063143;0;
181.8689;0;0;227.4842;-6.274626;2.768774;182.1682;183.4215;0.03957091;-0.2710744;0;
-305.0692;0;0;-210.5867;-6.937907;1.962197;-297.3365;-297.5211;-0.3502729;-0.2058346;0;
-682.1979;0;0;-584.6245;3.25047;14.28484;-671.9742;-670.472;-0.09005158;-0.07569312;0;
-387.6602;0;0;-355.0272;6.663455;18.8252;-383.4437;-380.5688;-0.02499376;0.1842523;0;
-213.4205;0;0;-198.6864;1.632918;14.25157;-208.9585;-209.3347;-0.08993599;0.1840672;0;
-201.5869;0;0;-182.2449;2.769377;16.58153;-197.8165;-198.5047;0.1700238;0.1189149;0;
333.5967;0;0;244.1615;-2.256271;12.2111;328.118;330.0541;-0.02504912;-0.01113929;0;
698.9527;0;0;491.2918;-4.397458;10.39042;692.2302;691.9779;-0.414828;-0.2060301;0;
353.5487;0;0;280.0916;-0.1061319;14.39883;353.5795;351.391;-0.1545418;-0.01092108;0;
170.2854;0;0;226.3995;0.3624892;12.84375;169.5665;170.5661;0.4303195;0.1190246;0;
176.0488;0;0;222.6113;-5.062882;11.96007;174.3311;177.2663;0.04008311;-0.1409644;0;
-305.0114;0;0;-213.0186;-6.397942;10.34058;-298.9187;-296.4238;-0.2847939;-0.1408227;0;
-671.0833;0;0;-577.871;-0.6307371;6.847081;-661.3735;-656.8821;-0.02463834;-0.0757139;0;
-384.8025;0;0;-352.6533;0.3069257;5.500543;-379.2255;-373.6142;-0.2195156;-0.1406052;0;
-207.5672;0;0;-191.8171;2.450071;-0.8011361;-202.3706;-199.6385;-0.1543277;-0.0105292;0;
-198.1758;0;0;-174.6954;4.792134;-2.809819;-193.1718;-192.1916;-0.08920529;0.1843834;0;
330.3203;0;0;239.647;2.442794;-4.213637;327.5731;329.5519;-0.2190503;0.1192308;0;
708.8604;0;0;490.7173;3.646765;-5.816872;703.9921;705.2817;0.3658758;-0.2057257;0;
359.5109;0;0;284.3278;3.709473;-0.2515656;362.1437;361.433;0.4954429;-0.2704864;0;
158.5005;0;0;222.6355;4.241609;0.3514116;162.1926;163.2318;-0.08976101;0.05462216;0;
174.5831;0;0;228.7835;6.514523;6.513366;178.1466;180.6215;-0.1546382;0.05456727;0;
-298.4796;0;0;-195.4832;6.507977;9.521053;-287.7983;-286.6378;0.1703539;0.3793491;0;
-676.4271;0;0;-571.2853;12.32956;5.760443;-663.6951;-660.849;0.1701828;0.3140006;0;
-394.2639;0;0;-354.0702;13.99114;6.826381;-385.5426;-381.9498;-0.1548249;-0.2060536;0;
-223.0161;0;0;-201.4159;10.09231;1.795924;-214.4286;-214.2751;-0.2196367;-0.3357812;0;
-219.4187;0;0;-187.4705;9.278865;-0.2822292;-211.5269;-212.4981;0.04045334;-0.2704765;0;
320.5305;0;0;238.7538;5.919663;2.129318;320.106;321.1973;0.1703474;-0.01033538;0;
715.0099;0;0;493.5732;2.966954;1.524332;710.6503;710.3038;-0.02472582;0.1196097;0;
375.8366;0;0;294.8643;0.8878677;-0.4195827;377.4159;374.446;-0.1546357;-0.01044518;0;
181.9312;0;0;248.4662;-2.462903;-0.7540758;184.2586;183.9154;0.1053891;-0.2053367;0;
190.1192;0;0;246.3425;-3.73225;0.5862185;191.6946;193.6006;0.04031585;-0.7248691;0;
-300.7627;0;0;-192.622;-5.068646;1.188476;-291.5677;-290.8505;-0.08965934;-0.5942061;0;
-684.8297;0;0;-569.364;-13.10151;3.598667;-673.0203;-670.6797;0.1703001;-0.008902946;0;
-403.1579;0;0;-357.648;-15.70031;5.068676;-397.1699;-392.9576;0.4949657;0.3159427;0;
-223.9052;0;0;-204.8028;-12.5367;5.465358;-218.7353;-217.5257;0.429501;0.4455599;0;
-209.3124;0;0;-184.6695;-12.32303;5.928747;-204.0228;-205.0008;0.1692001;0.3801449;0;
324.817;0;0;233.7433;-10.50199;9.740817;322.2928;322.9399;0.03909539;0.5096976;0;
717.3557;0;0;490.1295;-9.084918;11.3385;711.5856;711.0452;-0.09087858;0.3142834;0;
379.4919;0;0;298.1082;-6.463821;6.37049;379.662;376.8733;-0.02581992;0.1190656;0;
171.1526;0;0;238.3386;-5.854115;5.761242;171.8224;172.5971;0.2990427;0.05397864;0;
182.7872;0;0;234.6633;0.4484076;3.612122;182.5817;185.7295;0.3637096;-0.01104295;0;
-292.5327;0;0;-195.3564;2.992576;1.197107;-284.1172;-283.6588;0.4932788;0.0539355;0;
-681.8554;0;0;-581.2785;-5.182104;5.616655;-670.2001;-668.1803;0.03801178;-0.1410207;0;
-399.5618;0;0;-365.4277;-5.913832;5.410063;-394.4149;-389.2113;-0.5467325;-0.01094435;0;
-215.1903;0;0;-198.0194;-12.20355;2.390517;-210.2985;-207.8487;-0.3512811;0.248936;0;
-206.8532;0;0;-182.1409;-16.14341;1.58432;-202.0287;-201.393;-0.4808628;-0.2710528;0;
321.1519;0;0;235.8946;-10.96962;-1.699314;316.7886;319.0479;-0.1555429;-0.2707805;0;
704.3239;0;0;493.4655;-11.49446;-4.51089;696.7167;697.4119;0.4293194;0.184263;0;
372.2203;0;0;295.9437;-12.21985;-0.8892787;370.1179;368.4387;-0.09085069;0.3140125;0;
183.6284;0;0;242.8604;-11.6717;-0.955368;181.778;181.912;-0.3506288;0.118795;0;
190.8776;0;0;238.4934;-10.31983;-7.987494;188.7168;190.4124;-0.1553744;-0.2711284;0;
-297.069;0;0;-202.2123;-8.635497;-9.051195;-291.2942;-290.5997;-0.1552183;-0.5307254;0;
-680.765;0;0;-582.5678;-11.23879;-11.3194;-672.0599;-669.6796;0.1697744;-0.2053554;0;
-399.2846;0;0;-365.4038;-12.43295;-11.91087;-395.7107;-391.3962;-0.09026559;0.379557;0;
-219.5985;0;0;-206.6163;-5.254132;-10.0235;-216.528;-214.9039;-0.2850769;0.3142083;0;
-208.8831;0;0;-192.1034;-4.779363;-10.01343;-206.6278;-206.7545;0.2999156;0.1839579;0;
317.1874;0;0;227.8162;-4.238697;-0.9607953;311.8194;313.0671;0.1696796;0.3137077;0;
708.7343;0;0;492.0168;-1.55512;2.389195;701.8723;701.9319;-0.02539296;0.1834579;0;
377.8131;0;0;293.9343;-17.22732;0.9131695;377.5173;376.2649;0.3644366;0.3132082;0;
173.0987;0;0;231.0454;-20.82733;2.184928;173.9901;176.0498;0.03923371;0.3778608;0;
187.9172;0;0;236.1855;-17.3228;5.196964;187.9331;192.2397;-0.1557077;-0.1422576;0;
-283.9095;0;0;-188.8383;-21.727;7.536023;-276.7722;-273.8443;0.2992201;-0.207082;0;
-677.0515;0;0;-575.0793;-2.949951;-1.71495;-666.2982;-661.8115;0.1040174;0.1179628;0;
-395.9496;0;0;-356.4236;3.081233;-3.119868;-390.0797;-384.1607;-0.02602177;0.247779;0;
-201.1495;0;0;-179.7166;-14.00214;-3.920529;-195.5353;-192.4334;0.2988411;0.05262796;0;
-201.4471;0;0;-170.6654;-13.92073;-7.466563;-195.2139;-193.7393;0.2335735;-0.07735962;0;
313.559;0;0;230.5545;-15.91647;7.209836;311.2278;314.3251;0.1034041;0.1825875;0;
712.4808;0;0;491.2541;-18.71352;10.48463;706.1539;708.0612;0.1033002;0.2473714;0;
380.9936;0;0;299.4192;-7.106789;2.034492;381.0449;381.0138;-0.02673829;0.3770575;0;
174.7143;0;0;243.084;-4.956194;2.099431;175.5151;178.6075;0.03825592;0.3117113;0;
185.5957;0;0;243.8392;-7.094667;-0.04601011;185.3962;190.3595;0.5579562;-0.07840599;0;
-288.7275;0;0;-186.0648;-4.743014;-1.586571;-280.4935;-277.8465;0.2975262;-0.07832721;0;
-671.8696;0;0;-566.1866;-8.355571;-2.723687;-660.0208;-656.1895;-0.0925768;-0.1432158;0;
-390.2733;0;0;-348.8517;-7.945034;-4.52949;-384.1833;-378.357;0.2323529;-0.01313726;0;
-206.9106;0;0;-184.3337;-4.387077;-3.453211;-201.2641;-198.5045;0.5569562;0.0518433;0;
-203.7666;0;0;-174.1535;-3.310942;-3.449741;-198.1883;-197.5555;0.5563965;-0.07814349;0;
315.1774;0;0;236.3152;2.452185;-7.331163;312.7541;314.2609;-0.3537053;-0.4029017;0;
705.3519;0;0;493.4484;6.334487;-8.462506;699.4329;699.3139;-0.6781866;-0.5324315;0;
376.4956;0;0;297.8632;1.773771;-3.966269;375.9548;373.837;0.2970049;-0.1420925;0;
174.2812;0;0;242.1542;2.106781;-3.292454;174.9279;174.8737;0.2317392;0.182887;0;
186.225;0;0;244.6595;9.874197;-4.159924;186.0589;187.8788;-0.3531998;0.2476706;0;
-281.8519;0;0;-180.5602;10.73591;-4.356693;-275.5836;-274.5776;-0.1579428;0.2474217;0;
-672.8095;0;0;-568.1838;14.94468;-2.275845;-663.1742;-661.4821;-0.02784944;-0.1426309;0;
-395.3976;0;0;-356.9688;16.8047;-1.469763;-390.6445;-388.2045;-0.4176255;-0.3373896;0;
-199.7234;0;0;-181.0733;6.540032;-6.223952;-195.6623;-195.3486;-0.02740183;-0.207116;0;
-201.959;0;0;-173.8325;2.983487;-6.351664;-198.0893;-198.9005;0.5573318;0.05296152;0;
308.175;0;0;226.2037;2.846767;-10.76603;303.4827;303.6719;-0.02793431;0.1178757;0;
707.3521;0;0;492.2176;-0.237552;-13.09962;699.3536;698.9804;-0.2877756;-0.2720469;0;
374.9331;0;0;294.6971;-5.93074;-6.321301;373.1895;371.6922;0.1023176;-0.5316429;0;
167.0981;0;0;227.9343;-9.809547;-6.180984;166.1059;166.7965;-0.02771989;-0.3362066;0;
186.4829;0;0;234.4519;-9.397549;-2.557817;184.6171;187.1186;-0.2225941;-0.2059341;0;
-280.2824;0;0;-186.6346;-11.26412;-0.2778271;-275.7121;-273.8378;-0.09243571;-0.07579254;0;
-673.8654;0;0;-576.626;-14.6017;-6.573822;-666.551;-663.2418;0.03759185;0.05421832;0;
-401.1375;0;0;-371.4619;-16.93155;-7.237045;-398.703;-393.8354;-0.02741326;-0.01080351;0;
-213.8284;0;0;-205.3595;-13.63201;-7.966586;-212.5208;-210.4067;0.03758162;0.0541747;0;
-222.5465;0;0;-202.5294;-13.55194;-9.834104;-220.7405;-220.1902;0.1674785;0.378957;0;
295.9791;0;0;210.9663;-15.88285;-6.341109;290.8492;292.7733;-0.1575264;0.3136089;0;
713.2842;0;0;492.1129;-14.45939;-5.396976;704.5364;705.334;-0.02743348;-0.401347;0;
389.0427;0;0;297.591;-22.81761;-12.22369;385.551;384.6612;0.1025288;-0.4659111;0;
185.9411;0;0;238.6339;-24.67069;-13.14917;183.2026;184.3127;-0.09247628;-0.07563891;0;
204.4324;0;0;250.2632;-16.94274;-11.52837;201.8216;205.0545;0.2974207;0.2492738;0;
-278.218;0;0;-184.3324;-16.38986;-13.05739;-272.0182;-269.8505;0.4270565;-0.07581338;0;
-685.2337;0;0;-584.446;-11.41689;-3.532938;-675.1046;-672.0645;0.3616601;-0.5305086;0;
-408.4964;0;0;-371.2156;-9.596762;-0.582139;-403.0002;-398.0266;0.6861334;-0.0102368;0;
-210.6227;0;0;-196.6177;-6.70673;-6.408947;-204.6322;-202.4748;0.2956399;0.1197082;0;
-215.4086;0;0;-192.4222;-3.351089;-5.196815;-208.737;-209.6426;-0.0944612;0.05462056;0;
299.4867;0;0;215.5662;-12.05526;-9.210568;297.4684;297.5007;-0.09436629;0.4443697;0;
713.7274;0;0;492.3354;-11.7757;-9.80416;708.6502;707.4331;0.1006306;0.3789559;0;
385.5498;0;0;301.0616;-17.32358;-6.981026;387.3493;384.6966;0.1654968;0.1187057;0;
176.08;0;0;242.5383;-21.39201;-6.840045;178.3774;179.6629;0.1653305;-0.01134823;0;
199.7661;0;0;256.9123;-5.093536;-1.273711;201.0617;204.22;0.4250337;0.05363052;0;
-271.3854;0;0;-167.7575;-2.476449;1.004866;-261.8452;-261.3138;-0.03016473;0.118544;0;
-672.5984;0;0;-562.3905;-3.478339;1.405754;-659.632;-657.9142;-0.6798078;0.05345752;0;
-404.9318;0;0;-357.6156;0.1424783;2.409086;-397.6006;-394.3853;-0.5491901;0.1833385;0;
-217.1191;0;0;-188.9034;-8.833622;4.952016;-210.8573;-209.8941;-0.4187036;0.05321959;0;
-213.3403;0;0;-178.2188;-10.36499;5.549765;-206.8348;-207.0595;-0.5482175;-0.2067033;0;
298.7418;0;0;224.8827;-6.804599;3.46784;296.5576;296.3956;-0.1578626;0.1183412;0;
703.5505;0;0;492.2097;-9.142286;3.79927;696.4959;694.0228;0.03719801;0.1831896;0;
385.628;0;0;303.3099;-1.028775;-4.108412;384.4526;381.0449;-0.4825781;-0.2067986;0;
175.6584;0;0;241.7234;1.316783;-6.58253;176.4206;176.3897;-0.4171259;-0.2715581;0;
186.6013;0;0;245.3536;-8.396455;-4.030686;187.0504;188.8936;0.2329667;-0.2063179;0;
-279.2896;0;0;-176.7434;-7.584711;-5.098241;-271.3447;-271.0651;0.2976999;-0.2710779;0;
-675.5596;0;0;-568.6187;-16.28463;-1.610128;-664.3743;-663.7203;-0.09240324;-0.2058382;0;
-407.2654;0;0;-365.5242;-20.75624;-1.340579;-402.4006;-399.7482;-0.09231039;-0.07569669;0;
-207.269;0;0;-186.8091;-4.190969;4.019281;-202.9089;-202.7578;-0.157185;0.1192814;0;
-207.8103;0;0;-178.313;-3.047682;7.029352;-202.5176;-204.0534;-0.4818637;0.1191616;0;
291.8974;0;0;215.3559;1.64443;0.9939474;288.2518;289.5287;-0.2215102;-0.2057949;0;
705.2712;0;0;490.9383;6.330851;1.863727;697.3189;697.595;0.03858174;-0.4654575;0;
388.1591;0;0;304.0387;-6.803677;-2.357949;386.4617;383.3641;0.03854297;-0.3350551;0;
167.5672;0;0;233.5185;-7.400054;-4.43205;166.4962;165.9005;0.1034716;0.1850203;0;
188.2009;0;0;244.7781;-8.799137;4.079113;186.3189;188.3475;0.168335;0.3797364;0;
-273.5062;0;0;-171.7586;-10.66533;5.749466;-266.8282;-265.7386;0.2331332;-0.2053512;0;
-687.8979;0;0;-578.2566;-5.564398;4.33717;-678.2281;-675.3906;0.1029642;-0.5949489;0;
-417.5923;0;0;-375.902;-5.290388;5.337555;-414.6788;-409.7201;0.2327954;-0.1395797;0;
-207.4656;0;0;-187.3689;0.7431481;7.475524;-205.1172;-202.9746;0.2975289;0.3153319;0;
-209.7559;0;0;-179.6219;3.287997;9.142586;-206.1605;-206.5188;-0.1575415;0.2500477;0;
292.3901;0;0;216.8594;4.556515;7.257877;288.6106;289.4395;-0.2873179;-0.2699423;0;
700.8908;0;0;493.0651;7.030183;7.451533;693.7418;693.5704;0.2327096;-0.6594751;0;
383.0959;0;0;304.1019;1.530762;9.5875;381.7637;379.9683;0.1675084;-0.1390737;0;
173.6286;0;0;237.2048;-0.2784609;9.979764;173.1098;174.1273;-0.417366;0.5107394;0;
191.6325;0;0;245.6496;3.606585;9.902753;190.552;193.38;-0.2220446;0.1853896;0;
-273.2015;0;0;-173.5117;3.268168;9.624871;-266.4099;-264.7716;0.1679826;-0.3345355;0;
-681.1593;0;0;-573.8235;-3.366548;10.48598;-670.439;-667.428;0.3627158;-0.2042646;0;
-418.8564;0;0;-376.0336;-5.43927;9.939578;-413.769;-409.1993;0.6222206;0.1857447;0;
-220.9723;0;0;-200.5563;-6.439158;11.93896;-216.8895;-215.2605;0.1018568;0.3154927;0;
-221.1875;0;0;-191.1719;-8.375072;14.00343;-215.4847;-216.7308;-0.547919;-0.009661015;0;
294.1508;0;0;214.0666;-8.701448;3.674233;292.3517;291.9189;-0.1575644;-0.009651308;0;
717.0176;0;0;494.5229;-11.43937;1.995968;711.0973;709.9153;-0.02747139;0.3151951;0;
388.8367;0;0;302.8097;-3.322577;6.347731;389.2317;386.3643;-0.2223458;-0.2048603;0;
169.3061;0;0;236.9134;-1.510577;4.934834;171.0751;170.6468;0.1027143;-0.2696218;0;
209.1159;0;0;264.7862;-11.42302;15.78074;210.071;212.0794;0.1675784;0.1854205;0;
-252.4873;0;0;-151.1459;-11.67899;18.57817;-244.0994;-243.8421;0.3623121;0.1852342;0;
-683.7042;0;0;-571.7201;-18.96827;17.08588;-672.2638;-671.0073;0.2969807;0.1200807;0;
-424.3972;0;0;-374.8068;-21.69588;20.21691;-418.7154;-414.0869;0.3616496;-0.009974651;0;
-218.0118;0;0;-187.774;-15.44479;9.546552;-212.1483;-208.8362;0.6211556;-0.07493197;0;
-225.4764;0;0;-182.4629;-15.02712;7.460489;-218.4943;-217.4345;0.3606621;-0.139824;0;
278.372;0;0;212.0222;-9.653391;10.33326;277.1637;278.0975;-0.09447169;-0.009748841;0;
710.2501;0;0;492.8554;-7.232794;8.447353;705.5447;703.5416;-0.6141155;0.574967;0;
402.4408;0;0;314.1373;-4.21044;13.39548;402.9875;399.0499;-0.4185964;0.5094219;0;
180.9601;0;0;249.354;-2.197453;12.91314;182.1934;182.1952;0.1665303;-0.270698;0;
199.0191;0;0;257.037;-3.333345;17.11997;200.4385;202.8142;0.03642826;-0.1404913;0;
-262.6365;0;0;-157.0758;-4.134279;19.3132;-253.5972;-252.9106;-0.09354302;0.1844866;0;
-674.7278;0;0;-557.5291;-5.268225;9.849446;-662.4493;-661.5135;-0.09344903;-0.1405355;0;
-420.0525;0;0;-368.7509;-6.067214;8.968772;-413.7209;-410.8495;0.1015469;-0.2053617;0;
-226.7899;0;0;-198.7157;-14.56758;4.405043;-221.5266;-220.657;0.03647752;-0.01025329;0;
-228.7484;0;0;-191.2072;-15.69202;1.319402;-222.1785;-223.8086;-0.2883959;-0.205145;0;
278.6016;0;0;211.7824;-23.11099;7.346417;277.9185;277.352;-0.09320404;-0.3348736;0;
707.5434;0;0;495.2395;-25.90081;6.937139;703.4252;702.1721;0.166759;0.05526698;0;
394.6768;0;0;309.0228;-13.21513;9.810434;396.4973;393.2465;0.03665674;0.1201788;0;
177.4518;0;0;247.493;-11.39319;11.2071;179.2704;178.5216;-0.02834744;-0.009876666;0;
222.3133;0;0;282.9764;3.219312;8.784572;221.6938;223.2571;0.1016157;0.05510062;0;
-238.6785;0;0;-130.6627;10.71817;8.976693;-232.6756;-231.926;0.2964157;-0.009922108;0;
-687.0256;0;0;-567.3743;5.884625;7.828964;-675.5941;-674.5328;0.4260525;0.1200226;0;
-429.9642;0;0;-379.4608;9.563384;7.620149;-421.9799;-419.5454;0.03582034;-0.01003274;0;
-211.2044;0;0;-187.0511;5.133145;4.732347;-204.6024;-203.5447;-0.3540197;-0.2049247;0;
-229.4204;0;0;-193.11;4.524775;3.655866;-223.075;-223.3926;0.03614007;-0.07478409;0;
269.1221;0;0;197.4503;2.845289;4.322021;267.028;267.7101;0.1010711;0.05522575;0;
715.0649;0;0;493.6654;0.09673965;3.647849;709.2247;708.282;-0.2238672;0.2500723;0;
400.5666;0;0;309.1369;6.057513;6.524328;401.2915;397.851;-0.1586749;-0.07501571;0;
174.715;0;0;239.2362;6.989432;6.584755;176.8134;175.8751;-0.2884501;-0.204875;0;
208.8971;0;0;261.9843;2.896572;9.056507;209.7441;211.5554;-0.2881603;0.1201676;0;
-247.9582;0;0;-149.6347;3.161105;10.186;-240.8652;-240.0553;-0.3528381;0.1200468;0;
-673.8699;0;0;-561.4647;4.029561;4.81737;-662.9734;-660.8524;-0.3524835;0.05495885;0;
-427.2539;0;0;-377.9925;4.091885;3.472871;-420.4288;-416.2485;0.03767467;-0.2699331;0;
-222.9271;0;0;-200.889;8.643101;2.062739;-216.796;-215.2436;0.1675715;-0.1397272;0;
-222.3282;0;0;-192.1915;9.706143;0.2521276;-214.7666;-215.777;0.03746844;0.2502173;0;
278.456;0;0;205.2395;11.23663;1.725499;277.7643;277.5045;-0.2874059;0.1200312;0;
712.0831;0;0;493.9505;13.034;2.728509;706.1447;703.8862;-0.2221498;0.3797799;0;
405.6463;0;0;311.858;7.997064;-4.240335;405.2735;400.6435;0.1678775;0.314431;0;
180.1643;0;0;241.5798;7.720609;-5.843543;181.1662;180.1016;0.1677088;-0.3355584;0;
208.0942;0;0;263.1386;5.905166;3.137797;209.22;210.7801;0.2325076;-0.4001885;0;
-247.8858;0;0;-145.9828;4.090571;4.474303;-238.8901;-238.7058;0.232274;-0.2698517;0;
-681.9185;0;0;-566.1248;7.702807;11.50277;-668.7463;-667.5628;0.1670733;-0.3345479;0;
-428.5478;0;0;-377.4006;6.423245;17.18464;-420.7612;-417.5798;0.101938;0.05559227;0;
-210.9138;0;0;-187.3042;11.8418;6.517331;-205.0716;-204.1423;0.166803;0.3154058;0;
-224.3825;0;0;-193.5503;13.97335;6.577765;-217.859;-219.6168;0.2316027;-0.009747865;0;
267.7831;0;0;192.7626;1.902874;12.33157;266.1792;265.7975;-0.09346672;-0.2696074;0;
713.1026;0;0;493.1054;-1.180497;12.18521;707.1274;706.6212;-0.09337281;-0.2043692;0;
404.7282;0;0;311.451;2.639082;18.73717;403.8815;401.3767;0.1665904;-0.2041638;0;
171.1887;0;0;235.4261;1.832147;20.058;170.2804;170.2144;0.03648831;0.05591068;0;
208.3105;0;0;267.7357;-2.992465;18.16233;206.7784;209.1487;0.101419;0.1208218;0;
-242.6723;0;0;-138.4543;-4.931841;17.80916;-237.8935;-236.6499;0.1662844;-0.2691036;0;
-682.5822;0;0;-567.3495;-4.056229;14.77716;-675.3095;-673.0052;0.2310847;-0.2038659;0;
-437.3317;0;0;-386.0578;-6.395702;13.55662;-433.752;-430.3881;0.1658851;-0.07372635;0;
-225.561;0;0;-202.1372;1.111837;6.442925;-222.4222;-222.1851;-0.02918357;-0.00868493;0;
-230.8941;0;0;-197.8111;3.321522;3.556308;-227.3836;-229.2082;-0.2240563;-0.1386109;0;
267.525;0;0;199.1257;-6.795872;0.6724681;263.5357;262.9624;-0.1588638;-0.203439;0;
711.4704;0;0;493.2777;-6.990114;-3.146113;703.2997;702.3522;0.03619786;0.1865695;0;
407.9077;0;0;313.8719;-10.06455;4.827895;405.6174;402.5468;-0.09377319;-0.1384547;0;
179.7374;0;0;246.3403;-10.32188;5.157837;177.8241;176.818;-0.5484504;-0.3332176;0;
210.4162;0;0;269.2687;-10.37886;3.076305;206.381;207.9996;-0.1580952;0.186856;0;
-244.1918;0;0;-142.3576;-11.90867;2.939249;-240.4144;-239.9843;0.491737;-0.1381685;0;
-676.4165;0;0;-564.3149;2.303189;1.127756;-668.2077;-667.2158;0.2963409;-0.397899;0;
-429.798;0;0;-381.6519;4.37698;1.394554;-426.6574;-423.9173;-0.02879355;-0.2025972;0;
-221.2832;0;0;-194.2999;11.33881;-9.189906;-218.5206;-217.5324;-0.02876462;-0.462263;0;
-233.0548;0;0;-194.4795;17.02084;-13.40047;-229.6703;-230.2448;-0.1586704;-0.1369618;0;
263.4924;0;0;192.8963;-3.559168;-8.564361;257.6906;257.8038;0.1013584;0.2529799;0;
718.9985;0;0;492.1145;-7.575056;-10.83305;708.9548;707.0688;0.2311912;0.3176931;0;
417.6147;0;0;316.6455;-6.160925;-7.473143;413.8904;409.9449;-0.2238125;0.1224718;0;
178.1902;0;0;243.6763;-10.0395;-6.661839;174.9693;174.7135;-0.2885549;-0.202488;0;
217.1165;0;0;274.2285;-5.675156;-11.81271;212.0248;214.3929;-0.09336295;-0.07234983;0;
-224.6297;0;0;-125.4088;-4.464005;-11.66687;-222.8447;-222.7904;0.03666555;0.2525596;0;
-671.8041;0;0;-557.2532;-11.89426;-17.08065;-665.898;-664.8442;0.2315307;-0.2024656;0;
-432.8114;0;0;-381.7187;-13.69097;-19.47487;-431.5963;-428.3572;0.1013634;-0.3971642;0;
-214.4236;0;0;-190.2437;0.5226817;-14.02981;-215.1463;-215.0963;-0.1586078;-0.0719284;0;
-222.5164;0;0;-191.6142;4.205852;-14.21666;-222.9885;-226.062;-0.0934811;0.1230459;0;
267.0862;0;0;195.5088;3.197248;-12.5278;259.3682;257.5471;-0.1583545;0.447759;0;
712.7187;0;0;493.6624;6.341867;-11.17555;700.948;698.754;-0.2881301;0.3823417;0;
414.7769;0;0;317.9419;0.9778361;-12.97286;409.6397;406.0736;-0.2228732;0.05712085;0;
181.852;0;0;248.3448;0.1725703;-11.28525;179.2188;178.3423;0.1021874;0.3819002;0;
219.6502;0;0;280.329;2.315851;-16.02958;218.0191;217.9556;0.1670521;0.1216471;0;
-222.5358;0;0;-118.8771;1.442868;-16.61632;-213.7955;-216.4826;0.03694955;-0.2682792;0;
-673.0232;0;0;-556.7875;1.374069;-11.64301;-659.669;-661.3539;0.1018798;-0.07310764;0;
-441.1506;0;0;-395.184;0.7031029;-12.23416;-437.4925;-437.3641;0.03681006;-0.00806684;0;
-220.2557;0;0;-207.5685;2.242638;-3.916224;-224.035;-225.3435;-0.09316161;0.121876;0;
-226.3437;0;0;-208.9841;3.847975;-2.036766;-232.4305;-235.6118;-0.093068;0.4465902;0;
262.0134;0;0;178.0314;-1.648248;-5.383744;247.9991;245.1959;-0.3528439;0.5760761;0;
722.4561;0;0;491.195;-1.712965;-4.842593;704.3329;701.2202;-0.482424;0.1856933;0;
424.6919;0;0;313.9778;1.704032;-13.0094;412.3966;408.4124;-0.3520046;-0.009395361;0;
176.8271;0;0;230.704;1.70232;-15.20677;166.2308;164.9367;-0.2217162;0.3154508;0;
222.6263;0;0;270.9519;9.53749;-18.47353;210.229;211.4975;0.1033433;0.1851992;0;
-215.9396;0;0;-125.3088;11.20285;-20.2635;-222.8271;-222.9342;0.2981415;-0.1398237;0;
-674.7419;0;0;-568.585;13.73719;-19.90823;-678.6865;-679.1058;0.1679072;-0.07471582;0;
-432.3729;0;0;-396.4749;16.53642;-20.55793;-442.7478;-442.2297;-0.09213086;0.05529395;0;
-202.6162;0;0;-198.6758;6.27105;-10.62405;-214.2301;-216.586;-0.221973;0.3800751;0;
-217.0303;0;0;-201.4747;4.85823;-6.929431;-228.1327;-233.2349;-0.2867173;0.3147258;0;
266.3824;0;0;182.6598;0.7675112;-4.042325;245.4836;241.6983;-0.2214618;0.2494423;0;
723.135;0;0;491.7583;-3.185375;-0.08627006;696.6975;692.7911;-0.09130462;0.119257;0;
431.3672;0;0;316.2896;4.520985;-1.224893;409.1416;403.0528;-0.1561802;0.05416978;0;
190.3672;0;0;230.5772;4.114301;-0.3528843;167.6642;163.9553;-0.1560233;0.18405;0;
219.5362;0;0;254.7083;3.842723;1.388904;196.6686;195.5246;-0.3507685;-0.205939;0;
-216.6528;0;0;-137.3507;3.906211;1.320526;-230.8767;-233.269;-0.4803508;-0.2706994;0;
-656.4639;0;0;-563.0611;3.767588;-3.235518;-664.6766;-665.8795;0.1698053;0.2493114;0;
-428.5435;0;0;-396.8911;4.634458;-5.576548;-441.3706;-440.3859;0.624406;0.3789955;0;
-212.159;0;0;-206.7751;-2.671216;-8.116296;-229.5959;-230.3613;0.2339746;0.3136474;0;
-212.5705;0;0;-197.5094;-3.873981;-11.39018;-230.0523;-232.3787;-0.2210319;-0.07647184;0;
272.337;0;0;192.8054;-3.601669;-10.0392;249.5004;247.8011;-0.4806792;-0.3362644;0;
719.2136;0;0;494.0852;-4.133913;-10.83279;693.0891;689.8923;-0.09039211;-0.2059918;0;
422.8895;0;0;312.8046;-1.58514;-15.77852;402.9132;397.783;0.2995028;0.1190519;0;
177.4627;0;0;225.8463;-1.64992;-16.43249;157.5065;155.4424;0.03933246;0.638671;0;
219.888;0;0;259.1026;5.786477;-18.89435;196.9533;197.4525;-0.2855438;0.5730619;0;
-205.3693;0;0;-124.5276;7.521975;-20.48283;-220.5973;-222.0976;-0.1553222;0.3126168;0;
-663.7449;0;0;-565.3683;13.40892;-13.7642;-673.0856;-673.335;0.1696706;-0.2074361;0;
-439.378;0;0;-402.8816;19.62473;-13.21451;-451.1455;-449.3332;-0.3502386;-0.3371624;0;
-211.6757;0;0;-198.0171;-1.561105;-8.57953;-223.8687;-224.9942;-0.414854;0.05298048;0;
-229.8288;0;0;-207.6257;-5.310581;-5.154779;-243.3213;-247.0069;0.3651709;-0.07700745;0;
255.2209;0;0;169.2061;4.67509;-14.72804;232.1843;229.3145;0.1049346;-0.2068648;0;
728.6639;0;0;490.6245;2.124797;-15.31596;700.2781;696.4741;-0.09007284;-0.01175487;0;
430.8936;0;0;313.7826;15.92139;-15.76945;409.4702;403.1714;0.2348544;-0.0767104;0;
179.4617;0;0;225.9488;19.72281;-17.56215;162.058;157.7644;0.03971636;-0.1416007;0;
220.6981;0;0;261.9536;10.39322;-10.77935;202.1249;200.9591;0.1046438;-0.2713931;0;
-208.3081;0;0;-124.6154;10.91864;-9.22803;-220.8657;-222.4676;0.364408;-0.3360877;0;
-658.4974;0;0;-561.8329;4.678377;-10.69226;-667.1069;-668.2699;0.2990745;-0.0109133;0;
-436.6345;0;0;-403.1603;2.128081;-9.609912;-450.2952;-450.0203;-0.09103005;0.1190324;0;
-215.3067;0;0;-203.3555;3.599811;-8.461546;-230.3905;-231.7401;-0.3508079;-0.01102194;0;
-221.6496;0;0;-196.9668;2.725538;-7.783214;-234.9066;-237.2543;0.0393486;0.1189238;0;
254.8337;0;0;187.1007;0.914138;-6.301769;236.1552;235.3716;-0.09062562;0.3137064;0;
708.8493;0;0;494.1333;-0.6279981;-5.357676;688.0032;685.5338;-0.02556722;0.3783585;0;
426.2787;0;0;317.3504;6.673651;-8.03161;412.9498;407.8591;0.5591645;0.2480436;0;
183.7221;0;0;233.2611;7.537601;-8.827334;171.5935;169.5689;0.2987333;0.05289237;0;
218.8323;0;0;264.386;8.334311;-6.942943;204.4045;204.6308;0.03856379;-0.2719975;0;
-205.4869;0;0;-119.9366;8.794451;-7.069932;-213.2786;-214.989;0.3633617;-0.2067568;0;
-661.3013;0;0;-560.1573;5.03457;-5.72317;-665.7742;-666.4835;0.2980293;-0.07661442;0;
-437.1241;0;0;-400.8617;4.493648;-3.842019;-447.5896;-446.1117;-0.1570415;0.2482993;0;
-208.8619;0;0;-198.9977;-5.490227;-9.598569;-219.8791;-220.5891;-0.09191641;0.5728865;0;
-239.4491;0;0;-215.227;-9.370452;-9.9907;-247.2692;-250.5397;0.2330127;0.05257213;0;
234.1161;0;0;159.3636;-5.944785;-3.952441;219.8071;217.7892;-0.3519275;-0.2723174;0;
722.0105;0;0;489.0377;-5.53667;-2.943726;702.0937;699.2657;-0.3515739;-0.1421091;0;
436.803;0;0;318.0695;-3.990865;3.288523;421.7163;415.7678;0.1685181;-0.1419663;0;
184.6781;0;0;232.2928;1.170708;6.232346;170.606;166.9749;-0.2864227;-0.01188898;0;
235.9042;0;0;274.0383;-2.313092;5.42241;220.4095;220.1553;-0.4160695;-0.07684438;0;
-195.4911;0;0;-113.8547;-1.172668;6.890464;-202.8493;-204.2902;-0.09081476;0.1181349;0;
-667.12;0;0;-562.7021;26.49234;3.333567;-668.1615;-669.1636;-0.09072351;0.5078202;0;
-454.8685;0;0;-411.4;35.03954;1.521678;-460.2193;-459.7212;-0.09063236;0.3124079;0;
-233.9598;0;0;-216.0221;38.08481;3.12774;-241.0543;-243.4928;-0.3504106;-0.1426774;0;
-241.1584;0;0;-213.1189;44.74532;1.717955;-247.996;-252.6184;-0.4799933;-0.2075014;0;
244.9646;0;0;176.2122;35.79176;-0.7620174;230.138;228.2064;-0.1546742;-0.01239084;0;
717.9182;0;0;492.8134;35.0862;-1.498064;698.4212;696.6165;-0.08955148;-0.2072804;0;
437.7747;0;0;323.4031;29.82604;-8.127747;424.3568;419.5555;-0.2193962;-0.07713745;0;
195.6438;0;0;249.1778;26.17875;-10.79878;183.6138;180.254;-0.3491104;0.1828094;0;
232.1788;0;0;280.4116;21.79916;-6.702088;218.5366;217.554;-0.1538576;-0.01227629;0;
-205.7095;0;0;-116.6083;17.423;-7.432166;-212.4664;-214.3851;0.1061664;-0.207166;0;
-665.4591;0;0;-560.268;18.67829;-4.678398;-668.1488;-669.066;0.2359944;0.2478136;0;
-441.2153;0;0;-398.9109;14.57369;-4.137956;-449.8368;-448.4418;0.3656919;0.3774993;0;
-211.2624;0;0;-191.4891;27.01762;-3.196037;-221.5618;-222.0423;0.1054551;0.05228325;0;
-233.8511;0;0;-202.3537;29.87086;-1.317303;-241.8289;-244.9325;0.1703165;0.1171981;0;
230.9003;0;0;162.7288;19.45837;-8.750963;214.8721;213.021;0.30008;0.05211295;0;
714.1753;0;0;488.5889;20.17576;-9.278033;693.1657;690.1295;-0.4798296;-0.2727761;0;
436.4095;0;0;320.6821;8.634908;-11.34506;422.7298;416.6982;-0.1545107;-0.4024367;0;
176.4139;0;0;228.2187;4.339324;-13.81203;163.9349;160.658;0.4303506;-0.2071303;0;
222.9632;0;0;269.9683;10.6316;-2.478279;208.1853;207.9727;-0.3496899;0.1828818;0;
-198.5491;0;0;-110.9242;8.878633;0.2705117;-206.3781;-207.5275;-0.2843712;0.3126328;0;
-660.8046;0;0;-553.84;16.03701;-3.480804;-664.6277;-664.6516;0.4305553;0.1174166;0;
-440.8134;0;0;-395.6752;18.90128;-2.137648;-449.0679;-447.2177;0.2352206;0.182266;0;
-217.545;0;0;-198.0643;15.39869;-4.479903;-225.4789;-226.0043;-0.02488509;0.1820828;0;
-226.6967;0;0;-198.4275;17.79509;-6.149853;-233.3732;-235.5848;0.1050746;0.2468672;0;
248.9171;0;0;181.456;14.49468;-1.655939;235.0009;233.7286;-0.02496566;0.3765539;0;
709.3105;0;0;493.3668;14.21267;-2.190138;691.098;687.7654;0.04002677;0.2462408;0;
429.9878;0;0;323.019;19.6234;-3.996477;416.6661;411.213;0.1699212;0.5058628;0;
177.6824;0;0;234.6137;19.93847;-3.0547;165.0612;163.674;-0.1550862;0.7002565;0;
208.1134;0;0;261.8641;23.60311;-15.44311;194.9427;197.0552;-0.2848651;0.3097488;0;
-209.7607;0;0;-119.2701;24.98591;-19.04467;-214.36;-213.9363;0.2351599;0.1145355;0;
-665.5083;0;0;-560.6158;22.61628;-13.66702;-664.8555;-664.2449;0.3648583;0.2443551;0;
-448.9481;0;0;-408.7536;23.39686;-15.99757;-453.9182;-451.2467;-0.2851817;0.04920759;0;
-213.8024;0;0;-199.4478;20.62766;-4.996536;-219.7046;-219.3471;-0.4148299;-0.2756786;0;
-234.3272;0;0;-204.1824;21.54494;-1.642491;-237.5997;-240.2411;0.1053257;-0.3403689;0;
230.2998;0;0;162.7134;13.41799;-10.01346;219.4094;218.7697;0.1052199;-0.0151902;0;
719.6973;0;0;489.5106;8.916533;-9.73547;704.5075;703.8684;-0.2846899;0.3096618;0;
440.8015;0;0;320.1036;23.50961;-12.13707;432.6234;429.1739;-0.1544692;-0.2103881;0;
172.9305;0;0;224.8297;21.40988;-13.06264;165.6977;163.8758;-0.4141833;-0.5350134;0;
225.0429;0;0;272.7671;35.72198;-16.06362;215.7559;216.1223;-0.5437018;-0.2096391;0;
-192.0986;0;0;-102.8184;43.12181;-18.7268;-193.1929;-193.8264;0.04155055;-0.01452646;0;
-667.8539;0;0;-556.9243;5.836454;-14.15327;-663.075;-662.4585;0.1714435;-0.01451186;0;
-448.7301;0;0;-403.1292;-0.8008426;-15.47858;-449.016;-446.5261;-0.2185328;-0.2093993;0;
-214.1469;0;0;-198.7017;-0.1294765;-12.58288;-216.9313;-216.5677;-0.4781826;-0.1442216;0;
-229.9237;0;0;-202.0627;-7.029199;-11.96739;-232.0806;-234.0912;0.1070039;-0.0791093;0;
240.571;0;0;176.6376;6.17338;-18.25164;231.1699;230.4106;0.6266351;-0.2739318;0;
712.7792;0;0;494.1129;7.774767;-18.70218;699.3271;697.819;0.3011688;-0.07875457;0;
439.2002;0;0;329.6364;11.71907;-25.98429;431.2589;427.7533;-0.1539052;0.05125926;0;
188.2598;0;0;249.033;18.27138;-28.43655;180.7637;180.1977;-0.5435546;-0.0137596;0;
227.4259;0;0;282.8281;7.200957;-27.00133;218.3756;219.4968;-0.2831391;-0.07871311;0;
-196.6521;0;0;-101.6379;5.719853;-28.31386;-198.197;-198.5138;-0.08795256;-0.07863402;0;
-665.9685;0;0;-550.1228;23.19653;-20.31456;-661.6398;-660.7068;-0.2827662;-0.07855501;0;
-449.2205;0;0;-395.3976;24.78081;-17.8159;-447.8946;-445.4633;0.107322;-0.1434434;0;
-214.0745;0;0;-187.0423;19.93314;-14.44886;-214.0619;-214.1943;0.1072141;0.1815374;0;
-230.601;0;0;-194.9128;16.76528;-9.678672;-230.7133;-233.1569;-0.2826976;0.3112897;0;
232.523;0;0;170.9118;14.27019;-16.836;224.7897;222.6609;-0.3473809;0.2460096;0;
709.2371;0;0;490.5168;11.71025;-17.08701;696.4516;693.2005;-0.2170972;0.3107297;0;
438.5977;0;0;328.73;-11.67746;-8.965154;431.697;426.7001;-0.02197704;-0.2093212;0;
174.6644;0;0;239.5069;-19.77102;-7.884418;170.207;167.5264;0.04301238;-0.1441436;0;
217.2799;0;0;276.9973;-28.86084;-6.938735;210.9529;210.274;0.1729039;0.2458053;0;
-188.3596;0;0;-94.53197;-39.01227;-5.793053;-188.0586;-190.361;0.2376975;-0.2092131;0;
-662.3695;0;0;-548.2714;-18.94603;-11.14574;-657.0089;-658.1845;0.1724913;-0.1440355;0;
-450.7475;0;0;-399.8573;-16.31502;-13.74688;-451.2018;-449.5027;0.04238327;-0.01395609;0;
-207.3542;0;0;-184.5635;-21.58991;-10.78582;-209.9944;-210.421;-0.4124307;-0.5986481;0;
-231.696;0;0;-197.5589;-18.21932;-12.51654;-232.8344;-235.9466;-0.2171143;-0.3381773;0;
223.1833;0;0;164.5202;-18.80325;-14.11155;213.9252;212.2528;-0.08696143;0.116934;0;
704.2171;0;0;490.5659;-16.37346;-14.03039;689.4086;687.6754;-0.2817761;-0.01311824;0;
438.7676;0;0;324.4687;-16.89287;-23.72857;428.8465;425.5533;0.1083111;0.2467643;0;
174.6467;0;0;228.2534;-16.80854;-25.37918;166.5472;165.3813;0.4980063;-0.01335301;0;
206.3302;0;0;261.6321;-9.557985;-25.68859;198.1764;199.0731;0.4975059;-0.468111;0;
-197.5492;0;0;-105.3839;-7.070135;-27.80623;-198.7608;-199.1768;-0.08770005;-0.07783657;0;
-655.3705;0;0;-547.056;-8.938066;-14.51592;-653.0201;-652.0615;-0.477416;0.2470784;0;
-443.6305;0;0;-396.0194;-6.384465;-11.42024;-446.3426;-442.2614;0.1077698;-0.07800663;0;
-208.4902;0;0;-186.9764;-13.54437;-8.595604;-211.8242;-210.6207;0.4324982;-0.2078629;0;
-238.2032;0;0;-205.3417;-16.1437;-4.166094;-239.5973;-241.6434;0.3670963;-0.2076541;0;
221.4302;0;0;160.181;-4.137416;-10.59215;212.8536;211.3718;0.04189074;-0.2074454;0;
715.5217;0;0;491.541;-4.266981;-9.10788;701.519;698.8518;-0.3479554;0.05263241;0;
449.6861;0;0;328.7536;0.4927291;-14.45724;441.1946;437.0309;-0.2826384;0.1175469;0;
183.7427;0;0;236.5944;2.97048;-16.98807;177.4462;175.9103;-0.4122891;0.05246141;0;
223.9128;0;0;272.2762;-9.088944;-9.335063;216.4981;216.9003;-0.3469075;0.4422128;0;
-185.0443;0;0;-98.24883;-9.884094;-9.995513;-185.1426;-186.365;-0.1516569;0.4417684;0;
-663.8676;0;0;-554.2958;-22.73391;-4.158076;-658.7809;-659.5648;-0.2814392;0.2464225;0;
-452.8687;0;0;-405.4384;-29.87836;-2.144532;-453.2845;-451.2565;-0.08625439;-0.01369449;0;
-200.4778;0;0;-181.5808;-14.50937;-7.96977;-203.3919;-202.9901;0.3686037;-0.2085828;0;
-232.1978;0;0;-201.0135;-14.2947;-8.36366;-232.9225;-234.9575;0.2382986;-0.07843849;0;
215.4356;0;0;155.8217;-13.20861;-11.6373;208.4023;206.6193;-0.02181019;0.05157502;0;
709.9704;0;0;490.7467;-9.309593;-12.63035;697.6343;692.9171;-0.02178828;-0.1433788;0;
443.3907;0;0;326.2735;-18.40992;-18.11014;436.5642;429.4155;0.1081683;-0.4680715;0;
170.9569;0;0;229.6816;-18.52514;-21.17303;166.4486;162.493;0.2379943;-0.5325685;0;
209.7655;0;0;268.6186;-11.87607;-13.315;204.4497;202.7469;-0.08708155;-0.4020987;0;
-194.3672;0;0;-97.03016;-10.32292;-11.96196;-193.181;-196.3189;-0.08699405;-0.07685795;0;
-663.8734;0;0;-545.4572;-7.499508;-11.94994;-658.9401;-660.9504;0.2379301;0.1830887;0;
-458.4967;0;0;-404.4173;-6.152802;-9.392582;-457.9412;-457.5757;-0.08714572;-0.2068994;0;
-220.0306;0;0;-194.5537;-2.127156;-10.52185;-219.913;-222.359;-0.2169928;-0.5315282;0;
-243.6725;0;0;-207.2267;-0.1162625;-9.439554;-243.3052;-247.6227;-0.02187277;0.1186793;0;
213.9049;0;0;157.0485;-1.923831;-4.205523;207.213;205.0862;-0.2817202;0.3134621;0;
709.1909;0;0;491.1602;-0.5827271;-2.057966;698.4453;695.6959;-0.4113718;0.1182451;0;
449.2961;0;0;330.5596;-4.600629;-3.931298;443.059;438.5008;0.1737477;0.3130283;0;
179.2926;0;0;239.5231;-4.060143;-4.530194;174.8109;171.9439;0.2385404;0.1178118;0;
215.1569;0;0;278.1379;-6.334215;1.100802;209.6801;208.3153;-0.08653598;-0.07720865;0;
-189.9183;0;0;-91.14362;-7.46595;2.37225;-187.8933;-189.819;0.2383877;-0.07713108;0;
-664.8636;0;0;-543.9494;1.249089;-3.323561;-656.5939;-657.3307;0.2381481;-0.1420209;0;
-458.6739;0;0;-399.1004;0.71197;-3.387204;-455.0351;-453.5848;-0.1518952;0.05302383;0;
-209.4631;0;0;-179.1222;13.90677;-9.144089;-207.8894;-208.4395;-0.2167099;-0.07696415;0;
-238.238;0;0;-196.7458;18.71557;-11.4793;-235.0417;-238.5273;0.1083445;-0.4017235;0;
205.5284;0;0;153.6509;1.951273;-6.980035;202.2248;200.5542;0.04326834;-0.07648316;0;
708.0692;0;0;489.3902;-0.8637266;-7.776816;700.3961;698.7272;-0.02174248;0.2484304;0;
452.0486;0;0;332.2272;-4.412832;-2.477473;449.3806;445.2147;0.1082141;0.3781155;0;
172.797;0;0;234.13;-7.959348;-1.202307;170.1942;168.6561;-0.02182937;0.3127682;0;
220.8491;0;0;281.2459;-15.31874;-2.004894;215.2505;216.9623;-0.1517421;0.05258456;0;
-181.3582;0;0;-84.35304;-20.05877;-1.132102;-180.6419;-180.431;0.04331238;0.1824664;0;
-671.3671;0;0;-552.0956;-15.35054;-5.886631;-665.779;-664.9436;-0.02169848;0.05234838;0;
-460.4857;0;0;-407.3009;-17.34387;-6.617528;-459.5258;-455.6928;-0.02167668;-0.3375083;0;
-210.6483;0;0;-186.3775;-7.815602;-11.76844;-211.4386;-209.6084;0.3031818;-0.01233245;0;
-243.4826;0;0;-207.1796;-3.453492;-14.56978;-243.5224;-244.88;-0.02195954;0.2475493;0;
207.7854;0;0;152.4104;-12.89449;-12.00991;201.0614;199.5179;-0.3467742;0.05239856;0;
707.7627;0;0;490.6497;-11.67609;-13.87324;697.11;693.444;-0.02158903;0.1173133;0;
456.0527;0;0;333.2355;-12.73608;-7.496167;449.8459;444.7469;-0.08653468;0.4420321;0;
189.9155;0;0;240.6346;-13.1918;-5.010267;185.0893;182.4316;0.04348695;0.2466859;0;
222.0209;0;0;274.3757;-8.08833;-12.9091;217.0747;216.3562;0.2383453;-0.3382681;0;
-188.4959;0;0;-98.52521;-7.611689;-13.29802;-186.1284;-187.8457;-0.2816329;-0.01309146;0;
-663.0679;0;0;-551.4485;-4.054067;-11.81104;-656.33;-657.2958;-0.2163826;0.3117584;0;
-461.1278;0;0;-411.0272;-3.379432;-12.33503;-459.4566;-457.8603;0.1086715;0.3764125;0;
-217.2243;0;0;-196.9716;-0.9651389;-10.84901;-217.6787;-218.0206;-0.02137236;0.6359037;0;
-242.3058;0;0;-212.5158;1.045563;-11.50794;-241.8227;-244.663;-0.08631822;0.310428;0;
202.4642;0;0;144.2061;-7.060789;-8.214336;194.6385;193.4252;-0.4760355;-0.079688;0;
709.2559;0;0;488.2632;-7.120067;-7.134356;695.3786;693.3545;-0.4105899;0.2452288;0;
460.9177;0;0;334.5371;-14.615;-11.21302;453.1138;449.1552;-0.02037327;-0.1448217;0;
174.3484;0;0;231.565;-18.7535;-10.79986;169.5508;168.7196;0.1095819;-0.2096435;0;
214.0906;0;0;274.3732;-4.132623;-14.40596;208.1735;209.7169;-0.0204629;0.2453386;0;
-182.6127;0;0;-87.5332;-2.118738;-14.59244;-182.3395;-182.4218;-0.345279;-0.07974468;0;
-670.6838;0;0;-553.2111;-2.719822;-13.90795;-666.8502;-665.9329;-0.2799648;-0.01469722;0;
-463.2388;0;0;-413.4752;-1.109498;-14.1619;-463.9693;-461.2413;-0.4745855;0.05028491;0;
-206.5271;0;0;-186.4237;-2.046389;-4.033494;-207.7566;-207.9049;-0.4091413;0.1152017;0;
-238.1786;0;0;-202.1658;-2.044332;-0.6134337;-237.9076;-239.7424;0.1759759;0.6348247;0;
198.7787;0;0;148.6735;-4.586897;3.071122;191.3033;191.4693;-0.214005;0.5042521;0;
698.8275;0;0;487.8536;-5.118152;8.359566;685.3002;685.591;-0.5386267;0.1789088;0;
459.8701;0;0;340;-13.8879;-1.428098;451.1664;449.6454;-0.0183467;-0.1461077;0;
191.1678;0;0;249.4537;-17.89243;-3.703961;184.6593;183.9519;0.04663908;-0.2109283;0;
223.7093;0;0;286.1219;-14.19075;11.63849;216.2703;217.625;0.04659222;0.1141204;0;
-177.3765;0;0;-81.23103;-16.52102;15.0428;-177.8115;-177.2703;-0.01842194;0.1140057;0;
-661.0176;0;0;-543.9168;-13.22189;7.056838;-655.8925;-655.0394;0.1115313;-0.1459782;0;
-466.8257;0;0;-415.4346;-13.5434;8.72432;-466.2034;-463.6646;0.3712885;-0.3407336;0;
-218.0439;0;0;-194.5655;-15.27208;0.2759484;-219.9211;-219.1964;0.2409808;-0.4053585;0;
-245.0611;0;0;-204.3025;-15.39045;-4.078097;-246.6865;-247.6492;0.04583663;-0.3399839;0;
199.7117;0;0;146.9139;-21.53693;12.93918;189.7171;190.1922;-0.4739482;-0.2746749;0;
709.7545;0;0;488.9693;-23.05651;14.60075;694.7725;694.4975;-0.4734719;-0.2743989;0;
458.7921;0;0;334.7427;-26.24755;13.98323;449.9471;447.5485;0.04674255;-0.4040579;0;
171.7252;0;0;225.9609;-27.36025;16.6485;163.5762;162.8666;-0.2131738;-0.4686192;0;
221.6525;0;0;275.3964;-26.93061;6.517591;210.4507;211.9282;-0.2129596;0.05159039;0;
-166.1254;0;0;-75.14179;-26.56876;5.439315;-169.3824;-168.9684;0.3719605;0.701212;0;
-664.3954;0;0;-548.5158;-21.04971;3.022465;-661.1524;-660.0516;0.3066194;0.1807687;0;
-466.2021;0;0;-414.032;-18.68403;0.6751469;-468.4596;-465.2985;0.04644192;-0.3391517;0;
-207.551;0;0;-183.9189;-11.16317;6.166947;-211.8052;-211.146;-0.08353943;0.1159605;0;
-241.7002;0;0;-205.0984;-6.798674;6.227733;-243.6387;-245.5414;0.0464792;0.310746;0;
199.5085;0;0;145.9938;-5.116904;11.17809;190.1381;189.8616;0.1113998;0.180499;0;
701.0558;0;0;489.8617;-1.160623;13.64511;686.5724;685.4841;0.04632056;-0.0795517;0;
452.2886;0;0;335.6343;-6.651814;11.75599;443.8792;440.2307;0.1112414;-0.2743738;0;
188.2791;0;0;241.7815;-7.113644;12.54786;181.1276;180.2314;0.1111296;0.115706;0;
226.1333;0;0;282.0182;-5.096765;14.07585;217.3648;219.4055;0.3059199;0.5053937;0;
-176.2667;0;0;-81.83238;-7.235097;15.60232;-177.3428;-176.8035;0.4355472;0.05011454;0;
-655.8484;0;0;-537.9583;-1.669098;8.419589;-651.926;-650.2627;0.04530555;-0.2098052;0;
-463.5358;0;0;-406.4211;-1.667421;6.267797;-464.4898;-459.9547;-0.5394461;-0.01469236;0;
-211.8213;0;0;-188.4971;-6.220097;11.01717;-214.0238;-211.6171;-0.2140673;-0.0146776;0;
-237.2831;0;0;-203.4251;-6.74971;10.2023;-238.0466;-237.8287;0.4358212;0.05030451;0;
193.5514;0;0;145.1667;-14.98195;14.74677;186.8542;187.3217;0.04557924;0.245156;0;
701.7264;0;0;488.7855;-17.77994;16.94226;691.7875;690.0057;-0.1493686;-0.01495973;0;
460.2673;0;0;336.5582;-17.561;10.49512;455.6483;451.6194;0.1756182;0.05002266;0;
169.8256;0;0;225.838;-19.41839;10.21665;165.5235;163.935;-0.01946027;0.2448744;0;
218.3804;0;0;272.2126;-13.90652;11.21112;210.5845;211.996;0.04552662;0.1146937;0;
-157.2128;0;0;-69.57674;-12.55338;10.53003;-159.3788;-158.4684;0.4352849;0.4394152;0;
-656.054;0;0;-539.7079;-9.124511;15.67701;-652.3458;-650.8741;0.3049129;0.6338757;0;
-465.1154;0;0;-410.3554;-5.096855;17.67063;-465.4089;-462.3145;-0.4100343;-0.2113367;0;
-198.2195;0;0;-173.4994;-10.1146;12.22738;-200.5117;-200.0441;-0.2147202;-0.2111244;0;
-236.8133;0;0;-198.3125;-9.367502;11.34443;-239.1657;-240.5726;0.3702016;0.2438592;0;
192.0217;0;0;139.2171;-2.19177;16.35663;180.5513;180.9574;0.0449929;-0.01625524;0;
709.6934;0;0;487.7145;-0.1124864;16.54115;692.2376;690.4568;0.109915;0.1136958;0;
467.0394;0;0;336.3003;2.164802;17.93104;454.6611;449.3214;-0.08509743;0.2435162;0;
182.8378;0;0;232.452;4.640873;19.45363;172.7207;170.135;-0.7346854;-0.2114999;0;
225.1952;0;0;277.3207;2.693827;12.73592;215.2132;215.5037;-0.1492411;-0.341222;0;
-166.0845;0;0;-77.77959;3.092286;12.05329;-169.2474;-171.2685;0.1107783;-0.2759118;0;
-659.9194;0;0;-545.9036;5.367331;12.71101;-657.5818;-660.2256;-0.6039738;-0.08073257;0;
-478.0349;0;0;-424.5408;5.294589;12.02841;-479.8225;-479.965;-0.4084649;0.1792179;0;
-220.4338;0;0;-198.9774;7.834864;16.30323;-224.9058;-226.7972;-0.01825042;-0.08083153;0;
-239.1403;0;0;-209.4596;8.965092;17.09052;-242.3584;-247.3714;-0.08319943;0.04918439;0;
190.5092;0;0;139.1383;5.473459;19.35077;179.7355;174.9151;-0.01814848;0.1790697;0;
699.1245;0;0;488.1979;6.003822;19.93417;682.0524;676.1123;0.3716738;0.1788897;0;
465.0393;0;0;338.22;2.314095;22.39239;453.1068;446.1732;0.501235;0.5035467;0;
179.9027;0;0;233.1828;0.8379009;23.77653;170.0435;166.2403;-0.01900735;0.1132367;0;
225.6988;0;0;285.6095;10.28153;14.84415;214.975;213.2995;-0.2788576;-0.2766812;0;
-158.8973;0;0;-62.93989;13.28531;12.55182;-162.239;-164.475;-0.01870806;-0.0165338;0;
-664.7958;0;0;-542.9478;11.66437;10.99872;-662.6368;-663.8711;0.1112454;0.04845017;0;
-480.0328;0;0;-424.0243;14.26462;8.174383;-481.999;-481.9826;-0.1487357;0.04840149;0;
-215.0584;0;0;-193.0891;13.31228;10.7785;-217.7723;-219.7549;-0.2135536;-0.0166145;0;
-248.1381;0;0;-215.6961;12.69667;10.43276;-248.9752;-252.6425;-0.01843701;-0.1465325;0;
180.5209;0;0;129.0349;25.14249;10.08736;173.3129;170.2115;-0.2133205;-0.3412873;0;
699.5785;0;0;486.9753;29.13572;11.01499;687.9424;683.22;-0.2780735;-0.275977;0;
466.1176;0;0;340.6218;19.72932;10.80297;459.1783;452.3992;-0.2777941;0.244039;0;
183.9783;0;0;239.1429;19.44107;12.06467;178.9826;173.7094;-0.0176456;0.1788265;0;
224.7728;0;0;283.6301;17.94865;15.93756;219.1575;215.6387;0.5021108;-0.2111573;0;
-165.1946;0;0;-73.41305;15.98823;19.5385;-163.9328;-167.0732;0.3067043;-0.01604307;0;
-663.0908;0;0;-545.3521;19.38744;16.16984;-656.2705;-657.2213;0.2414288;0.3737771;0;
-483.8268;0;0;-429.0497;19.16786;16.62235;-481.0114;-480.337;0.1762189;0.1135322;0;
-221.9095;0;0;-199.9836;18.54539;26.11711;-221.0959;-223.6082;-0.08382756;-0.0165166;0;
-245.2372;0;0;-209.965;18.5941;27.56437;-243.9247;-248.9332;0.04619135;0.2433694;0;
184.7307;0;0;134.8853;16.56569;34.10087;177.4837;174.4792;-0.2137244;0.1131902;0;
703.5967;0;0;488.1971;14.60666;37.68356;690.36;686.7339;-0.01860766;0.04810908;0;
463.0728;0;0;337.8443;19.07996;25.58914;456.1587;450.4747;0.6310844;0.3728974;0;
175.0645;0;0;229.8715;18.79237;23.08506;170.906;167.9139;0.5005156;0.4374901;0;
227.2997;0;0;282.9887;14.21914;22.65996;221.1464;220.7186;0.3051107;0.4370505;0;
-155.9236;0;0;-64.30873;13.80271;20.02498;-156.0738;-156.5012;0.1748694;0.2417093;0;
-661.7001;0;0;-542.941;5.549817;17.66046;-656.228;-656.0303;-0.2800776;0.04656444;0;
-484.4366;0;0;-428.4527;3.468136;15.23145;-483.5926;-482.458;-0.2148289;0.111485;0;
-217.0215;0;0;-192.3282;2.861439;16.82361;-218.1773;-218.6681;-0.019711;0.04640563;0;
-247.6004;0;0;-208.1894;1.050878;16.27085;-246.8186;-249.995;-0.08465853;-0.2784777;0;
172.3749;0;0;127.6012;8.417213;17.52717;166.9091;163.7358;-0.2145081;-0.2132306;0;
700.3112;0;0;486.1676;8.542478;18.38034;689.8535;685.9337;-0.2142926;0.1118204;0;
466.7871;0;0;339.6275;15.56747;16.41936;460.8375;455.2976;0.1757268;0.1766754;0;
172.2159;0;0;230.5909;17.22579;16.33588;168.2088;164.6735;0.3054849;0.1115305;0;
224.3291;0;0;285.4565;14.73023;17.3912;219.3265;217.9811;-0.08462613;0.3063205;0;
-155.5805;0;0;-62.90534;16.12195;17.30674;-154.4561;-156.05;-0.2794431;0.5009147;0;
-657.5468;0;0;-538.9778;0.9688301;14.8111;-650.1766;-650.8944;0.2405764;0.1755747;0;
-481.037;0;0;-425.9303;-1.77881;12.71975;-476.6727;-475.953;0.3702694;-0.1494384;0;
-220.7467;0;0;-201.3025;-7.537798;15.78818;-219.1355;-221.4149;0.3698973;-0.08432095;0;
-244.138;0;0;-214.3436;-11.34764;15.37042;-243.7153;-248.6162;0.3695256;0.1106658;0;
175.0842;0;0;129.7614;-1.690697;8.924739;167.7604;164.1763;0.04431761;0.2404893;0;
693.8974;0;0;486.7016;-1.957418;6.638351;681.2711;676.6286;0.1742078;-0.2145237;0;
474.3102;0;0;346.2204;16.12921;3.617571;466.6941;460.1822;0.3689348;-0.3442429;0;
183.8544;0;0;240.1756;23.54872;0.7336701;179.2444;174.8005;-0.08620735;-0.01906027;0;
225.4611;0;0;286.4734;17.36214;1.335779;219.419;216.3539;-0.2160554;-0.01904112;0;
-151.6385;0;0;-61.51466;21.69895;-0.005099595;-152.3647;-156.5511;0.3039004;0.04594537;0;
-654.983;0;0;-536.8389;13.10333;-2.952343;-650.9609;-653.4565;0.1736604;-0.08403549;0;
-482.2864;0;0;-425.1054;11.54992;-4.958743;-483.7031;-483.0103;-0.4761875;-0.2138857;0;
-214.0614;0;0;-189.359;12.74377;0.3377693;-218.2877;-219.9069;-0.6056437;-0.2786382;0;
-239.2085;0;0;-199.7884;9.850573;2.815676;-241.8689;-246.6099;-0.02032912;-0.08345617;0;
175.511;0;0;132.4954;16.33741;-6.430553;166.1692;163.5568;-0.3451454;0.3064317;0;
701.7575;0;0;485.4973;15.78611;-6.558058;687.0528;684.3806;-0.8645374;0.1112218;0;
474.104;0;0;343.0183;17.84635;-5.613707;465.3485;459.868;-0.4738646;-0.01882463;0;
171.0297;0;0;231.7294;19.7708;-7.28264;164.8443;161.9929;-0.01861706;0.111129;0;
225.5803;0;0;288.7803;10.10539;7.929437;216.9024;217.3647;0.3062384;-0.08388472;0;
-142.274;0;0;-44.34257;9.224582;12.47619;-144.6964;-145.2341;0.175996;-0.2787025;0;
-657.3096;0;0;-527.3677;5.397895;5.966429;-653.0455;-653.0203;-0.1490176;-0.01855305;0;
-485.2978;0;0;-421.6407;2.444735;7.233109;-484.7235;-482.3246;-0.01893317;0.1114003;0;
-208.2617;0;0;-181.7124;12.15419;6.087132;-210.0618;-209.5394;0.0460532;0.1762557;0;
-237.5376;0;0;-200.2704;13.61585;5.7461;-238.4613;-240.7505;0.3708436;0.3060133;0;
172.8074;0;0;129.3278;13.0663;3.396046;165.2629;163.3509;0.175569;0.3706731;0;
699.1192;0;0;487.4552;14.19225;1.517112;686.2724;683.6751;-0.2144115;0.04546398;0;
478.0899;0;0;343.9124;14.04427;2.989212;470.3785;465.5974;0.1106407;-0.2144511;0;
186.381;0;0;236.1208;13.69439;1.579567;181.3634;177.5241;0.1754968;-0.1492683;0;
232.9827;0;0;289.4816;14.55226;5.46299;226.221;225.0093;-0.1495162;-0.08415094;0;
-144.8741;0;0;-56.01076;14.9388;7.533849;-144.8823;-146.2803;-0.08439863;0.04586831;0;
-654.3474;0;0;-537.0876;5.279227;-1.516173;-648.4836;-649.4428;0.2405229;0.3056916;0;
-489.5224;0;0;-432.1005;2.326185;-2.787325;-488.7244;-486.8716;0.6300852;0.04551507;0;
-225.6629;0;0;-200.9073;2.190126;2.373039;-226.2401;-226.3881;0.4995174;-0.4742694;0;
-247.2377;0;0;-209.7009;-1.027255;2.772553;-245.6279;-249.6488;-0.2805926;-0.4737929;0;
171.3629;0;0;129.6519;7.681314;7.257501;165.2875;163.0822;-0.345278;0.3712586;0;
696.3643;0;0;487.3417;10.01812;10.19746;684.7352;683.2193;0.4346771;0.4358529;0;
474.0259;0;0;344.9858;-0.5754929;6.905048;468.1558;464.4549;0.369273;-0.1492911;0;
172.3885;0;0;228.4476;-3.589025;7.701905;168.5857;166.6377;-0.4756735;0.1107283;0;
224.3766;0;0;285.6267;5.122119;12.65078;219.3282;219.4436;-0.5401629;-0.2142197;0;
-130.9829;0;0;-38.62246;4.648458;14.24566;-129.6544;-130.9758;0.3699226;-0.4089065;0;
-647.654;0;0;-524.4644;4.241645;13.09264;-641.0795;-641.8374;0.4994856;0.2411779;0;
-492.7682;0;0;-428.1731;6.9167;12.87853;-490.5107;-489.3938;-0.5404937;0.3708702;0;
-213.4758;0;0;-183.9904;-14.12265;13.87033;-213.2194;-213.7278;-0.4749833;0.1755955;0;
-237.8739;0;0;-199.6725;-19.86826;12.44976;-235.3065;-238.2506;0.0452327;0.1754191;0;
165.7249;0;0;122.5537;-7.18864;11.23155;160.6061;158.4145;-0.2146821;0.3051775;0;
694.355;0;0;483.8115;-7.71728;8.875988;681.7452;679.181;-0.2794338;0.6297076;0;
479.515;0;0;347.6435;-0.07371548;5.250113;473.0397;468.4166;-0.2141856;0.4991401;0;
179.7461;0;0;233.6638;4.012196;3.101384;176.838;174.6559;0.1758336;-0.02110013;0;
219.358;0;0;281.5923;-0.4124655;-6.547031;214.5788;214.8351;0.4355263;-0.410883;0;
-145.679;0;0;-50.58628;0.5249779;-10.82724;-142.7698;-144.4503;0.2401867;-0.3455028;0;
-642.158;0;0;-518.1754;3.673258;-10.74938;-633.6295;-634.9335;0.2399453;0.2395505;0;
-481.6556;0;0;-418.2672;4.271804;-13.35091;-478.8204;-477.8742;-0.1500998;0.3042771;0;
-218.9909;0;0;-190.2738;3.195785;-9.854382;-217.9701;-218.5241;-0.344851;-0.2157674;0;
-237.9487;0;0;-196.8292;3.996856;-9.442704;-235.4297;-237.9197;0.1102669;-0.08561589;0;
172.709;0;0;135.5766;2.652694;-8.629421;167.292;166.4912;-0.01977859;0.1093722;0;
692.0244;0;0;487.326;6.468421;-7.147126;680.3035;678.7538;-0.3445954;-0.2155744;0;
473.4386;0;0;347.9061;-4.187998;-7.943739;467.2267;463.2423;-0.4092165;-0.3452925;0;
174.9252;0;0;233.8637;-4.518583;-6.997996;172.3427;170.2989;-0.53874;-0.4748802;0;
225.349;0;0;289.3507;8.948917;-8.531572;221.7071;221.9142;-0.213362;-0.3444684;0;
-130.3863;0;0;-33.59035;7.533405;-9.125846;-127.0904;-128.008;0.1116891;-0.2141876;0;
-646.121;0;0;-520.2495;48.31686;-6.772274;-636.5191;-637.2483;-0.1482925;-0.3439071;0;
-491.674;0;0;-427.4606;64.41156;-6.631503;-486.6421;-484.9967;-0.08317614;-0.2136268;0;
-215.0688;0;0;-184.0282;26.77002;-6.490874;-212.5406;-212.771;0.1767768;-0.08347748;0;
-247.5238;0;0;-200.335;24.80074;-5.07771;-244.186;-246.8524;0.1765992;-0.148361;0;
158.0212;0;0;123.641;20.48891;-12.17268;155.0463;153.382;0.04648705;-0.01827719;0;
699.0904;0;0;485.0226;10.48799;-14.43787;691.4958;688.3339;-0.018527;-0.2131608;0;
482.7463;0;0;349.2907;17.91219;-4.041248;480.0319;474.6244;0.436263;-0.3428814;0;
175.7278;0;0;236.6837;9.656148;-1.893733;174.1406;170.8;0.8256287;-0.01770011;0;
221.5906;0;0;288.1074;13.06172;-3.432438;217.3188;216.6052;0.3050604;0.2421871;0;
-140.3877;0;0;-40.95436;12.64743;-1.084586;-138.7832;-139.496;0.04488448;0.1769764;0;
-652.4891;0;0;-524.0453;-14.42589;-3.494882;-645.1392;-645.9138;-0.1500627;-0.08307084;0;
-501.9713;0;0;-436.3751;-17.02434;-3.357404;-498.6267;-498.0887;-0.4747486;-0.2778894;0;
-231.4152;0;0;-198.8683;-41.12012;2.004482;-230.1354;-230.8473;-0.1494348;-0.08270815;0;
-244.3011;0;0;-199.7304;-54.40804;3.409109;-241.5858;-244.5459;0.175552;-0.1475924;0;
162.8649;0;0;132.0536;-8.002642;3.338701;160.6424;158.4974;-0.08449373;-0.4073134;0;
685.8132;0;0;486.3677;-0.5588853;3.402329;679.595;676.9525;0.1104932;-0.2120022;0;
480.2896;0;0;352.7585;0.7808469;6.948884;478.0132;473.3118;0.6301208;-0.01688711;0;
182.4565;0;0;240.8351;11.63105;8.817424;181.6191;179.3587;0.1747164;0.5028686;0;
227.4379;0;0;290.568;-2.982669;0.7707338;225.2271;225.5927;-0.1502959;0.6972653;0;
-129.986;0;0;-35.74763;-1.573152;-0.6365601;-125.3856;-126.7695;0.3046265;-0.01807604;0;
-654.5917;0;0;-528.2766;3.117478;0.7036161;-644.1863;-645.5063;0.04445105;-0.08302522;0;
-507.9448;0;0;-445.2248;3.650209;-0.6366276;-502.1725;-501.4923;-0.1504956;0.1769276;0;
-227.7625;0;0;-199.963;3.512819;3.382866;-223.8701;-225.127;0.1744923;0.04681512;0;
-256.4566;0;0;-210.1943;2.906077;3.781364;-251.0064;-254.3235;0.2392843;-0.1481339;0;
146.5986;0;0;114.0415;9.869382;4.313428;145.1718;142.92;-0.3456622;-0.01805043;0;
695.3629;0;0;483.1788;12.13664;5.313838;688.8151;686.5655;-0.6051843;0.3068044;0;
488.3929;0;0;354.3828;10.7843;2.093318;487.5988;483.5399;-0.08483743;0.2415288;0;
176.0589;0;0;237.4603;11.30933;1.823283;177.5145;175.3961;-0.1497195;-0.01858326;0;
228.9803;0;0;295.1301;16.3218;-0.3218808;228.8727;229.63;-0.2795038;0.04640277;0;
-126.1339;0;0;-26.37997;18.38249;-2.130096;-119.4323;-120.2374;0.1755485;-0.01861121;0;
-656.1782;0;0;-520.4801;10.25871;0.5512391;-643.299;-643.4786;0.3702741;-0.08355985;0;
-512.0285;0;0;-437.7484;7.435367;-0.3199709;-503.6599;-501.2781;0.2399674;0.04645881;0;
-239.4008;0;0;-202.9264;14.19305;-0.9224958;-233.7268;-233.4088;0.1097916;0.1113795;0;
-268.2081;0;0;-220.8384;14.9821;-1.725364;-259.9786;-262.0348;0.2396159;0.2412022;0;
142.2927;0;0;111.2167;4.786612;-3.867084;143.9547;143.1499;-0.08546155;0.1759925;0;
691.4986;0;0;483.4803;2.035136;-4.733855;686.1625;684.7963;-0.6051144;0.1758157;0;
487.4684;0;0;352.685;3.439611;-8.614108;485.9483;482.4595;-0.2796697;0.2406064;0;
180.82;0;0;239.5123;0.6231155;-9.944989;181.6752;180.2514;0.1104154;0.1753973;0;
229.0515;0;0;294.244;9.664819;-12.54733;228.594;229.1706;0.04533709;-0.214583;0;
-127.4995;0;0;-30.51354;13.20508;-14.67818;-122.5218;-123.6949;-0.0196758;-0.6691388;0;
-651.4205;0;0;-520.3616;-4.29061;-9.90764;-640.5757;-641.0605;0.3051807;-0.3436297;0;
-508.2751;0;0;-436.5681;-9.108094;-9.696736;-500.9395;-499.0499;-0.1498974;0.0465196;0;
-233.5272;0;0;-195.6254;6.641192;-8.146507;-228.5728;-228.3717;-0.7994202;-0.0184945;0;
-264.0271;0;0;-212.5452;8.845323;-6.664697;-257.7033;-260.2511;-0.4088129;-0.2133779;0;
135.2876;0;0;107.3202;-1.41232;-9.940042;134.3587;131.3761;-0.08356537;-0.2131635;0;
688.0612;0;0;481.5242;-2.214208;-9.528278;681.0113;676.7824;0.176388;0.241822;0;
488.3449;0;0;355.3535;-3.753201;-11.52807;485.8623;480.4507;0.3711128;0.3065464;0;
170.8261;0;0;232.1832;-6.227676;-12.05235;168.8457;165.8758;0.3057725;0.1113364;0;
217.1311;0;0;284.7984;0.6110845;-10.49963;213.1537;212.0609;0.1105632;0.2411592;0;
-129.1007;0;0;-32.82829;1.413778;-11.09193;-126.0776;-127.794;0.04548481;0.3058842;0;
-650.5213;0;0;-521.1124;-2.606131;-4.583562;-641.9416;-642.7192;0.04543911;0.2406095;0;
-509.2508;0;0;-437.1931;-2.670861;-1.966744;-504.6152;-503.8304;-0.08454123;0.1754004;0;
-225.3816;0;0;-188.5036;-6.418245;-6.720434;-223.1869;-224.7766;0.0454784;-0.01967788;0;
-243.3959;0;0;-196.685;-8.488877;-6.579715;-239.6418;-244.041;0.1753674;0.1752439;0;
146.965;0;0;119.6662;-3.724926;-6.573104;144.656;141.1982;-0.3445475;0.3699699;0;
679.3622;0;0;482.9258;-2.381036;-8.174089;670.4338;666.4797;-0.4091687;0.1746961;0;
480.1544;0;0;353.3179;-8.675283;-2.941329;475.4203;469.8461;-0.01895351;0.1095532;0;
173.076;0;0;235.2096;-9.268803;-2.067596;171.2827;168.2753;-0.08390181;0.0444758;0;
220.878;0;0;291.7572;-5.977936;-7.758945;215.9631;216.2695;-0.2137522;-0.08550359;0;
-124.7953;0;0;-24.5021;-6.173;-7.617184;-124.4579;-124.714;-0.1485701;-0.3452871;0;
-646.4077;0;0;-515.6056;0.1971915;-13.10201;-639.0117;-638.8302;0.1764159;-0.2799728;0;
-507.5151;0;0;-438.3761;2.474169;-14.83028;-503.7497;-502.3191;0.3061734;-0.2147241;0;
-220.9615;0;0;-189.3106;-1.747876;-9.055088;-220.1983;-222.08;-0.213873;-0.2145083;0;
-241.1667;0;0;-198.0534;-2.349332;-8.443143;-239.5298;-243.9082;-0.08372345;-0.1493255;0;
140.5714;0;0;112.1773;-0.4719372;-1.602522;136.0223;133.3348;0.1112627;-0.2141428;0;
678.9095;0;0;480.0046;-0.6051849;2.350959;668.4929;665.4333;-0.2786531;-0.01902556;0;
483.7625;0;0;352.6486;-5.092555;0.406214;477.7292;472.4863;-0.1484385;0.1109283;0;
159.8765;0;0;221.7973;-5.890745;2.683104;156.4105;153.6091;0.1115801;-0.1490526;0;
208.6288;0;0;279.9826;-11.44453;3.484203;203.4171;203.4921;-0.1484014;0.04599922;0;
-120.7279;0;0;-23.52128;-14.51449;3.882599;-119.5625;-121.3616;-0.278187;0.3058224;0;
-648.966;0;0;-518.4988;-7.198889;7.629621;-641.6799;-643.2898;-0.1479728;0.1755804;0;
-512.4447;0;0;-441.0165;-6.990585;8.425749;-510.3508;-508.5858;-0.08285677;-0.2144001;0;
-221.201;0;0;-185.4516;-3.634658;5.805071;-221.7328;-221.5938;0.1770959;-0.3441193;0;
-247.8402;0;0;-199.8829;-0.4158253;4.995442;-246.8723;-249.7319;0.2418852;0.04603049;0;
138.2149;0;0;110.9118;-6.979491;3.985679;132.2478;130.5156;-0.2780965;-0.01898312;0;
680.366;0;0;482.4885;-6.101822;2.909947;668.7202;666.3026;-0.4077518;-0.08393139;0;
486.8417;0;0;356.8166;-5.759922;1.701331;479.7679;474.8539;-0.08250536;0.1760223;0;
174.5093;0;0;234.7068;-5.888832;1.297724;169.629;166.5315;-0.3422918;-0.01905658;0;
210.1285;0;0;281.5098;-1.863451;-0.5119976;204.5659;204.0328;-0.5368499;-0.3438741;0;
-135.9088;0;0;-37.92513;-3.068003;-0.645449;-134.8441;-135.6891;-0.4063758;-0.0186919;0;
-648.2022;0;0;-519.4575;9.996873;0.02502886;-642.1411;-642.2355;-0.1460981;0.04629423;0;
-510.12;0;0;-442.0367;15.14439;-0.1759451;-508.6876;-507.3452;0.1788854;-0.3435563;0;
-227.6866;0;0;-198.3398;-3.826141;6.522281;-228.5046;-228.8502;0.1137383;-0.4081785;0;
-244.1369;0;0;-202.4508;-6.971104;8.793147;-243.3924;-245.8615;-0.1462453;-0.2128663;0;
138.916;0;0;112.5319;-4.685948;7.243704;132.9756;130.2591;-0.01616371;0.1121843;0;
675.694;0;0;481.8581;-7.561628;8.174187;662.4508;658.7375;-0.08111481;0.1120716;0;
484.6107;0;0;354.0629;-6.482303;7.429161;475.4413;470.2325;-0.3409027;-0.2128778;0;
168.345;0;0;225.7715;-7.547516;7.488679;163.1828;159.6034;-0.2755928;-0.3425986;0;
218.8379;0;0;288.2006;-5.597549;3.529284;212.5565;211.6668;-0.0154465;-0.2772869;0;
-120.524;0;0;-23.30752;-3.181027;1.449266;-121.8016;-122.1282;0.04953636;-0.212041;0;
-659.0696;0;0;-532.2783;-8.335395;4.529025;-654.9737;-654.4879;0.1144539;-0.1468606;0;
-524.9744;0;0;-460.2169;-7.187943;4.256542;-524.8182;-522.7086;-0.08056311;-0.146713;0;
-228.2209;0;0;-199.073;-2.62637;2.443726;-230.3761;-229.7054;-0.1454495;-0.08159827;0;
-261.1624;0;0;-214.615;-1.217211;2.709203;-260.3169;-262.9578;-0.01536866;-0.01654894;0;
117.8472;0;0;89.63529;7.759969;-0.8434931;113.0071;110.119;-0.08032056;0.1783697;0;
685.8182;0;0;476.0385;10.43149;-2.852134;673.6742;669.6021;-0.3401092;0.3081252;0;
501.7213;0;0;361.6174;15.51122;4.92063;494.0872;487.6454;-0.4697022;0.4377503;0;
174.5688;0;0;235.1924;19.31403;6.054274;169.5661;166.1918;-0.07942615;0.3723431;0;
219.933;0;0;291.6776;9.314288;3.971842;213.4361;212.9387;0.05058834;0.3070016;0;
-125.9267;0;0;-26.08093;8.165853;5.374492;-125.8579;-127.7291;-0.3392665;0.2417258;0;
-654.9092;0;0;-521.6181;5.344609;-0.9271815;-650.1553;-651.2126;-0.07905628;0.1765155;0;
-514.0092;0;0;-442.7584;2.860992;-1.797028;-514.9447;-513.4397;0.1159252;0.1113708;0;
-228.5734;0;0;-196.8119;1.585319;-1.259359;-231.1322;-231.1279;-0.01412599;-0.01867576;0;
-249.1458;0;0;-205.8595;-2.233691;-2.664735;-249.6405;-252.4474;0.3107249;-0.1485917;0;
138.3474;0;0;111.1881;9.556574;4.973875;130.6068;128.4275;-0.07939135;-0.01850769;0;
679.7487;0;0;481.765;11.95885;6.107465;665.9564;663.4669;-0.4691156;0.371315;0;
492.7219;0;0;360.5916;4.712184;8.244781;485.1278;479.8922;0.1160618;0.2410072;0;
174.0117;0;0;235.2296;6.315039;10.71487;169.7361;166.5048;0.05097786;-0.0840717;0;
210.8808;0;0;284.6558;-1.259767;3.202133;203.9858;204.5683;-0.2739101;0.04594747;0;
-123.4132;0;0;-22.53843;-3.067163;2.127189;-125.0539;-125.2216;0.1161692;0.175836;0;
-649.2123;0;0;-516.58;1.691341;3.129795;-644.667;-645.4592;0.3109545;0.2406266;0;
-520.9991;0;0;-447.8452;0.8189858;2.724753;-519.8941;-518.9989;0.11574;0.1754175;0;
-228.9971;0;0;-193.5853;9.726771;1.91822;-230.2046;-230.1848;-0.1442456;0.1102739;0;
-259.3766;0;0;-210.1323;12.53004;1.447412;-259.6458;-261.6876;-0.5988721;0.3050652;0;
119.881;0;0;91.98956;11.84786;5.933692;112.3657;110.2011;-0.338401;0.1748239;0;
689.3492;0;0;475.8916;14.85007;7.267388;674.5952;671.9954;-0.07819158;0.1746483;0;
509.0593;0;0;365.5312;5.189602;10.00639;498.0057;494.659;-0.07811301;0.2394401;0;
177.7766;0;0;238.7274;2.438698;12.47458;169.6701;168.8255;0.2468022;-0.1506045;0;
224.0746;0;0;294.0222;10.20578;10.85445;214.1647;216.007;-0.07828251;-0.08548586;0;
-106.1097;0;0;-9.808216;9.994453;12.18321;-110.5749;-109.7964;-0.1431712;-0.1503673;0;
-641.8588;0;0;-511.5461;9.181105;12.10398;-640.4474;-639.982;-0.01309265;-0.4750529;0;
-520.2746;0;0;-450.1253;10.04253;12.69466;-523.6123;-521.2108;-0.2729489;-0.3446409;0;
-228.7731;0;0;-195.6132;6.482471;14.15553;-235.2933;-234.5809;-0.1427399;-0.0194579;0;
-246.4092;0;0;-203.7874;6.677028;14.20829;-251.6735;-253.8354;0.1822402;0.045529;0;
136.4585;0;0;105.6369;6.736692;19.21762;124.5779;123.1053;0.2470244;0.1754179;0;
684.9832;0;0;481.2169;6.39513;20.73891;667.5547;665.4589;-0.07806048;0.5000784;0;
503.5732;0;0;364.9166;10.60826;18.17272;491.9718;487.4419;-0.1429494;0.1097719;0;
185.5393;0;0;239.113;10.19644;18.0205;176.8856;174.3593;-0.01287107;-0.2801425;0;
220.3353;0;0;282.1635;17.48721;16.99764;209.254;209.7287;0.3119786;0.109943;0;
-116.4044;0;0;-26.15271;20.08161;15.84186;-121.665;-122.1903;0.3766324;0.2397673;0;
-645.0217;0;0;-518.7538;11.82241;15.9599;-644.0926;-644.8672;-0.0785174;0.174559;0;
-515.9382;0;0;-449.5171;12.0116;16.07783;-519.1329;-517.8453;-0.2083732;0.1094163;0;
-215.6329;0;0;-188.0092;3.090921;9.63156;-220.8234;-220.9114;-0.1431965;-0.2155304;0;
-250.1488;0;0;-210.6837;-0.528531;7.478429;-253.0228;-256.1092;-0.0131179;-0.3452485;0;
116.9182;0;0;82.25581;5.633942;11.28882;106.6133;103.9673;-0.01310472;-0.2799343;0;
688.201;0;0;474.476;4.757625;10.27285;671.0974;667.8918;-0.2729609;-0.08475097;0;
512.8473;0;0;364.1169;9.641988;15.75489;501.1332;495.8069;-0.2077193;0.04526888;0;
172.8151;0;0;225.4456;11.37459;17.61458;164.4861;162.0387;-0.46738;-0.0847113;0;
216.6194;0;0;284.002;12.97075;12.64027;206.737;207.6654;-0.3369756;-0.2145609;0;
-106.561;0;0;-11.88476;15.77076;13.02946;-110.6238;-110.5709;0.1831017;-0.08441059;0;
-645.6204;0;0;-517.1813;10.39627;9.399414;-643.932;-643.5668;0.1179504;0.04560892;0;
-521.7211;0;0;-454.318;9.849964;8.385226;-523.845;-522.4807;-0.01210284;0.1754978;0;
-218.9738;0;0;-190.8062;10.84445;9.716459;-222.6573;-224.4803;-0.07705802;0.1753214;0;
-238.6188;0;0;-198.4855;9.360656;9.57273;-240.0497;-244.557;-0.2069153;-0.08472411;0;
125.6255;0;0;102.6876;12.6328;12.84515;117.6368;114.9457;-0.14174;-0.2145737;0;
672.2245;0;0;478.3955;12.55276;14.37285;657.5597;654.4339;0.1832391;-0.01945603;0;
507.6939;0;0;368.095;7.248863;15.83191;497.6665;492.1701;0.183055;0.1104982;0;
187.2821;0;0;247.2857;4.763333;17.22265;181.4501;178.8328;0.2478384;-0.2794169;0;
219.2027;0;0;298.3864;7.370515;19.28181;212.8145;214.0728;0.5074587;-0.4090708;0;
-110.5394;0;0;-9.32137;7.163014;19.7983;-112.2361;-111.4788;0.2470795;-0.08382306;0;
-642.161;0;0;-508.7485;-0.01147881;21.58683;-638.3588;-637.6022;-0.07800551;0.1111632;0;
-520.764;0;0;-449.017;-1.351614;22.36893;-520.9636;-518.5836;-0.1428945;0.3059535;0;
-217.7678;0;0;-186.8224;-3.828502;14.17478;-221.9651;-221.3367;-0.1427509;0.04577675;0;
-240.0376;0;0;-196.8796;-6.101831;10.81139;-243.6061;-246.1017;0.05229457;-0.5389753;0;
120.2101;0;0;91.17358;2.277045;13.94873;109.149;107.4055;-0.07769266;-0.4734664;0;
684.2432;0;0;473.2024;4.083418;12.99695;665.0723;662.7059;-0.337484;-0.148154;0;
518.2013;0;0;366.1555;3.074937;6.218735;503.235;497.4977;-0.2721775;0.1118643;0;
179.0383;0;0;228.4191;4.209947;3.935189;167.3979;162.3536;-0.1419693;0.1767192;0;
225.8973;0;0;287.5972;4.607858;4.26615;211.7074;210.6036;0.1180427;0.1115743;0;
-91.35783;0;0;-3.358135;5.071743;1.984443;-100.2236;-100.5767;0.3128261;-0.1484072;0;
-642.1141;0;0;-514.3479;2.119886;9.685365;-643.6622;-643.3278;0.1825771;-0.3431601;0;
-522.966;0;0;-456.36;0.5765381;12.28784;-528.3231;-525.8651;0.247361;-0.01797858;0;
-212.8462;0;0;-187.9111;1.179171;4.840636;-221.3213;-222.6139;0.4420144;0.2419089;0;
-241.4303;0;0;-203.9017;0.5084011;5.773412;-248.6476;-254.1867;0.1817009;0.1766984;0;
124.3161;0;0;92.71671;-4.649673;1.279876;109.4224;106.4501;0.05158368;-0.08334848;0;
686.3461;0;0;479.1792;-6.855804;-1.333622;664.0961;660.8769;-0.01343549;-0.1482321;0;
517.8658;0;0;367.0664;-4.235971;11.52807;500.0734;494.0463;0.05154535;0.1767536;0;
190.0099;0;0;235.0137;-4.567483;14.12883;175.1715;172.6487;0.1814282;0.176576;0;
223.6145;0;0;285.1273;-4.562894;10.76548;207.6041;209.1443;0.05131125;-0.2134055;0;
-104.5703;0;0;-15.38331;-3.887748;12.5632;-113.0684;-111.5298;0.116227;-0.3431258;0;
-637.1349;0;0;-509.9318;-6.027295;8.330778;-637.4412;-636.4662;0.05114291;-0.01794427;0;
-515.618;0;0;-446.3261;-6.758173;7.25068;-519.4846;-518.948;-0.2087778;0.1120085;0;
-214.5635;0;0;-189.2566;-1.862239;11.59716;-221.9869;-224.1994;-0.2735354;-0.01803878;0;
-240.3349;0;0;-206.6826;-1.056084;12.38931;-247.0012;-251.8976;-0.4681626;0.3068161;0;
124.161;0;0;88.50182;-1.724608;10.03258;109.8178;105.6134;-0.2078228;0.5663772;0;
691.8759;0;0;475.9681;-0.1826341;10.22332;669.551;665.8506;0.1172227;0.04606931;0;
525.5139;0;0;367.7939;-8.153053;11.28478;508.3964;503.3879;-0.2726991;-0.3437811;0;
179.4721;0;0;226.6202;-10.62311;11.47439;167.3067;163.7401;-0.2724251;-0.2784683;0;
219.6465;0;0;281.3648;-0.364655;15.41473;206.3689;205.0547;0.05268534;-0.1482538;0;
-91.98022;0;0;-7.835159;2.783543;16.93985;-99.37236;-101.0601;-0.207237;-0.08313747;0;
-641.2367;0;0;-518.8829;-5.189857;12.36811;-641.6249;-642.8112;-0.1420614;0.3067501;0;
-528.4612;0;0;-463.0143;-5.519434;9.743468;-533.8466;-532.3455;0.05298338;0.3714092;0;
-210.1525;0;0;-182.315;1.519685;17.63742;-219.4054;-219.0303;-0.0120372;0.4360034;0;
-229.8688;0;0;-187.1917;1.718253;17.82065;-235.4893;-239.1125;-0.07699244;0.5005326;0;
119.2493;0;0;96.22899;11.2957;8.55934;109.574;106.0169;-0.3367845;-0.08467639;0;
676.7867;0;0;474.7545;16.03977;6.541251;659.8748;656.1338;-0.2065114;-0.214526;0;
524.5579;0;0;368.8929;3.899863;-3.914415;509.4745;503.9257;-0.07636917;0.1754936;0;
191.3855;0;0;231.716;3.427429;-9.536926;177.9415;175.3342;0.05364224;0.2402846;0;
218.2421;0;0;280.0213;2.418632;-5.374524;203.3123;203.8312;0.4433924;0.1101085;0;
-101.1918;0;0;-14.79952;0.2727475;-7.914353;-109.5473;-109.966;0.3779795;-0.01993682;0;
-635.5714;0;0;-516.0327;4.35831;-4.42341;-636.2349;-636.7157;0.05276303;0.04505057;0;
-518.4913;0;0;-458.6678;2.546246;-2.409477;-523.2771;-522.508;-0.4020614;0.1099726;0;
-208.1886;0;0;-191.9032;10.51429;-8.368415;-217.7796;-218.8229;-0.5965594;-0.0850399;0;
-225.4081;0;0;-199.2066;12.84825;-7.422246;-234.5522;-239.2801;0.1186808;-0.01998711;0;
133.7005;0;0;94.40852;2.988727;-5.13749;118.3187;113.658;0.05359418;-0.08493437;0;
695.4712;0;0;475.5595;2.51721;-3.993618;673.858;670.0766;-0.5311657;-0.4096857;0;
533.9782;0;0;370.072;-3.915681;2.5746;517.884;511.9824;-0.2707627;-0.1494047;0;
192.2382;0;0;240.3277;-6.993206;5.720089;179.7833;175.6992;0.05434611;0.1106148;0;
225.2158;0;0;291.7477;-1.493822;6.518137;211.0243;210.3802;-0.07564318;-0.01943105;0;
-92.8507;0;0;-7.457705;-1.022831;8.18616;-101.3433;-102.1117;-0.01059984;-0.01941153;0;
-640.1073;0;0;-516.6942;-1.089152;12.59869;-641.8447;-641.5504;0.05437816;-0.1493267;0;
-526.6458;0;0;-461.515;-0.2174016;15.46617;-531.8798;-530.024;-0.1405785;-0.2791114;0;
-211.1499;0;0;-189.6877;4.538239;7.211974;-219.627;-221.084;-0.07546991;-0.1488962;0;
-235.4879;0;0;-203.4276;6.074896;5.19524;-242.3948;-247.7233;0.1195079;-0.2786813;0;
118.0086;0;0;84.63211;8.881831;10.61551;105.2991;100.7255;-0.01054682;-0.08349924;0;
685.917;0;0;473.7889;10.4805;9.801175;666.0989;662.342;-0.3353729;0.176454;0;
530.2432;0;0;371.5515;6.38413;10.26009;514.3181;509.378;-0.4000033;-0.0186253;0;
191.1931;0;0;240.5563;5.841851;10.45072;179.157;176.0335;-0.334634;0.1113281;0;
216.863;0;0;287.291;0.00883243;5.885507;204.839;204.4672;-0.2043631;0.1761836;0;
-100.9453;0;0;-12.03486;-3.206357;4.205142;-107.46;-108.7684;0.05571162;0.1110392;0;
-630.4526;0;0;-509.0854;-1.796616;4.267899;-632.5255;-632.8331;0.1855903;0.175895;0;
-517.9379;0;0;-457.662;-3.737194;2.589037;-525.8183;-523.5019;0.2503712;0.04578357;0;
-209.1349;0;0;-194.2718;-3.533344;3.59118;-221.6926;-222.5643;0.3800543;-0.01922979;0;
-222.0432;0;0;-200.7607;-4.333101;3.386623;-233.9635;-238.8949;0.5096071;0.04575689;0;
127.2544;0;0;85.5472;-5.667917;-1.372446;109.1617;104.7975;0.05432364;0.1756456;0;
683.6593;0;0;470.5802;-6.868647;-3.045641;659.1505;654.7907;-0.140633;0.1105018;0;
536.1087;0;0;372.344;-3.445494;-0.9661095;516.622;510.7673;-0.01055697;0.04542339;0;
195.5534;0;0;236.413;-1.298578;-0.9651387;181.2712;177.6088;-0.3353831;-0.2144916;0;
222.9056;0;0;287.8369;-11.54505;-4.112367;208.013;206.8531;-0.01020937;-0.1493088;0;
-82.78985;0;0;1.191665;-13.07467;-5.045996;-92.66994;-95.07813;0.1847029;0.3056127;0;
-633.9296;0;0;-512.8011;-6.563821;-0.9549665;-637.5529;-640.2086;-0.07535204;0.1753709;0;
-533.5303;0;0;-472.4309;-5.150706;0.5864785;-541.8975;-542.3641;-0.1402437;-0.4744788;0;
-207.2204;0;0;-194.9705;-2.599935;-1.49046;-218.6402;-220.4182;0.05479927;-0.3440673;0;
-229.251;0;0;-205.769;-0.6549394;-0.2833914;-236.7863;-241.8109;0.1197115;0.1110498;0;
114.9314;0;0;73.23508;6.043524;0.3867227;101.7815;97.13688;-0.2052455;-0.0839638;0;
692.5256;0;0;470.3993;9.721147;1.592027;672.7047;667.5025;-0.3349739;0.2409573;0;
541.7177;0;0;369.7895;6.830991;5.81023;526.7269;518.5314;-0.3346373;0.5655519;0;
187.0389;0;0;218.1815;7.025198;8.215777;173.6873;166.9993;-0.2043664;0.2401469;0;
221.6459;0;0;273.9341;10.30067;10.81973;206.2463;202.1262;0.4455124;0.3698403;0;
-80.30012;0;0;-2.827185;10.55776;13.48818;-88.75026;-93.30347;0.1851954;-0.2152374;0;
-630.5053;0;0;-513.1928;7.131878;13.80954;-632.2004;-636.3742;-0.009892751;-0.2799885;0;
-528.1729;0;0;-470.0111;6.923641;14.59946;-532.8023;-534.9729;0.1200519;0.3699663;0;
-204.8669;0;0;-192.678;-0.6527533;19.00554;-212.6151;-215.0959;-0.07497078;0.04475782;0;
-221.6526;0;0;-198.9187;-4.001;19.92421;-228.2685;-232.9332;0.05503923;-0.02025451;0;
123.0845;0;0;83.13955;2.700825;17.76073;111.0405;106.0056;0.1849186;0.3046026;0;
688.8639;0;0;473.4847;2.363319;17.00607;670.835;664.3059;-0.01016922;-0.2154422;0;
530.9382;0;0;367.8743;3.031506;14.10884;517.675;509.8407;-0.205061;-0.08529109;0;
183.2667;0;0;227.8249;2.893762;12.42009;173.8274;169.062;-0.204855;0.369566;0;
213.6922;0;0;281.8187;3.962581;6.915135;202.4508;200.9385;0.1201876;-0.1505441;0;
-96.67912;0;0;-9.942923;4.093297;3.090281;-102.3495;-104.2351;0.4449035;-0.08542546;0;
-630.1263;0;0;-508.9946;0.4045129;9.048535;-628.4197;-631.4903;0.6393585;0.4343991;0;
-521.6724;0;0;-457.7586;0.06931382;10.11105;-523.8405;-526.0334;0.3138793;0.4339626;0;
-208.6178;0;0;-185.123;-9.106808;0.2546416;-214.4069;-217.7221;-0.07624008;0.1086899;0;
-234.4575;0;0;-196.2438;-13.11712;-2.089895;-238.7416;-245.2394;0.1837059;-0.2812234;0;
106.6692;0;0;74.81725;-6.60623;5.079135;95.58031;89.83871;-0.1413154;-0.1510061;0;
690.2061;0;0;467.7945;-6.733314;5.207997;672.007;667.0833;-0.2711081;0.1739823;0;
546.7719;0;0;375.6205;-7.530832;6.877337;533.3386;526.4208;0.3138704;0.04387282;0;
187.4653;0;0;232.5648;-6.652608;7.808188;178.1685;174.1312;0.313555;0.1087961;0;
215.1379;0;0;286.2416;-4.368748;4.585162;206.1628;206.6273;-0.1415314;0.04371941;0;
-82.74112;0;0;9.405457;-1.952485;4.178779;-84.89817;-85.49609;-0.2063566;-0.1512266;0;
-633.5061;0;0;-506.0324;-5.969987;0.2895699;-629.4766;-632.5726;-0.2711166;-0.2160419;0;
-538.2921;0;0;-474.3521;-6.968367;-1.854053;-539.5765;-542.0447;-0.5307135;-0.2807922;0;
-205.0434;0;0;-186.5824;3.421112;-0.9144288;-211.6988;-214.352;-0.1403762;-0.4104447;0;
-225.3896;0;0;-194.3284;5.761223;-1.449373;-230.6015;-235.5634;0.1196342;-0.734869;0;
103.4842;0;0;71.48332;0.5314974;-5.868669;92.34299;87.76093;-0.27029;-0.604196;0;
675.8425;0;0;468.2745;0.4636144;-8.073209;658.3406;653.4509;-0.1400838;-0.2137848;0;
533.1722;0;0;372.9767;-2.550961;-0.0273887;520.3107;512.8646;0.3148284;-0.08363531;0;
190.1836;0;0;233.4843;-4.423432;2.250058;179.9587;174.3317;0.11961;-0.01858393;0;
222.976;0;0;291.7203;-3.682053;-3.512613;211.1371;208.8891;0.05452249;-0.1484999;0;
-82.71953;0;0;6.882719;-4.281566;-3.308134;-88.36208;-91.79481;0.2493697;-0.2133181;0;
-624.3641;0;0;-499.9944;-7.827237;-0.4916491;-623.6292;-627.4957;0.1841518;-0.0182017;0;
-526.9729;0;0;-464.4471;-9.426963;0.3796231;-530.799;-532.9749;0.2489341;0.241686;0;
-212.4137;0;0;-198.3015;-4.393649;-0.5585194;-220.4213;-224.0944;0.5085534;0.3713778;0;
-234.2517;0;0;-208.5345;-3.251134;-1.428614;-239.8774;-246.8577;0.3131403;0.1761026;0;
105.3756;0;0;67.41143;-4.385967;5.203887;95.13281;88.28454;-0.4667824;0.3058603;0;
689.9133;0;0;467.1427;-3.24346;7.342113;673.309;666.6551;-0.5962481;0.4354877;0;
548.0411;0;0;373.3453;-3.03913;2.512086;535.7638;527.18;-0.01094288;0.04524608;0;
186.4843;0;0;224.9195;-2.165421;4.184135;176.8431;170.5793;0.2489375;0.110168;0;
222.029;0;0;284.1012;-2.364316;-2.786172;210.1486;207.5142;-0.206084;0.2399919;0;
-73.73305;0;0;6.829941;-2.629384;-4.859844;-80.04181;-83.42318;-0.01097494;0.2397508;0;
-632.2532;0;0;-513.1655;1.190676;3.718733;-631.3093;-634.8746;0.1189708;0.1095752;0;
-538.5397;0;0;-478.9793;1.725343;2.777235;-540.5952;-542.3454;-0.2059855;-0.2153716;0;
-204.4162;0;0;-192.6418;3.53227;14.22828;-209.1558;-213.2781;0.05409086;0.1746489;0;
-219.0159;0;0;-196.1963;6.34176;17.76396;-221.127;-228.9308;0.05403651;0.2394407;0;
112.85;0;0;73.61532;-5.452632;8.435726;105.7435;99.19692;-0.2058872;-0.4754407;0;
686.3232;0;0;467.6558;-8.394891;8.762164;672.3524;666.3121;-0.3356149;-0.2800609;0;
542.0808;0;0;373.9827;1.392809;-1.896682;532.2468;524.4011;-0.2703104;0.4348613;0;
193.0238;0;0;235.5513;1.190339;-5.712803;185.2612;180.3594;0.1197653;0.4993917;0;
228.2495;0;0;295.5968;7.418433;-5.305165;217.3713;216.6598;0.05467759;0.04411848;0;
-77.01397;0;0;11.8173;11.09565;-8.179979;-81.57195;-83.65705;0.3794594;-0.2807626;0;
-626.6603;0;0;-502.7484;1.773752;-0.937725;-623.655;-626.9874;0.8988168;0.04435626;0;
-540.0738;0;0;-474.882;1.77197;0.8046515;-540.9446;-542.1497;0.3132076;0.3691484;0;
-231.4985;0;0;-209.7254;3.042987;3.349194;-235.117;-238.0075;-0.2068458;0.2388428;0;
-242.5727;0;0;-213.3877;2.906208;7.029768;-244.5009;-250.7618;-0.01173599;-0.02126658;0;
100.9985;0;0;70.74648;6.788054;7.759517;92.45052;87.7576;0.05324315;-0.02124521;0;
679.9185;0;0;468.9127;8.05403;11.30169;664.6949;659.7568;-0.2066797;0.0437435;0;
546.5519;0;0;377.1125;9.184037;9.347955;536.1538;528.597;-0.5962761;-0.02126781;0;
192.2431;0;0;239.7399;9.6443;9.472528;185.2287;180.3032;-0.5307096;0.1736556;0;
233.9039;0;0;306.7152;17.53786;17.90261;223.9605;223.4752;0.1194971;0.4983178;0;
-59.74614;0;0;32.04494;21.67343;19.22429;-63.86993;-64.10488;0.4442137;0.4328498;0;
-638.9575;0;0;-502.7809;9.193068;20.07562;-634.3939;-634.4412;-0.07597138;0.1075781;0;
-562.1037;0;0;-488.7825;6.906655;21.26114;-561.4803;-559.4661;-0.4656991;-0.1523993;0;
-226.2075;0;0;-203.7469;14.7366;16.41713;-229.5827;-229.7569;-0.4002638;-0.2172136;0;
-240.6603;0;0;-206.4158;15.1903;16.06572;-241.7833;-246.3926;-0.07502492;0.1078414;0;
91.53967;0;0;62.28169;12.76414;9.753305;84.23343;80.5033;0.1849198;0.1077331;0;
681.2762;0;0;464.8293;12.28183;6.662413;666.6685;663.6917;-0.07513534;-0.02230989;0;
547.2837;0;0;376.4064;13.47493;12.88501;537.3133;531.0912;-0.0100925;0.04267988;0;
185.2904;0;0;235.5363;12.92553;12.80508;179.0157;175.0487;0.1848197;0.1076043;0;
214.7768;0;0;295.4569;13.64948;14.3998;205.5099;206.4819;-0.1402028;-0.08740582;0;
-84.7885;0;0;12.05231;13.2346;15.38996;-89.79821;-90.26398;0.3147095;-0.1522853;0;
-632.1157;0;0;-499.6401;12.01487;16.71415;-631.0609;-632.5256;0.7691646;0.2376717;0;
-543.025;0;0;-472.339;12.40494;18.23796;-545.2196;-545.2462;-0.01121628;0.1724656;0;
-226.5131;0;0;-210.3709;4.288154;14.73653;-230.5797;-233.5422;-0.4010091;0.107325;0;
-231.6578;0;0;-210.2219;1.537179;14.31994;-233.5963;-240.3665;0.1191326;0.4320538;0;
104.3437;0;0;72.03501;6.224684;12.63098;96.16026;89.64679;-0.07588912;0.1717503;0;
674.7645;0;0;466.6393;5.280424;10.27389;659.343;652.6487;-0.2057475;-0.02332429;0;
546.4007;0;0;377.0277;7.552294;14.7513;535.2426;527.1806;-0.07560613;0.3015359;0;
190.4053;0;0;233.3459;7.678427;14.87044;182.944;177.389;-0.4003669;0.3662002;0;
216.201;0;0;288.5211;8.94351;9.56397;204.6867;204.0098;0.05480682;0.3008649;0;
-72.18393;0;0;15.30583;10.27467;8.549738;-80.5632;-80.48984;0.1197191;0.3005626;0;
-631.5177;0;0;-505.1355;3.632913;6.397693;-632.3923;-632.319;-0.07530323;0.1053586;0;
-549.3616;0;0;-481.8268;3.0934;4.984623;-552.1719;-549.9747;0.2496091;-0.08964932;0;
-208.2933;0;0;-191.6758;-0.7944747;6.051342;-213.4745;-213.8408;0.1194237;0.3002448;0;
-219.953;0;0;-195.5437;-3.271923;5.643363;-223.5049;-228.6184;0.184271;0.3649105;0;
101.1067;0;0;62.0859;3.295448;6.910368;90.99921;86.51552;0.2490532;0.03970711;0;
681.4633;0;0;462.6971;3.425859;7.238339;663.7448;659.8279;-0.2059685;0.1046345;0;
549.4696;0;0;376.3379;6.034385;9.173572;535.2672;529.2927;-0.07582682;-0.15534;0;
184.7256;0;0;225.223;7.234746;11.17372;174.7228;170.8157;0.1191514;-0.4800206;0;
212.7758;0;0;282.2179;6.15575;7.41157;201.9084;201.5661;-0.07587035;0.1051678;0;
-73.79411;0;0;12.75716;6.751801;7.873003;-79.2782;-80.55727;-0.2706961;0.1700295;0;
-621.1323;0;0;-496.4997;1.186287;10.41032;-619.9892;-621.8917;-0.3353915;-0.4148474;0;
-540.236;0;0;-471.4507;-0.8919857;11.40461;-542.4049;-542.1191;-0.2051198;-0.479398;0;
-218.0424;0;0;-196.7398;-2.565053;13.80453;-222.458;-223.9215;-0.01001167;0.1057898;0;
-220.7593;0;0;-194.1058;-5.576585;14.52735;-223.0465;-228.1318;0.05496573;0.1706509;0;
108.6096;0;0;78.32738;-2.088357;17.92888;100.3277;95.93465;0.0549105;0.2354468;0;
677.0272;0;0;469.1772;-2.01891;18.11182;662.1944;657.9932;-0.2699814;0.4301122;0;
544.913;0;0;376.5646;-7.442865;19.70109;534.6553;529.2089;-0.5295795;-0.09005872;0;
186.2329;0;0;235.0696;-8.306043;20.15017;179.6712;177.1039;-0.009308613;-0.4148049;0;
215.1562;0;0;294.9907;-11.24446;11.22144;207.4141;207.5356;0.1206354;-0.2844535;0;
-69.41708;0;0;26.89139;-14.71676;8.196054;-72.27879;-72.96959;0.1854815;-0.2192003;0;
-617.1345;0;0;-481.0678;-2.779254;3.097237;-613.559;-613.1872;0.5101319;0.3657261;0;
-539.5531;0;0;-464.4675;0.1039265;-1.728524;-540.2291;-537.5463;-0.1400541;0.5602606;0;
-210.1138;0;0;-186.5153;-9.742791;2.35905;-215.849;-215.1679;-0.2048807;-0.08997579;0;
-216.3369;0;0;-182.4548;-8.125411;1.887799;-219.2553;-222.0731;0.4449986;-0.08988538;0;
95.53633;0;0;69.60188;-17.69544;-4.075457;89.6848;87.30711;0.1197147;0.5598783;0;
670.6512;0;0;461.0226;-21.02656;-5.076106;657.934;655.6212;-0.6600137;0.2344791;0;
546.1646;0;0;378.8505;-6.202328;-2.056773;536.6461;531.7744;-0.8542525;-0.09059324;0;
180.6117;0;0;230.1694;-4.454784;-1.719792;174.1637;170.9211;-0.3336554;0.1043998;0;
220.7225;0;0;298.2787;2.58229;2.233807;211.5324;211.9162;0.1864186;0.1692623;0;
-58.92132;0;0;34.98621;7.603537;4.106963;-64.04176;-63.65834;0.1212639;0.1041249;0;
-621.3294;0;0;-488.0985;2.505682;3.500111;-620.4477;-620.0022;-0.008792626;-0.2857838;0;
-542.8692;0;0;-470.1794;4.78034;4.635182;-545.799;-543.6048;0.05618355;-0.155562;0;
-216.1752;0;0;-195.0949;-0.5157486;2.018312;-222.163;-221.97;-0.07380758;0.2993657;0;
-230.0759;0;0;-199.3967;-2.993477;0.8775746;-233.1216;-236.3646;-0.1387008;0.1041629;0;
98.17795;0;0;69.35622;5.047483;3.957786;90.01283;86.83556;-0.008626714;0.2989602;0;
681.8484;0;0;465.5249;5.242506;4.422689;665.3831;661.8342;-0.07358539;0.2336925;0;
555.9137;0;0;379.8499;4.635002;-0.7393183;543.2756;537.3564;0.1213906;-0.2213137;0;
194.8488;0;0;240.7255;5.969515;-2.011129;186.7836;181.5576;0.1862359;0.1687127;0;
223.3261;0;0;300.6409;-1.538571;-1.339279;213.27;210.9853;0.05611413;0.2335106;0;
-64.06643;0;0;29.16259;-4.081645;-2.744575;-68.61518;-70.46036;0.3808945;-0.1565281;0;
-618.161;0;0;-487.1697;2.753983;0.4062587;-616.146;-617.4896;0.1206424;0.2334332;0;
-546.3881;0;0;-472.9995;3.019636;0.2718846;-548.2482;-547.6539;-0.3342502;0.2331986;0;
-219.1283;0;0;-194.539;1.00687;0.1376456;-222.9231;-224.2659;-0.2039797;-0.1568397;0;
-222.9686;0;0;-192.5944;0.8721363;0.7403536;-224.3233;-229.163;0.121062;0.1031872;0;
88.91126;0;0;63.28308;1.339774;-3.480193;81.49854;76.60122;-0.2038964;0.2330182;0;
665.2197;0;0;460.0201;2.611226;-3.074799;649.9434;645.3008;-0.3985935;0.4276861;0;
547.6725;0;0;377.5365;-3.152174;-7.827375;536.0972;530.085;0.2514804;0.5571911;0;
179.7444;0;0;222.8597;-3.884965;-9.159169;171.8663;167.8592;0.7059991;0.1018598;0;
214.6711;0;0;287.4157;-1.537513;-3.121624;205.1143;205.1717;0.3154857;-0.02817724;0;
-57.47038;0;0;33.06716;-2.942487;-2.850555;-61.02058;-61.65043;-0.07463541;0.03681843;0;
-621.1918;0;0;-489.7033;9.184258;5.390965;-617.492;-618.9958;-0.009593072;-0.09315327;0;
-555.2879;0;0;-484.651;13.19449;8.265815;-555.1526;-554.406;-0.07455078;0.1018424;0;
-221.7723;0;0;-200.2443;3.267274;7.989578;-225.1978;-225.8263;-0.009508525;0.2966421;0;
-226.9218;0;0;-194.4209;2.460684;10.39281;-229.2194;-233.6578;-0.009498971;0.4262787;0;
90.70921;0;0;62.89521;3.261518;0.8040551;83.10403;78.85748;-0.1394241;0.2309483;0;
676.2612;0;0;461.819;1.785349;-2.210863;662.2919;658.4244;0.05561801;0.03581425;0;
560.7019;0;0;382.9568;-0.02510652;-0.06530946;551.1819;545.6941;0.05556212;-0.09415644;0;
188.9501;0;0;233.3345;-1.901091;-2.476507;183.0004;179.7045;-0.3342977;0.03587287;0;
214.8097;0;0;292.3203;-3.640493;-2.808934;206.1173;206.0731;-0.5938312;0.4906082;0;
-59.64334;0;0;33.09426;-5.646567;-3.676889;-63.57939;-64.37315;-0.5282672;0.3601806;0;
-620.0517;0;0;-484.8037;-7.113786;-6.687304;-617.3621;-617.4679;-0.1379323;-0.02998541;0;
-552.6497;0;0;-476.9453;-9.18372;-7.417397;-553.2737;-551.5678;0.2520103;-0.15989;0;
-224.4466;0;0;-199.98;-7.901694;-8.079774;-228.1309;-228.9255;0.4466591;0.1651074;0;
-234.9657;0;0;-200.5912;-8.362268;-9.210365;-237.2095;-241.3141;0.1863409;0.09997418;0;
87.04617;0;0;63.29036;-12.10491;-4.914325;78.55775;75.39429;-0.138683;-0.419865;0;
674.351;0;0;464.7125;-12.36117;-4.507489;659.4993;657.2136;-0.2684783;-0.3544758;0;
559.6682;0;0;384.4106;-16.43458;-4.837875;550.0163;545.9213;0.05662814;-0.02928291;0;
190.9783;0;0;237.3481;-17.68989;-4.29715;184.4596;182.5551;-0.008396102;0.1656485;0;
219.8344;0;0;299.0785;-13.58628;-9.651345;210.9483;212.3566;-0.5281264;0.2304494;0;
-49.12646;0;0;44.46829;-12.83667;-11.18225;-52.44383;-52.41129;-0.007857002;-0.02965149;0;
-616.292;0;0;-479.5005;-7.53151;-10.90309;-612.0473;-613.0768;0.4469223;-0.2245237;0;
-560.6379;0;0;-484.4535;-3.772898;-11.29403;-559.8333;-558.8627;-0.1382329;-0.09436344;0;
-226.1174;0;0;-202.858;-7.721222;-14.56472;-229.4365;-230.1536;-0.00815928;0.1656008;0;
-234.8232;0;0;-199.9056;-7.043878;-16.15768;-236.5148;-241.479;0.1867509;0.03549968;0;
76.94363;0;0;51.91882;1.804458;-9.845169;70.19378;64.79729;-0.3331755;-0.09447069;0;
670.318;0;0;456.8506;4.816755;-9.031482;656.7034;651.0624;-0.4627753;0.03555894;0;
559.0751;0;0;384.1154;1.195569;-9.156373;549.4721;542.1502;-0.3323757;-0.02944415;0;
181.1405;0;0;228.7448;1.461812;-9.08019;176.4197;171.2291;-0.07217232;-0.02941457;0;
211.1308;0;0;290.8586;2.063555;-7.262527;204.4158;203.6032;0.2527369;0.2954517;0;
-52.13662;0;0;40.4421;0.8560328;-5.915692;-55.47156;-56.4083;0.3174503;0.3601222;0;
-616.9253;0;0;-485.4592;5.676968;-15.28712;-612.9481;-615.2582;0.252164;0.1648583;0;
-563.457;0;0;-487.7825;8.083138;-17.14715;-562.6072;-562.9785;0.3818453;0.09972531;0;
-231.8697;0;0;-203.8099;-4.048774;-16.99596;-235.456;-237.0138;0.1215922;0.2945271;0;
-234.6977;0;0;-196.9834;-6.12081;-18.51949;-236.8436;-241.6482;-0.268334;0.1642965;0;
83.06603;0;0;60.46021;-3.570041;-14.74996;75.42502;71.74968;-0.397999;-0.09573796;0;
677.1214;0;0;460.7607;-7.049078;-14.46721;663.1163;659.1948;-0.5275338;-0.2905438;0;
570.6817;0;0;384.6483;9.033909;-9.563037;561.6257;554.3973;-0.202167;-0.2902519;0;
193.9848;0;0;232.0258;12.97597;-7.142042;188.9984;183.4639;0.1228728;0.2947459;0;
217.8403;0;0;290.2008;2.44771;-9.948149;210.6725;209.3289;-0.07215268;0.5543191;0;
-46.87061;0;0;39.90986;3.784421;-9.603238;-49.84588;-51.313;0.3177239;0.1639581;0;
-616.0374;0;0;-484.4917;-5.462782;-8.722811;-611.326;-613.5413;0.6422412;0.09882598;0;
-563.8818;0;0;-491.4386;-7.801818;-8.647063;-560.9243;-561.5132;0.05688992;0.2286614;0;
-223.2361;0;0;-205.7757;-5.650525;-12.72421;-223.2801;-225.4301;-0.1380693;0.09849691;0;
-233.569;0;0;-205.319;-7.720952;-14.31902;-231.9263;-237.9472;-0.007995852;0.2933;0;
71.44996;0;0;42.88763;-0.01003466;-12.56307;67.5938;62.14118;0.1219469;0.03313589;0;
672.7009;0;0;455.3247;-1.081751;-12.55045;661.7897;657.0297;-0.07307769;-0.2917341;0;
567.2026;0;0;384.8399;11.57801;-14.14543;560.2379;553.6086;-0.3328736;0.2282978;0;
185.8241;0;0;228.0318;17.05873;-13.99725;182.6145;177.866;0.1222322;0.09813368;0;
217.309;0;0;295.1439;-3.18652;-13.44732;212.1661;211.1704;0.05714207;-0.7465404;0;
-42.77872;0;0;51.40715;-4.857281;-14.10364;-43.23134;-44.78821;-0.3976867;-0.6808229;0;
-608.2015;0;0;-473.6306;-10.88062;-6.654484;-602.032;-604.0246;-0.007483087;-0.2253674;0;
-557.7404;0;0;-484.8988;-14.55436;-4.437482;-554.7006;-554.6297;0.5122632;-0.09520629;0;
-228.7826;0;0;-206.6762;-8.176723;-6.844287;-228.6818;-229.9228;0.5767158;-0.2250453;0;
-230.989;0;0;-197.3481;-7.632643;-4.225198;-228.452;-233.3774;0.2512996;-0.2897865;0;
86.45867;0;0;63.21932;-0.5913994;-11.78978;83.49586;78.57538;0.1211124;-0.1595607;0;
677.4497;0;0;463.0173;2.624376;-11.97888;666.8687;662.0156;0.5757621;-0.1594003;0;
569.2605;0;0;385.7157;11.19555;-10.62731;562.6257;555.8409;0.5102162;0.2305639;0;
193.0648;0;0;239.5264;15.73866;-12.49203;190.1223;186.1555;-0.01003518;0.5551689;0;
214.8598;0;0;301.3795;17.39778;4.533698;210.296;210.2687;0.05494225;0.2297744;0;
-47.47434;0;0;51.26476;20.99664;8.749067;-46.53629;-48.00034;0.2497891;-0.09529322;0;
-610.8934;0;0;-472.8983;11.53108;6.060959;-603.3971;-605.3594;0.5094075;-0.4850015;0;
-561.4916;0;0;-482.0433;9.845528;9.002118;-557.3762;-556.5879;0.3789609;-0.5494815;0;
-212.2902;0;0;-182.7092;7.49111;1.089209;-210.865;-212.6387;-0.01122393;-0.1591254;0;
-216.0748;0;0;-173.5926;3.933609;-0.1845616;-212.6521;-218.547;0.05375469;-0.09399812;0;
70.87315;0;0;54.03004;7.21121;-2.930554;68.54535;63.84328;0.118668;0.1659657;0;
669.9383;0;0;452.6504;4.860416;-5.67391;659.9916;655.6066;-0.0113859;0.2957336;0;
576.5617;0;0;388.8524;8.740298;-3.792687;569.5611;563.3689;0.1185602;-0.02940025;0;
183.4297;0;0;227.4801;8.664167;-5.731381;180.4341;175.8723;0.1834084;0.1655313;0;
210.2943;0;0;288.7206;8.053225;1.307464;205.1778;204.4937;0.1832241;0.1003977;0;
-37.79242;0;0;53.73596;10.92455;3.918485;-38.71838;-39.52677;0.3779421;-0.1595726;0;
-611.7159;0;0;-473.4281;-1.678735;-2.783624;-605.2072;-607.2642;0.7673663;0.03548978;0;
-559.9395;0;0;-479.3867;-1.007463;-2.378929;-556.1859;-556.9915;0.6366606;-0.02951323;0;
-217.4238;0;0;-190.1126;-0.4705875;-4.118095;-217.7344;-219.7885;0.05131483;0.1654185;0;
-233.9469;0;0;-197.8551;0.3341686;-6.525221;-232.0083;-237.4961;-0.3385408;0.5550563;0;
76.50726;0;0;54.09216;14.66745;1.586026;72.82166;66.90211;-0.4681353;0.3595966;0;
673.8801;0;0;463.2071;16.92989;1.919348;661.64;656.2261;-0.4026976;0.03439852;0;
565.757;0;0;385.8429;43.90712;-1.632554;557.3398;550.6195;-0.2723583;0.0993313;0;
196.5613;0;0;239.0912;54.71399;-1.496948;192.4629;187.1237;-0.1421499;-0.09567055;0;
220.2268;0;0;299.3206;39.65484;-9.399308;214.6332;212.9226;0.1178623;-0.09557442;0;
-42.86237;0;0;48.39581;42.09324;-11.1313;-44.82712;-46.09876;0.1177439;0.2293583;0;
-599.9767;0;0;-468.518;23.69786;-15.40702;-596.8171;-598.2124;-0.2072112;0.03422585;0;
-558.3945;0;0;-484.414;14.02949;-19.34341;-557.7368;-558.4435;-0.2719703;0.0991588;0;
-227.3745;0;0;-206.6292;22.38716;-7.93712;-229.2162;-232.7958;-0.07679499;0.2939612;0;
-232.8932;0;0;-202.0487;17.007;-6.522503;-232.0468;-239.3085;0.1831515;0.03379645;0;
63.44202;0;0;39.72036;11.69765;-5.712276;59.53988;52.72282;-0.01193451;0.1636972;0;
667.5746;0;0;451.0987;9.476073;-2.022475;656.5549;649.8696;-0.3367592;0.2934674;0;
578.1984;0;0;389.9259;-2.389793;-10.7281;572.1248;563.4473;-0.2714535;-0.3565009;0;
184.44;0;0;224.2422;-7.611329;-10.85117;182.8703;176.7002;0.05365596;-0.5510447;0;
206.8683;0;0;283.362;4.854901;-7.290289;203.1138;201.9474;-0.0113653;-0.09571967;0;
-33.40635;0;0;54.56718;7.194547;-7.41693;-33.15911;-33.6372;0.1185808;-0.03065614;0;
-603.0239;0;0;-470.2239;2.90041;-0.7113063;-595.5931;-596.9453;0.378331;-0.03062534;0;
-564.3746;0;0;-485.8058;4.973601;1.030843;-558.8253;-558.7393;-0.3366899;0.1643075;0;
-220.4177;0;0;-193.7143;5.504467;2.637397;-218.2472;-219.9104;-0.4662863;0.1641424;0;
-225.631;0;0;-192.4577;7.173875;4.510269;-221.9634;-227.9978;-0.07601368;0.0990101;0;
69.7599;0;0;49.92648;7.70253;1.491505;68.80106;63.45992;-0.5956761;0.2938126;0;
657.5193;0;0;456.422;6.756786;1.690956;649.8773;645.1038;-0.4001755;0.3584848;0;
567.1537;0;0;391.8706;20.34668;-1.056922;563.0176;555.3129;0.4448021;0.03328785;0;
197.8942;0;0;239.8655;25.75222;-2.060604;196.8857;191.8123;0.3144204;-0.2915823;0;
214.9367;0;0;294.4719;8.646059;-3.666124;210.9307;210.4851;-0.0107322;-0.1613547;0;
-38.02726;0;0;56.10821;6.561266;-6.006721;-36.96925;-38.35143;0.05424593;0.1636442;0;
-601.3934;0;0;-464.4366;10.90795;2.237972;-592.4029;-594.4084;0.1191588;0.09851242;0;
-567.8057;0;0;-486.7709;9.423125;4.44616;-562.26;-563.0141;-0.075863;-0.0964886;0;
-230.4669;0;0;-204.0487;15.30816;-2.323462;-228.7999;-232.3643;0.05414791;-0.356261;0;
-236.5446;0;0;-203.094;17.77102;-2.656042;-233.1302;-240.0643;0.2489955;-0.4858377;0;
56.73324;0;0;38.30132;11.39015;-0.3090925;53.21026;47.78234;0.183778;-0.2904475;0;
663.6212;0;0;451.3052;10.50805;-0.1748161;651.9808;647.1205;0.118626;-0.355123;0;
583.8691;0;0;393.6305;14.51598;-1.045297;577.3629;569.2592;0.1834741;-0.09489683;0;
197.2889;0;0;240.7491;11.7557;-1.982007;194.7248;188.5032;0.4431592;0.1001006;0;
217.7053;0;0;300.6645;17.36997;1.369009;212.5825;211.0524;0.3777465;-0.4847061;0;
-27.8276;0;0;66.60487;14.60683;2.171428;-27.57297;-29.66378;0.05253025;-0.3542844;0;
-603.7601;0;0;-460.6346;9.367236;-2.318488;-596.1969;-599.8474;-0.2073919;-0.2889611;0;
-574.4804;0;0;-487.533;6.611158;-2.58409;-570.423;-572.2582;-0.5320202;-0.4835728;0;
-231.1379;0;0;-198.2507;-16.77143;-4.724947;-231.4574;-233.1658;-0.596453;0.1016192;0;
-232.2175;0;0;-192.1795;-24.25667;-5.791804;-229.9755;-234.056;-0.3359843;0.0365498;0;
60.05651;0;0;46.14391;-35.88659;-3.843602;57.92348;54.65918;-0.01080999;-0.6781277;0;
658.0706;0;0;453.1429;-43.88848;-4.30862;647.9437;644.2454;-0.07576647;-0.4175769;0;
579.8233;0;0;394.5918;-25.82707;-0.285437;573.3298;566.6367;-0.3355597;0.1675487;0;
204.9288;0;0;248.3311;-18.96862;1.121491;201.8776;197.2527;-0.01038583;0.4922171;0;
212.8439;0;0;299.1809;-21.02567;-0.9559844;207.6718;207.2369;0.5093634;0.2968205;0;
-45.36533;0;0;52.06689;-12.90021;-0.7540751;-43.97302;-45.09457;-0.0108872;0.03665286;0;
-603.7266;0;0;-465.2879;2.317996;-3.298669;-595.0268;-596.8969;-0.2057783;-0.02835133;0;
-564.4518;0;0;-483.8733;9.013472;-5.438808;-559.3216;-559.1283;0.05429785;-0.1582575;0;
-228.0535;0;0;-200.0295;39.9498;-1.950231;-226.1143;-228.0451;0.1192106;-0.02816382;0;
-234.571;0;0;-199.7036;53.50731;-2.484134;-231.5092;-237.2487;0.3139929;-0.2230376;0;
52.45807;0;0;38.25254;38.65044;-7.773168;50.14441;45.47267;-0.2060614;-0.2877808;0;
654.3528;0;0;452.3809;41.55837;-8.770102;645.5447;640.3779;-0.530691;0.4921165;0;
583.1058;0;0;394.4553;29.46017;-13.51696;578.0547;569.0825;-0.3352557;0.1667853;0;
193.1531;0;0;230.7035;24.40673;-15.11096;191.8552;184.2038;-0.07504952;-0.158219;0;
203.5787;0;0;285.9438;17.21588;-12.75138;199.5959;196.2001;0.1199279;0.03684201;0;
-28.82168;0;0;63.33076;8.222627;-12.47063;-28.80244;-32.75703;-0.07509461;-0.3529991;0;
-602.6918;0;0;-465.2172;21.07509;-7.702437;-594.9889;-598.7521;-0.01005182;-0.287677;0;
-576.4116;0;0;-494.3599;20.04856;-4.948519;-571.0278;-572.4759;-0.1399764;-0.1574533;0;
-222.5724;0;0;-194.5136;17.68486;-1.393451;-221.442;-225.3249;-0.3997051;0.03760696;0;
-236.4667;0;0;-200.0653;19.00627;2.224905;-234.3378;-241.84;-0.2044015;-0.09236553;0;
40.13197;0;0;25.70985;11.48508;3.361379;36.63653;30.57866;0.1206406;-0.7419461;0;
652.2839;0;0;447.8468;9.664877;5.970214;642.0454;637.1805;0.05555206;-0.2864292;0;
585.3493;0;0;394.9232;13.741;6.567062;579.3065;573.1346;-0.2043731;0.2335973;0;
201.079;0;0;236.6682;13.3924;7.230292;198.0407;194.124;-0.07423308;-0.2214088;0;
214.6825;0;0;293.3393;11.83871;9.768257;208.7737;208.734;-0.009191153;-0.156219;0;
-29.7854;0;0;57.60041;11.96053;9.825424;-30.69077;-31.91741;-0.2040839;-0.2210294;0;
-599.9064;0;0;-465.8194;7.460535;8.743947;-592.6899;-594.0403;0.3808272;-0.4806766;0;
-573.4416;0;0;-492.9625;5.645353;7.328519;-567.9191;-566.8942;0.6403139;-0.1553569;0;
-234.7853;0;0;-207.3604;11.26576;5.579599;-232.2668;-233.1171;0.1848991;-0.2851355;0;
-237.7978;0;0;-202.0921;12.86203;3.765576;-233.0329;-237.8179;0.05477865;-0.7396204;0;
51.85817;0;0;36.67852;9.098062;-0.3241666;51.37087;46.59075;-0.2701131;-0.08920381;0;
652.4417;0;0;451.4332;9.959576;-1.998292;643.2717;638.8712;-0.5297111;0.3006899;0;
576.9487;0;0;393.0087;11.35609;-8.895404;571.1613;564.4539;-0.1393747;0.04051838;0;
197.4969;0;0;236.005;12.28268;-12.57041;195.5259;190.3869;-0.009300019;0.3653144;0;
213.4778;0;0;295.1755;15.82031;-6.797364;208.6977;208.249;-0.1392254;0.494882;0;
-29.1773;0;0;63.5577;16.54135;-7.393381;-28.83021;-30.27792;-0.2040528;0.1045807;0;
-599.6737;0;0;-464.9905;24.56268;-4.237876;-591.8932;-594.5888;0.1209889;-0.2853285;0;
-571.7724;0;0;-494.1959;28.55649;-1.889215;-567.0607;-567.3173;0.05590003;-0.3500091;0;
-217.813;0;0;-192.2883;19.61919;-9.188334;-216.4793;-218.3599;-0.009123486;-0.02482071;0;
-228.5261;0;0;-190.5959;19.26468;-10.58574;-224.82;-230.3218;-0.139049;0.1701063;0;
39.00663;0;0;28.29823;20.51812;-5.551509;37.64911;32.83994;-0.268844;-0.2198687;0;
653.3461;0;0;446.3097;19.62685;-5.612792;643.6816;639.502;0.1212302;-0.1546804;0;
590.4709;0;0;396.4485;24.16148;-7.61664;584.1895;578.7021;0.1860757;0.3652137;0;
193.8267;0;0;235.3185;26.28066;-8.144851;192.9238;188.6914;-0.07398059;0.2998794;0;
204.439;0;0;291.866;22.23576;-10.61504;201.1008;199.8086;-0.008938911;0.1046761;0;
-29.64887;0;0;65.74874;22.68193;-11.60899;-28.86082;-30.83881;-0.00892993;0.2345056;0;
-597.1463;0;0;-453.6188;27.21349;-11.53034;-588.6754;-591.4011;0.3159158;-0.09056679;0;
-568.4354;0;0;-481.5862;27.78936;-10.78195;-563.971;-564.8823;0.3805657;-0.2853778;0;
-219.6643;0;0;-190.4359;34.66032;-15.25897;-218.8275;-221.1122;0.1852812;-0.1551564;0;
-227.6894;0;0;-191.8687;37.03736;-16.24826;-224.2923;-229.8231;0.3150297;0.1048689;0;
44.96493;0;0;32.77372;31.64151;-6.854565;42.92385;37.46112;0.1847785;0.3646329;0;
642.9316;0;0;449.0316;30.13585;-4.369431;633.7087;627.8142;-0.4001132;0.1693645;0;
577.0059;0;0;396.7939;27.69467;-2.154603;570.9157;563.2155;-0.5296459;0.1691943;0;
198.6785;0;0;239.9113;23.71473;0.6607226;195.6554;190.1494;0.1205597;-0.02587774;0;
208.2865;0;0;294.5802;26.2365;0.2581611;203.2049;200.3905;0.380308;0.03911562;0;
-33.80122;0;0;61.2763;26.87972;1.396612;-33.69278;-37.37889;-0.07484555;0.169011;0;
-600.0451;0;0;-461.6475;9.102843;0.2564984;-591.9408;-595.8106;-0.1397377;-0.4808322;0;
-572.7056;0;0;-491.0436;6.012238;-0.6144154;-568.6699;-569.9122;-0.2045646;-0.1555124;0;
-219.8073;0;0;-193.2621;5.201913;-0.5468152;-220.2109;-222.0766;-0.07442439;0.2994153;0;
-227.7698;0;0;-192.8805;0.6423349;-1.818941;-225.0496;-231.1612;0.05558507;-0.02572231;0;
35.32694;0;0;22.39269;25.89364;-2.152028;33.04694;26.37919;-0.07440546;0.3641076;0;
644.1729;0;0;443.2836;31.89585;-2.082883;634.0866;627.9253;-0.009363359;0.1688397;0;
590.8646;0;0;397.5485;28.11275;-8.04215;584.6615;576.3824;0.05561339;-0.02623197;0;
199.03;0;0;229.983;32.63983;-9.239761;196.2065;189.56;0.1854922;0.2336638;0;
204.5147;0;0;283.7873;20.14845;-5.479433;199.6325;196.5534;0.2502731;-0.2863098;0;
-24.51328;0;0;64.9245;15.77395;-4.13439;-24.39307;-27.15678;0.120087;-0.1560874;0;
-596.7635;0;0;-457.6281;16.29397;-0.5131578;-588.9598;-590.2839;0.05499899;0.1039388;0;
-583.1704;0;0;-497.0857;8.641785;2.769399;-577.311;-576.0726;-0.01002362;-0.156035;0;
-232.4479;0;0;-201.4846;16.87212;5.84771;-229.468;-230.6671;-0.2698829;-0.02594353;0;
-240.4602;0;0;-200.47;17.79317;8.923049;-234.6722;-240.8676;-0.2046444;0.1689846;0;
30.08304;0;0;18.93372;-14.17544;14.00466;31.5549;25.61558;-0.2044388;0.03888009;0;
644.369;0;0;444.0135;-22.39924;16.26789;637.3437;632.972;-0.139266;-0.156061;0;
589.4988;0;0;400.9638;-19.2289;20.00259;585.2291;579.2377;-0.009191383;0.2338999;0;
206.4112;0;0;243.7647;-25.2378;22.25979;206.2063;201.5952;-0.1391168;0.4285669;0;
208.7651;0;0;295.1188;-9.40496;15.27132;205.9367;205.3282;-0.0740097;-0.02663517;0;
-32.44857;0;0;61.93936;-5.578093;13.6485;-30.83886;-31.25931;0.2509014;-0.09157575;0;
-595.4454;0;0;-455.9251;-9.859395;10.48659;-585.5915;-586.5113;0.3805839;-0.1564511;0;
-578.9801;0;0;-490.9492;-6.700681;6.792116;-572.3845;-571.929;0.5101362;-0.09132653;0;
-230.6357;0;0;-197.0408;-6.761297;10.2013;-228.4194;-230.1508;0.05485224;0.233602;0;
-227.1556;0;0;-185.3486;-4.007837;9.72229;-223.1299;-228.3578;-0.3350069;-0.02650215;0;
34.19144;0;0;30.29182;-7.754854;4.88975;33.09058;28.74249;-0.2047356;-0.2863449;0;
638.5408;0;0;442.4917;-7.948133;4.215129;628.9453;625.1638;-0.2694972;0.1037469;0;
589.2361;0;0;400.0057;-1.710855;3.20615;582.274;576.06;0.05561025;0.16861;0;
193.0304;0;0;233.9995;-0.5710366;2.198184;191.3226;185.8645;0.1854891;-0.0914288;0;
199.5206;0;0;287.175;3.783794;9.162078;196.0029;194.4858;-0.2045014;0.1035651;0;
-20.63181;0;0;72.30684;6.39196;11.16224;-20.64771;-22.22576;0.05557348;0.4282978;0;
-595.6345;0;0;-456.9373;4.777947;8.136912;-588.5915;-591.0425;0.315387;0.1030307;0;
-587.4774;0;0;-502.6425;5.577429;8.061753;-582.3779;-583.0773;-0.2046686;-0.2219096;0;
-224.5067;0;0;-194.6045;6.910996;11.33569;-222.2859;-224.6088;-0.3343977;-0.02678456;0;
-222.0322;0;0;-184.5389;6.971401;12.66396;-218.127;-224.1957;-0.204127;0.2980791;0;
32.81287;0;0;25.54099;8.370915;4.747374;31.84161;25.59159;-0.2688892;0.4277143;0;
635.7268;0;0;443.3053;9.567953;2.398324;626.8855;620.6418;-0.2036517;0.1024478;0;
584.6134;0;0;398.757;2.793185;3.936521;577.9049;569.7934;-0.1384797;0.1673122;0;
199.4068;0;0;236.875;0.8479952;1.119282;197.3277;189.849;-0.2033079;0.2321114;0;
211.013;0;0;296.4195;5.602565;6.141756;207.9365;203.7137;-0.3330383;-0.09295855;0;
-23.64366;0;0;72.9838;4.994699;6.671448;-22.2818;-26.12555;0.05710038;-0.2227998;0;
-604.5154;0;0;-461.1336;8.740725;-3.248486;-596.2209;-599.9984;0.3169124;-0.09264128;0;
-594.9125;0;0;-510.3328;10.07111;-6.46028;-590.0621;-591.8367;-0.07321011;0.1023538;0;
-244.6155;0;0;-217.0921;5.774086;-5.047269;-244.5176;-247.9146;0.1867328;0.03728366;0;
-245.744;0;0;-207.5662;5.50084;-7.118546;-243.7097;-251.6011;0.1215778;-0.0926885;0;
24.49217;0;0;19.34093;1.074683;-9.053899;22.0892;14.39318;-0.2683484;0.167274;0;
638.5964;0;0;444.2329;-2.409997;-9.446699;629.2618;622.7604;0.05675798;0.1021386;0;
592.9773;0;0;400.2459;6.233589;-18.07776;587.5251;579.5936;-0.008266397;-0.09286607;0;
200.7034;0;0;234.8642;8.370779;-22.07845;198.8799;193.0802;-0.2031601;0.03716194;0;
209.9345;0;0;294.0358;-4.766775;-9.396858;205.739;204.1305;-0.008053955;0.1020919;0;
-10.35336;0;0;82.28418;-6.369575;-6.50715;-9.796999;-12.34091;0.05692148;0.231924;0;
-600.109;0;0;-456.2154;-5.759963;-15.54319;-592.5567;-596.0976;-0.2679724;0.231691;0;
-599.631;0;0;-511.0417;-8.768285;-15.79538;-595.8969;-597.3102;-0.3326705;0.03655617;0;
-234.2743;0;0;-201.9958;6.579495;-10.82289;-234.4794;-237.3282;0.05746781;-0.1583826;0;
-237.5371;0;0;-195.6709;10.45765;-9.539462;-235.3683;-241.4625;0.1223774;-0.2881581;0;
17.69837;0;0;12.42125;2.208119;-8.860047;15.11743;9.903892;-0.007680237;-0.09296657;0;
629.3107;0;0;438.8194;2.540693;-7.109589;618.6738;613.1532;0.1872295;-0.02790582;0;
589.1357;0;0;403.3336;-1.882489;-8.844002;581.3207;572.7446;0.05710669;0.1020569;0;
203.5497;0;0;239.6979;-5.162151;-9.237013;199.4282;193.1096;-0.20282;0.3618237;0;
204.3447;0;0;290.369;0.6701847;-3.400338;197.0414;196.1015;-0.007714236;-0.02834389;0;
-24.55816;0;0;67.6265;1.741238;-2.258211;-26.6692;-27.23337;-0.007706484;-0.2881848;0;
-591.1237;0;0;-455.8034;-9.178851;-3.394652;-583.6124;-585.363;-0.1376334;0.03694152;0;
-581.7841;0;0;-500.3228;-10.04028;-2.587446;-577.3414;-576.9662;-0.2024625;0.2967738;0;
-233.4993;0;0;-207.2171;-10.76713;-5.665939;-233.059;-234.4333;0.187545;-0.02836115;0;
-229.0793;0;0;-195.8895;-12.16283;-5.593263;-225.9533;-232.0739;0.6421279;-0.1582673;0;
31.1452;0;0;24.07186;-1.768133;-9.941533;30.02018;24.15566;0.2516787;-0.02817363;0;
631.812;0;0;443.4619;-1.632635;-12.74471;624.6911;618.7075;-0.1383782;-0.09311266;0;
588.6985;0;0;400.6001;14.11012;-3.220567;586.7697;578.3558;0.1216302;0.1018829;0;
200.1145;0;0;231.4074;21.53068;-2.078621;200.9362;196.0291;-0.07339407;0.1667479;0;
210.2207;0;0;288.7085;-0.4613574;-2.47843;205.6693;205.6397;-0.203255;0.296515;0;
-5.819532;0;0;78.52387;-2.871791;0.06928971;-7.367862;-8.39698;0.3166879;0.2312498;0;
-587.2714;0;0;-452.3507;-5.749294;-7.365642;-580.8222;-582.1627;0.5112718;0.1010827;0;
-589.1801;0;0;-502.3708;-11.16852;-7.492206;-584.4865;-583.2018;-0.07394803;0.0360138;0;
-220.7105;0;0;-189.8979;-4.79429;-5.140398;-219.9571;-220.1106;-0.5286451;-0.2888591;0;
-212.3053;0;0;-175.6516;-6.129619;-4.867301;-210.9905;-214.8919;-0.2032772;-0.09366683;0;
29.91137;0;0;22.55035;-8.9365;0.9649832;24.85308;22.01754;-0.07313829;-0.02860537;0;
634.2026;0;0;437.9439;-9.931898;2.303672;619.7791;618.3831;-0.2029995;-0.288446;0;
599.2076;0;0;403.5209;-8.582747;7.324955;588.0469;583.7789;-0.1378282;-0.09325414;0;
205.4281;0;0;237.7611;-7.636118;8.858203;200.2757;196.1368;-0.07272233;-0.09316044;0;
209.5945;0;0;293.494;-11.24577;9.854046;203.0729;203.3111;0.1222528;0.1668026;0;
-10.06829;0;0;81.05576;-11.0334;11.38463;-12.46038;-10.66078;-0.2027068;0.556439;0;
-588.8922;0;0;-447.7599;-11.6919;-0.7503541;-583.7232;-581.9254;-0.07256842;0.3609779;0;
-590.6118;0;0;-501.8451;-12.21601;-4.701593;-588.384;-585.7135;0.5122105;-0.02918892;0;
-233.1353;0;0;-199.68;-8.452693;-5.768474;-234.2206;-234.6137;0.4467286;-0.1590943;0;
-225.2798;0;0;-182.5503;-8.64527;-9.781653;-222.8033;-227.5688;0.121443;-0.02899973;0;
28.31915;0;0;28.33968;-1.000773;-7.226473;27.66976;22.59669;-0.07358108;0.1009641;0;
631.4875;0;0;442.9778;3.086069;-7.755076;622.9053;618.2745;-0.1384745;0.360732;0;
590.6232;0;0;403.8646;-7.634301;-11.23027;584.6733;577.9233;-0.008400661;0.2954022;0;
196.3526;0;0;237.4797;-7.491932;-11.75485;194.3442;188.2881;-0.07335956;0.03523603;0;
203.9014;0;0;293.9626;-10.49851;-9.867641;199.2713;197.0944;-0.1382532;0.100168;0;
-4.386355;0;0;90.95661;-14.10529;-9.790744;-4.888888;-6.313972;0.05678775;0.1650347;0;
-584.7153;0;0;-440.9924;0.9130626;-7.36952;-577.4087;-579.7069;0.121698;-0.09500055;0;
-597.6834;0;0;-507.4532;3.323043;-6.893235;-593.695;-594.6791;-0.07332627;-0.1598724;0;
-232.766;0;0;-201.2845;0.3055937;-5.747599;-233.2169;-235.0745;0.05668209;-0.02977711;0;
-227.1598;0;0;-188.0887;2.984604;-4.335304;-224.7367;-229.8408;0.1215925;-0.3545839;0;
12.76048;0;0;9.875849;-7.668315;-13.03848;11.87031;6.396492;-0.07343173;-0.3542276;0;
631.9364;0;0;435.5894;-10.07248;-15.6376;622.9887;617.2705;0.05657674;0.2308344;0;
603.6279;0;0;406.3537;-7.784211;-11.87096;595.4387;587.29;0.1864546;0.03570044;0;
196.5381;0;0;230.5336;-11.46106;-12.99774;190.2313;183.715;0.05633254;0.03566457;0;
202.7125;0;0;287.2108;-3.545315;-10.97519;193.9757;191.339;-0.1386261;0.4904001;0;
-0.7640454;0;0;89.33408;-4.547106;-9.691613;-3.869856;-7.066173;-0.3333888;0.1650707;0;
-575.5993;0;0;-439.0526;-5.546915;-13.96866;-570.0814;-573.7742;-0.3980212;-0.2248993;0;
-583.1419;0;0;-499.5808;-4.469615;-13.68669;-580.1907;-580.3191;-0.007817187;-0.159706;0;
-233.1691;0;0;-204.7893;-23.48779;-12.60121;-236.0304;-235.8463;0.4469621;0.1003239;0;
-233.3721;0;0;-200.3981;-28.82282;-12.65553;-235.0436;-238.9202;0.4465129;0.2301578;0;
16.92424;0;0;9.510345;-27.85586;-6.614477;11.75613;8.1333;-0.3335438;0.03502449;0;
628.9121;0;0;438.1603;-31.44519;-4.464499;615.9406;613.7582;-0.6580454;0.09995664;0;
601.1063;0;0;406.7981;-25.31802;-5.263686;591.0214;586.2175;-0.2026128;0.4246929;0;
210.3235;0;0;241.9095;-23.41755;-4.186792;204.9338;200.697;0.1873949;0.6841356;0;
212.361;0;0;295.0146;-21.38429;-3.914654;205.4151;204.8056;0.3821086;0.4235788;0;
-4.056203;0;0;77.95216;-16.80747;-3.374856;-6.80975;-6.731408;0.3817247;-0.03161826;0;
-578.3884;0;0;-452.8594;-14.64811;-4.309227;-573.8304;-573.3773;0.2514064;-0.1615212;0;
-588.9267;0;0;-513.8735;-10.01169;-3.969982;-586.3722;-584.6077;0.1212191;-0.03142419;0;
-237.7611;0;0;-216.2565;-6.049514;-5.30553;-239.6445;-238.8188;-0.1387721;0.3584114;0;
-226.8401;0;0;-199.5475;-3.69891;-5.233216;-226.5976;-229.4585;0.0562694;0.0332146;0;
15.45365;0;0;5.737472;8.160175;-3.486523;12.32256;8.964867;0.05621286;-0.2266881;0;
623.0078;0;0;432.9545;12.63995;-2.81319;611.9463;609.4041;-0.1387456;0.09837635;0;
602.1419;0;0;406.8448;10.28273;-0.1310464;595.0271;589.8637;-0.2035736;0.0982775;0;
201.8003;0;0;232.6484;13.08641;0.4718097;200.4397;196.7183;-0.2683364;0.2281134;0;
211.655;0;0;294.1961;3.360372;4.69126;206.7975;207.9524;0.1867047;0.09794954;0;
17.10248;0;0;103.3088;0.6776778;5.691168;14.81114;15.21526;0.5113537;-0.4218876;0;
-573.4304;0;0;-435.5243;3.423663;2.805306;-568.1607;-569.5061;0.1210359;-0.291529;0;
-605.088;0;0;-518.8571;0.003971379;1.663777;-602.1349;-602.1672;0.05594694;0.03360062;0;
-243.4115;0;0;-216.3625;10.31909;-2.62468;-244.272;-246.3657;0.4456948;-0.2912699;0;
-226.0505;0;0;-192.407;12.71962;-5.368221;-224.0366;-231.0007;0.1204102;-0.5508465;0;
15.24295;0;0;10.1846;0.6504033;-9.783701;13.56918;7.11183;-0.5943515;-0.4853257;0;
626.4204;0;0;433.7115;-2.163289;-12.11815;617.0647;611.4884;-0.2689176;-0.3549034;0;
609.2993;0;0;411.0369;3.59966;-16.52673;603.2013;595.1943;-0.008778024;-0.02971007;0;
215.3223;0;0;248.3929;4.332002;-18.51961;213.041;207.291;-0.3336059;0.1652218;0;
211.7951;0;0;302.3036;-8.866891;-16.08961;206.8924;205.1461;-0.1383687;0.1650558;0;
-2.56009;0;0;92.04286;-14.15024;-16.74328;-3.085;-5.579157;-0.00829496;0.2298573;0;
-581.8289;0;0;-440.6569;-2.078609;-8.085897;-573.9824;-576.599;0.3165501;0.03472432;0;
-598.6105;0;0;-505.4314;-1.406935;-5.666388;-591.4591;-592.4489;0.706036;-0.3551146;0;
-244.9989;0;0;-205.3241;-6.495736;-4.924004;-240.7283;-243.4037;0.2505552;-0.1598558;0;
-235.0077;0;0;-189.1883;-5.28376;-2.50767;-228.9922;-234.7884;0.1853361;0.2950762;0;
8.543665;0;0;13.1502;-11.84253;-9.136339;9.368186;4.26499;0.4450193;0.03491038;0;
626.7244;0;0;434.1754;-12.63492;-9.796988;619.1772;613.8293;-0.01019927;-0.3549288;0;
614.3505;0;0;412.125;-10.14398;-13.93996;609.5596;601.1561;-0.1401237;-0.02973543;0;
206.3755;0;0;243.358;-11.74137;-16.53817;206.0871;199.0039;-0.01004822;0.03526181;0;
204.6689;0;0;299.9599;3.676742;-12.97158;202.4443;199.8659;-0.2049402;-0.09470832;0;
14.49619;0;0;113.0648;9.432848;-13.29346;16.39677;14.25826;-0.009832202;0.2951909;0;
-570.4744;0;0;-418.2194;-1.695065;-12.14139;-560.892;-562.9034;0.05514502;-0.2248444;0;
-601.3853;0;0;-499.8829;-0.8900544;-11.39238;-594.936;-594.6966;-0.1398124;-0.8093246;0;
-239.3377;0;0;-201.6552;0.7184303;-9.371567;-237.9549;-239.09;-0.2696066;0.03606407;0;
-227.3531;0;0;-185.3982;0.5839866;-8.22344;-223.4105;-229.3545;-0.5292051;0.5557666;0;
7.070103;0;0;9.627678;2.659505;-6.875519;8.69744;1.947287;-0.5286734;0.3603061;0;
624.5651;0;0;430.7813;2.59046;-5.194037;619.1318;613.5754;-0.3982074;0.2949767;0;
614.8171;0;0;411.7953;7.946491;-9.609692;611.3883;604.5881;-0.33284;0.3596477;0;
212.2139;0;0;244.7778;11.28741;-10.26974;212.4117;207.18;-0.2675382;0.03444959;0;
210.5014;0;0;296.3807;1.094662;-8.718938;207.5132;205.5975;-0.202302;-0.1604871;0;
11.70224;0;0;99.55672;-1.117241;-9.647939;11.09079;9.052157;0.1877053;-0.03039112;0;
-566.2065;0;0;-424.7798;10.47181;-6.289098;-559.8209;-561.4827;0.3174514;-0.1602953;0;
-595.9973;0;0;-502.6886;11.73408;-5.612949;-590.6176;-589.779;0.1222304;0.09973518;0;
-247.0111;0;0;-211.3297;12.6603;-8.353609;-245.5098;-245.2967;0.1870749;0.4244717;0;
-229.0843;0;0;-190.0654;15.52796;-8.814096;-226.6475;-230.1827;0.05695224;-0.03072625;0;
15.58553;0;0;11.83664;4.325602;-8.403342;14.02187;9.678122;-0.2679417;-0.09566271;0;
625.8881;0;0;433.5503;1.039702;-8.260932;616.0801;612.8652;-0.3976071;0.2942375;0;
611.8284;0;0;411.7504;8.339675;-9.659273;605.3412;600.9426;0.05756376;0.2289745;0;
