Fp1;Fp2;O1;O2;POLY3;POLY4;A1;A2;Video;Audio;event;
-486.3114;0;-437.3392;-93.11669;3.396957;0.4331077;-477.2689;-475.0397;0.08419768;0.543127;0;12:45:28 Рука;
-660.0477;0;-609.0632;-234.2646;1.785953;1.035519;-650.0147;-645.7888;0.1490804;0.4126466;0;
-301.7517;0;-285.7384;-61.61591;0.04284616;5.388247;-294.6024;-291.1928;0.08396327;0.02242787;0;
-207.6207;0;-194.2471;63.1958;-1.832231;7.124389;-198.3546;-198.884;0.2138136;0.15234;0;
-67.79478;0;-63.18025;35.52118;-1.428248;4.504896;-60.97426;-62.56509;0.1486314;0.7368931;0;
528.9109;0;489.9802;54.78828;-2.163748;3.629591;526.3543;524.3278;-0.04641996;0.4762832;0;
678.2416;0;639.7249;56.41988;-1.826781;5.434484;674.813;670.2274;-0.176308;-0.04393408;0;
272.7012;0;272.204;53.42717;-1.958667;5.562989;273.274;270.442;-0.04619616;-0.1738246;0;
169.7912;0;171.5434;53.62336;2.999794;-2.01155;167.6149;170.1581;0.2137196;-0.4984867;0;
56.61494;0;64.48729;54.06923;6.747824;-3.550014;56.25234;60.16727;0.01860285;-0.5629531;0;
-487.9183;0;-438.887;-95.03518;-4.109947;-7.163526;-479.6598;-475.374;-0.5011546;-0.1076161;0;
-661.528;0;-611.2966;-239.6794;-5.981828;-9.567592;-652.903;-647.0598;-0.1758143;0.08739409;0;
-297.1711;0;-283.9091;-63.27715;3.201211;-3.596619;-292.4903;-288.8394;0.08423172;0.217241;0;
-193.487;0;-182.7371;69.3448;1.656777;-3.927919;-187.1867;-187.5374;0.01917974;0.3469574;0;
-65.29438;0;-62.61377;40.47709;13.31039;3.242957;-61.9365;-62.97401;0.3439972;-0.04319533;0;
520.4768;0;477.5526;54.61679;17.78401;5.78505;514.5235;512.9873;0.08378217;-0.3679886;0;
672.752;0;631.7451;56.3735;-0.3848878;3.501817;668.304;663.8957;-0.3061061;-0.2376842;0;
257.9092;0;258.2352;53.2559;-2.126789;6.177616;258.7755;255.8709;-0.1758638;-0.1075107;0;
155.7013;0;157.901;53.82707;-9.089901;-4.947514;153.4433;156.0388;-0.1107198;0.1524667;0;
52.22182;0;60.54124;52.52362;-14.37303;-7.219963;52.40228;56.05724;-0.5004126;0.2822482;0;
-493.6813;0;-446.015;-99.76514;-4.04346;-5.136237;-484.8803;-481.354;-0.6948118;0.2169973;0;
-660.7885;0;-615.7938;-240.5941;-3.838326;-8.413117;-652.746;-647.0992;-0.1094075;0.1518119;0;
-302.2419;0;-289.3388;-62.44173;-1.758364;4.991556;-297.6433;-293.7513;-0.174265;-0.10821;0;
-202.4257;0;-187.6615;67.80557;0.722625;7.933668;-194.5209;-194.8807;-0.1740898;-0.1081013;0;
-54.23423;0;-50.97909;40.12632;-0.2834552;1.897476;-48.64867;-50.19504;0.3458238;0.2818114;0;
526.4659;0;485.0527;54.76612;1.190698;3.235106;522.8005;521.1307;-0.04432772;-0.1082759;0;
671.4263;0;632.7408;56.2728;0.921082;-1.255879;667.8895;663.8476;0.02068416;-0.04319972;0;
278.1365;0;277.2209;53.77999;0.5189909;-1.589532;277.8516;275.0007;0.6053694;0.2167131;0;
174.7213;0;174.369;53.10126;3.197787;-4.200147;170.3138;172.963;0.08502244;-0.1733087;0;
56.48013;0;63.43693;54.98443;3.394668;-5.937483;54.20098;58.65909;-0.04499767;0.02176742;0;
-491.1139;0;-444.1217;-95.3078;0.4444964;0.9676033;-483.4583;-479.0671;0.6047209;0.2166476;0;
-665.3451;0;-622.1483;-241.1387;0.5777716;1.770426;-656.3853;-650.1245;0.2792766;0.02152785;0;
-298.9854;0;-290.7519;-62.611;-4.580373;3.778013;-294.9071;-289.5896;-0.2407427;-0.2383631;0;
-192.8631;0;-184.9503;67.1992;-5.647497;4.310081;-187.6021;-186.9751;0.1493032;-0.303091;0;
-61.6727;0;-63.88768;36.77193;-5.03861;8.592535;-58.60334;-60.47571;0.08418585;0.2169523;0;
526.2188;0;480.9027;54.601;-7.445421;11.26322;519.6649;517.4821;-0.2407354;0.2817017;0;
680.6746;0;635.4041;56.73254;7.030374;-0.6038334;673.3152;668.9482;-0.04559153;0.08651659;0;
269.3221;0;261.5157;53.11483;11.04277;-2.679576;265.7182;262.6674;-0.3703824;0.4112664;0;
168.9143;0;163.4896;54.18589;2.591584;-3.547661;161.9408;164.0155;-0.3050429;0.5407878;0;
60.11172;0;61.56399;51.88257;3.660707;-6.156431;55.58144;58.15378;0.150035;0.1504404;0;
-494.4825;0;-452.6144;-103.2791;-3.309196;-1.19363;-488.451;-485.9437;0.2148516;0.1502892;0;
-663.2755;0;-626.6345;-243.6047;-6.855844;-0.9244989;-655.5634;-650.9972;0.1496683;0.4749749;0;
-301.6655;0;-300.8557;-62.20102;0.6531326;0.2151399;-298.209;-296.0212;0.34442;0.2795956;0;
-200.4756;0;-195.4813;66.10952;0.987269;1.018719;-195.7107;-197.5231;0.08420454;0.2143473;0;
-47.03864;0;-49.60807;37.86975;-2.965838;4.165771;-44.21514;-46.90024;-0.3706515;0.1491646;0;
535.7157;0;490.108;55.13551;-2.560716;6.907886;529.7908;526.9835;0.01952502;-0.5006587;0;
666.9862;0;625.9221;56.45441;-4.233083;-0.8019707;660.8173;656.5135;0.2144074;-0.3052536;0;
268.5784;0;265.2866;53.52414;-4.295202;-1.872892;266.2263;263.3637;0.0842573;-0.1750122;0;
173.1064;0;171.0672;53.65776;1.134121;2.014;167.8207;169.8959;0.4090093;-0.5646404;0;
46.87083;0;52.14253;53.54137;3.210063;1.811028;44.27655;48.16129;0.343631;-0.04433431;0;
-500.0889;0;-463.7131;-98.74841;2.603625;2.612881;-492.9354;-489.9292;-0.0465183;0.3455143;0;
-659.381;0;-627.5396;-240.9527;2.399938;1.806583;-651.2978;-647.2325;0.1484305;0.08529776;0;
-296.9628;0;-289.0788;-60.23875;11.10506;6.158536;-292.6983;-290.1989;0.3431833;0.2801141;0;
-190.1555;0;-178.8436;70.0688;13.90694;7.492006;-184.396;-186.3343;0.01800181;0.3448;0;
-49.47253;0;-47.7922;40.01347;6.324509;1.791051;-46.03014;-49.40332;-0.04698362;-0.1752852;0;
532.5971;0;490.4228;54.71585;6.318154;2.124166;528.3524;525.2325;-0.3068058;-0.1751091;0;
679.238;0;636.7937;56.34753;-0.8554901;-5.312952;675.1849;670.6314;-0.5663669;0.1499036;0;
266.2627;0;263.9659;53.54229;-4.404604;-8.455689;265.5871;262.5373;-0.04605904;0.1497529;0;
163.1719;0;165.9998;53.73837;1.025805;-1.012331;160.6228;162.6986;-0.04601276;-0.04529958;0;
55.56192;0;63.75932;53.18462;-0.6501647;-1.413212;56.51369;59.83672;-0.1759012;0.2146153;0;
-494.5299;0;-456.106;-100.4791;4.374331;2.339252;-484.4587;-481.8886;0.2140796;0.6042037;0;
-662.8856;0;-629.8726;-241.3073;6.44604;3.676439;-653.4492;-649.4449;0.5387012;0.4736619;0;
-299.5894;0;-292.7838;-59.71849;-2.066903;1.663379;-295.1599;-292.7214;0.6680946;-0.04655275;0;
-198.0892;0;-188.6668;67.65252;-3.739766;2.264554;-191.7277;-192.8523;-0.1121848;-0.3063754;0;
-47.5907;0;-48.98485;37.66208;-1.123064;-3.900029;-43.3595;-45.85731;-0.6967782;0.2136713;0;
536.3511;0;492.6046;54.74063;-2.462082;-6.441462;531.77;528.5875;-0.111372;0.4733259;0;
667.2462;0;627.2292;56.62216;-3.463986;-6.368007;662.2323;657.9286;-0.1762274;0.08304627;0;
266.1519;0;265.7179;53.37936;-4.599581;-8.772872;265.5785;263.3405;-0.111083;-0.1119392;0;
172.9937;0;172.9974;53.76301;-6.537343;-7.960262;170.7966;172.6839;0.2788327;0.01810795;0;
47.94515;0;55.50755;53.83393;-7.066637;-8.086229;47.37445;49.6971;0.1486178;-0.1118449;0;
-501.7642;0;-457.4154;-99.64305;-12.08338;-11.96311;-494.5883;-491.0186;0.2784032;-0.2416672;0;
-659.8679;0;-624.9963;-239.1602;-13.67883;-12.08506;-651.5746;-645.2599;0.1481887;-0.3063917;0;
-299.1358;0;-294.7216;-57.38619;-12.59336;-10.53231;-294.5366;-290.5395;-0.3067316;-0.6958879;0;
-199.1353;0;-187.2293;69.23286;-14.12094;-9.048101;-192.8541;-192.9215;-0.3064233;-0.6302214;0;
-55.88214;0;-53.98306;39.61565;-8.614398;-8.570129;-52.23088;-53.17281;0.1486559;0.08505266;0;
531.2539;0;485.9873;55.31792;-8.136252;-8.427552;525.2189;523.6532;0.6682453;0.2149019;0;
673.9606;0;628.8019;56.38678;-6.520486;2.163975;667.8067;664.1812;0.5376391;0.3446206;0;
260.8657;0;255.295;53.3941;-4.035688;5.309877;258.6535;256.7807;0.2772296;0.6691111;0;
166.6508;0;163.0847;54.09007;-15.48584;3.830917;161.13;163.7568;0.08204899;0.2786347;0;
57.41319;0;59.41041;52.34907;-17.21159;5.970521;53.45963;56.83344;0.01699921;-0.1114493;0;
-499.3647;0;-461.6999;-104.1249;-16.52471;-2.609049;-494.2563;-491.0108;0.3418188;-0.1763047;0;
-661.0314;0;-628.277;-240.6391;-18.78528;-5.084796;-655.1161;-649.8124;0.08160601;-0.2410949;0;
-292.8019;0;-288.7535;-55.6152;-10.92952;-3.070199;-290.3908;-287.1539;0.1464913;-0.1758853;0;
-197.6179;0;-189.888;69.56529;-9.846815;-4.80867;-191.9608;-193.0375;0.6011155;0.1491282;0;
-46.87003;0;-49.89243;38.94825;-6.89016;-5.004787;-43.77985;-45.60508;0.01580547;0.4088477;0;
541.9436;0;496.758;55.27588;-3.600707;-6.071485;534.9733;532.5251;-0.3740145;0.2785022;0;
665.8365;0;624.8192;56.28231;-11.76876;-3.45305;659.4354;654.6784;-0.243704;0.1482877;0;
264.0566;0;261.9359;53.66454;-12.69494;-2.177027;262.5969;259.5938;0.01641027;-0.1117307;0;
176.3352;0;177.6525;53.92296;-7.859415;-4.586103;172.6906;174.3757;0.2762631;-0.1765858;0;
44.84906;0;52.97407;52.99422;-6.779791;-3.509768;43.33203;45.95246;0.1460509;0.08346102;0;
-501.7963;0;-457.4476;-94.60986;-10.79244;-3.372275;-494.6286;-492.2607;0.2108715;-0.1115249;0;
-651.2167;0;-608.3494;-228.3225;-11.71863;-2.431126;-642.9943;-638.8796;0.4055616;-0.2413475;0;
-296.9276;0;-285.65;-52.49389;-6.683987;0.8533586;-292.524;-290.1626;0.2752194;0.1486991;0;
-198.9283;0;-189.0364;70.05978;-6.810992;2.125177;-192.7801;-194.6065;-0.04989384;0.213517;0;
-47.11717;0;-46.91781;40.94149;-1.579236;5.806981;-42.91164;-45.73566;-0.114811;0.3432371;0;
535.6998;0;495.1694;55.01826;1.369112;7.073822;532.0925;529.0214;0.3400757;0.2129576;0;
664.9088;0;628.0423;56.39975;-10.35391;10.28177;662.1797;656.9253;0.2097993;-0.2420278;0;
251.1358;0;253.2243;53.40706;-13.35762;12.07998;251.7828;248.2828;-0.05028086;-0.1768173;0;
162.9901;0;165.2015;53.97808;-7.650768;5.168723;160.5755;162.3264;0.209639;-0.1116723;0;
53.69371;0;60.33812;52.79941;-8.78118;3.288007;53.90517;57.15357;0.4043304;0.01837461;0;
-502.7056;0;-457.7746;-103.2377;-10.58102;2.815823;-493.6238;-490.3162;0.4688915;0.5380949;0;
-662.5574;0;-630.9149;-238.3785;-10.90518;0.5356955;-652.86;-647.8691;0.208551;0.08278282;0;
-296.5128;0;-308.88;-54.10651;-14.57889;-0.7375185;-291.0106;-287.8362;-0.3113973;-0.3720718;0;
-199.2636;0;-200.1866;69.88557;-15.16648;-2.612178;-192.2052;-192.9696;-0.1161824;0.0830735;0;
-43.82888;0;-41.81495;40.01782;-14.75008;-4.15016;-39.65114;-40.35229;0.1438037;-0.306814;0;
548.9172;0;507.326;55.46982;-14.33311;-5.820563;544.2202;542.9576;-0.3760795;-0.1765711;0;
672.9905;0;633.3777;56.16371;-12.77847;-7.154374;669.3602;665.1003;-0.3107343;0.4083124;0;
258.8347;0;258.8667;53.79594;-12.56456;-9.491466;259.6432;258.1987;0.469186;0.2130001;0;
168.9321;0;173.1495;53.92929;-4.848774;-4.927211;167.3661;171.6702;0.1438779;0.1478188;0;
44.94962;0;56.65902;53.43782;-2.097236;-3.515619;46.07133;50.99574;0.2087007;0.4075396;0;
-506.6933;0;-467.7593;-95.72842;-2.430897;-14.09515;-496.5147;-492.5948;0.5333276;0.4071301;0;
-651.861;0;-621.8367;-229.1276;0.6530039;-15.48762;-641.2554;-636.902;-0.1168816;0.1468517;0;
-290.1999;0;-282.757;-51.23671;-7.98784;-15.80698;-283.603;-280.8157;-0.2466989;0.2116715;0;
-200.3283;0;-187.0833;70.50361;-9.654754;-17.26472;-191.3017;-192.5153;0.3382551;0.4063608;0;
-40.83212;0;-38.84472;40.82265;-3.348413;-9.745404;-34.1884;-36.46273;0.4028825;0.08111577;0;
551.2238;0;511.4802;55.27435;-3.412397;-7.659141;548.9904;546.7183;-0.1822284;-0.1138678;0;
664.8001;0;629.6566;56.15584;0.3420758;-4.436386;663.0061;658.3625;-0.3769473;-0.243688;0;
250.3401;0;253.3378;53.60067;2.284115;-0.6810064;251.8587;249.3438;-0.05173181;-0.5033125;0;
165.3187;0;168.001;53.85915;-1.736668;-4.230296;163.4625;166.01;-0.1816145;-0.5028068;0;
42.65163;0;52.88995;52.868;-3.075069;-3.623199;43.98322;46.59064;-0.376334;-0.3073996;0;
-504.991;0;-461.2798;-98.10925;2.688797;1.671972;-494.0406;-492.3103;-0.2460212;-0.2421234;0;
-651.5347;0;-619.7989;-232.0683;3.088236;3.009828;-640.8451;-636.6179;-0.050872;-0.1119454;0;
-292.3727;0;-288.8421;-52.48775;-3.47895;1.332353;-285.3795;-282.0311;0.01414646;0.08306913;0;
-194.5654;0;-183.0424;70.44072;-5.418813;1.063082;-185.3929;-186.608;0.2090343;-0.1119164;0;
-34.2629;0;-33.12128;40.63489;-9.431856;2.33469;-28.59783;-30.87371;0.1438569;-0.04683658;0;
549.728;0;507.3903;55.27418;-12.30277;2.600276;546.0795;544.3057;-0.3760264;0.2130799;0;
665.4922;0;626.7578;56.28061;-13.4285;-0.8854496;661.4101;657.7015;-0.5055832;0.2778331;0;
253.4677;0;254.7521;53.60037;-15.3574;-1.755338;252.9505;250.4325;-0.05030384;0.2125866;0;
170.0674;0;172.0376;53.79639;-13.93544;-2.088489;166.1149;168.472;0.07968139;0.0824383;0;
49.58194;0;57.60968;52.99271;-13.45293;-3.626876;47.63241;50.98666;-0.05033335;0.01738811;0;
-502.0656;0;-462.187;-96.36049;-15.24807;0.79752;-494.7054;-491.9792;-0.05028278;0.082338;0;
-648.7372;0;-623.2664;-229.3842;-15.29912;1.198616;-642.1964;-637.7863;0.01473508;-0.2425815;0;
-290.8899;0;-294.0552;-51.24319;-9.992465;-0.6781103;-287.8539;-285.1974;-0.1801817;-0.502207;0;
-195.7078;0;-190.5617;71.62156;-8.040041;-0.5434631;-188.7393;-190.8955;-0.4398701;-0.3717678;0;
-27.78292;0;-33.01178;42.25182;-9.572204;-4.025908;-23.82;-26.84859;-0.3094934;0.01840983;0;
559.075;0;512.8096;55.20284;-8.960349;-5.093589;553.4763;551.4502;-0.1142804;0.148326;0;
668.3955;0;627.174;55.95946;-7.411105;-4.820539;663.3646;659.4041;-0.1791329;-0.1766597;0;
257.7425;0;255.293;53.90424;-6.666724;-4.748713;257.3393;253.945;0.08091646;-0.3064169;0;
174.2129;0;174.5769;53.53773;-8.46771;-6.619463;171.3738;173.0428;0.4706392;-0.111207;0;
45.78979;0;50.15142;54.04615;-8.124409;-7.014709;45.45234;48.30659;0.2752643;-0.04612791;0;
-510.3517;0;-478.3833;-96.68241;-9.121599;-1.247251;-501.5059;-498.7795;-0.1148164;0.1488205;0;
-655.1409;0;-631.5129;-232.8918;-8.911364;0.897456;-646.3665;-641.2065;-0.4395377;0.6034423;0;
-288.3541;0;-289.425;-52.99805;-8.500267;0.226725;-284.2112;-281.0554;-0.1142593;0.3429666;0;
-193.7368;0;-185.3114;70.8055;-9.02759;0.8963265;-187.9114;-189.6313;0.1457248;-0.1771167;0;
-36.12124;0;-35.38795;40.37461;-1.115265;6.253938;-33.30018;-35.01836;0.01564372;-0.2419061;0;
554.6806;0;512.6846;55.07664;1.02931;8.390986;548.8782;547.5365;0.1455627;0.01820632;0;
669.6277;0;630.6099;56.33314;1.364044;3.760855;664.8931;661.6162;0.5352204;0.5379268;0;
252.1019;0;251.4791;53.34051;4.576878;3.824059;251.9947;250.7201;0.404748;0.2125496;0;
164.8923;0;166.2691;54.22394;-6.948297;0.002311095;161.7867;164.9487;-0.1803648;0.08240131;0;
38.7899;0;50.5351;52.17046;-10.42394;-2.676887;38.62345;41.34501;-0.5699876;0.1472858;0;
-512.0347;0;-463.9446;-100.6177;-0.0983382;4.42575;-501.9561;-500.1743;-0.4394802;-0.1776989;0;
-651.3874;0;-613.9653;-230.4513;-0.9025226;5.359064;-640.7568;-637.6649;-0.3091039;0.08234906;0;
-292.8503;0;-284.2013;-49.62299;0.4385309;-0.07181624;-285.916;-284.264;0.08101074;0.01729896;0;
-202.9136;0;-188.4013;70.61646;1.107676;-0.8755392;-193.6749;-194.8982;0.01596199;-0.3075551;0;
-33.10746;0;-32.35279;41.37266;-5.591243;0.5319821;-26.81407;-28.72325;-0.2439234;0.01759061;0;
557.9412;0;514.4673;55.32406;-6.256186;-0.1383818;554.4207;551.7639;-0.178711;0.0825403;0;
665.5137;0;626.3939;55.95562;-12.14342;2.20616;661.8094;656.6564;-0.3734334;0.01749;0;
254.8636;0;256.8874;53.65053;-13.93988;3.476497;255.9731;251.5749;-0.0482215;0.1474071;0;
170.7122;0;174.9204;53.78403;-11.04549;-2.823148;168.8845;169.2384;-0.1131404;-0.04764303;0;
35.17122;0;45.99683;53.35517;-10.09736;-4.15997;34.40731;36.82229;-0.6327654;-0.1125625;0;
-513.9631;0;-466.167;-95.93593;-8.747066;-0.8737483;-506.2305;-503.0059;-0.2423256;0.2123873;0;
-646.0051;0;-611.0005;-225.7742;-8.805626;-1.341751;-637.0933;-632.7475;0.147722;0.3421086;0;
-290.1595;0;-293.1086;-48.199;5.336743;2.008744;-284.2552;-283.0996;0.5373776;0.2118302;0;
-200.9751;0;-196.9248;70.60223;8.746656;4.016091;-193.3276;-197.1082;0.7317396;0.08168264;0;
-32.7951;0;-34.7458;41.60833;4.183516;-1.145508;-29.90294;-33.74221;0.2112657;-0.1782688;0;
555.2548;0;510.3901;55.37209;3.308656;-1.077374;547.1496;544.3137;-0.1137833;0.01681233;0;
664.6416;0;624.2573;56.0036;-0.9142271;0.4643163;656.8569;652.0873;-0.3735384;-0.0481719;0;
247.5581;0;245.0078;53.57352;-2.520899;0.06195213;244.4663;241.3257;-0.373163;-0.3729602;0;
163.7888;0;159.9293;53.8945;-17.65627;4.147727;158.014;159.874;0.08198331;-0.04774875;0;
44.49661;0;49.1367;52.71592;-21.12212;4.411491;41.35129;44.084;0.0169336;0.01726657;0;
-509.9569;0;-468.9023;-103.8834;-28.46829;4.541024;-503.6039;-500.9988;0.08188392;-0.5674568;0;
-650.1863;0;-617.1689;-236.3998;-32.05701;3.866632;-643.7771;-638.9258;0.2117363;-0.3719846;0;
-281.0932;0;-278.0939;-51.3177;-18.56086;2.858003;-279.6879;-276.4657;0.08158889;0.2780626;0;
-195.7285;0;-189.109;68.61111;-17.87263;2.520338;-191.9509;-192.8548;-0.1133951;0.4077179;0;
-32.73865;0;-36.37069;38.4323;10.4114;-10.14172;-30.40159;-31.49203;-0.3081832;0.3423408;0;
557.2477;0;513.3271;55.44762;22.99324;-15.75798;550.462;549.4976;-0.3078735;0.08212747;0;
656.4501;0;619.0704;56.20399;9.372478;-9.914751;649.6713;646.1466;-0.3725315;-0.2427918;0;
252.8681;0;252.5697;53.46137;14.58797;-11.31143;250.4063;248.2595;-0.2422225;-0.04764579;0;
179.4633;0;177.7284;54.09481;5.329915;-14.44814;174.7551;176.9208;0.2777596;-0.1775326;0;
37.2918;0;43.30483;52.3538;1.439793;-13.89776;35.21206;37.68792;0.4723825;-0.1123869;0;
-515.5303;0;-469.481;-99.1227;8.805737;-18.23756;-508.9248;-506.4514;0.5368752;0.2125628;0;
-640.8865;0;-599.631;-229.2701;5.716406;-19.157;-633.8504;-630.3176;0.4713684;-0.1124875;0;
-285.6708;0;-278.752;-49.6924;7.250904;-10.16228;-281.7652;-280.8596;-0.1138113;0.2124622;0;
-198.9897;0;-190.0164;70.42218;5.904448;-7.740685;-192.6517;-195.9324;-0.1786643;0.3421834;0;
-18.75523;0;-19.34867;42.17808;2.14747;-4.383883;-15.2347;-19.38665;0.146352;-0.3078338;0;
567.0317;0;524.0851;55.56644;2.747549;-0.8964871;561.7406;557.9677;0.2761396;-0.04765516;0;
663.3507;0;622.7587;55.82296;-11.92362;-3.038918;658.5647;653.2338;0.2758621;0.2772295;0;
254.327;0;248.5082;53.7054;-17.404;-1.29443;252.9815;249.5925;-0.2441538;0.1470162;0;
170.7383;0;165.7375;53.90131;-3.119265;-3.235513;166.5831;168.4449;-0.3738432;-0.1130009;0;
39.69501;0;44.94409;52.47284;-2.111753;-3.902091;39.04226;41.40189;-0.0486308;-0.1128874;0;
-511.9426;0;-466.0942;-102.4395;-1.774838;0.924479;-503.2869;-501.4294;-0.3084513;0.4069648;0;
-650.9831;0;-613.8014;-233.0209;0.9062622;1.794328;-642.7109;-638.6688;-0.5030434;0.4065559;0;
-287.2614;0;-286.1615;-49.87872;-1.439173;1.122696;-283.5577;-281.2689;-0.3076359;0.08131069;0;
-198.8921;0;-190.9217;68.36199;0.3035853;1.791397;-193.1306;-195.2793;-0.2423595;-0.3085751;0;
-29.21493;0;-31.12261;38.74565;-1.103239;-0.2198908;-26.83258;-29.04159;-0.2421159;-0.308265;0;
567.6394;0;519.382;55.51077;-1.235853;-1.559329;560.5242;558.5673;-0.4367747;0.1468161;0;
666.644;0;623.5574;56.32956;3.654533;1.054573;660.5978;656.0817;-0.7611725;0.2766033;0;
254.1187;0;252.0548;53.52434;4.321423;-0.2861456;252.8887;248.6894;-0.5005383;0.01645598;0;
175.9025;0;175.6523;54.15771;6.795327;0.8528517;172.1126;172.7901;-0.240166;-0.3083973;0;
30.73617;0;39.60664;52.72898;8.261392;1.186909;29.1364;31.68727;-0.10999;-0.3080874;0;
-518.5811;0;-471.6137;-97.06123;4.301951;-8.325616;-511.6835;-509.7599;0.2149572;-0.04790845;0;
-634.5015;0;-600.2625;-222.0883;3.426972;-9.991823;-627.5484;-624.3773;0.01983921;0.08207438;0;
-284.1023;0;-286.1294;-45.39136;3.08776;-13.53176;-280.7793;-279.4855;-0.04514807;0.08199192;0;
-207.7301;0;-202.009;67.41007;1.142275;-15.39368;-201.412;-204.992;0.2147667;-0.04802517;0;
-19.74071;0;-21.77153;40.29343;5.361662;-9.952719;-15.92771;-20.37871;0.08461618;0.01699043;0;
573.1061;0;528.2239;55.68269;7.699823;-9.07194;567.4201;562.8486;-0.2403055;-0.04799398;0;
658.5496;0;619.5845;56.00155;-5.23501;-2.9675;653.369;646.928;-0.3050314;-0.04794576;0;
246.4696;0;246.9614;53.44654;-7.506926;-0.8881693;245.1048;241.0442;-0.04485557;0.01706976;0;
170.1352;0;171.3136;54.32986;0.2701497;5.877877;165.461;166.7767;-0.2397125;-0.04791474;0;
36.4064;0;47.07885;51.46418;0.3372272;9.756859;34.48545;36.73688;-0.4343737;0.08206811;0;
-519.101;0;-472.7072;-109.3817;9.714011;1.039518;-511.2124;-509.588;-0.1091005;-0.04794905;0;
-646.2652;0;-614.9105;-236.8951;13.72371;0.3686445;-638.0722;-634.8252;-0.04402355;-0.1128682;0;
-272.9906;0;-273.0891;-47.62713;9.288319;-4.454375;-268.7414;-267.1218;-0.04397931;0.08214723;0;
-192.1318;0;-182.0479;69.73676;9.882198;-7.93289;-185.0758;-188.143;0.02103222;0.2769667;0;
-26.83426;0;-28.75441;39.55682;11.54721;-5.781587;-23.53344;-26.84742;-0.2388583;0.1467537;0;
569.5804;0;523.4969;55.82138;12.00412;-7.383246;563.0079;560.6343;-0.4984877;-0.4380998;0;
662.1488;0;623.8577;56.01516;6.700772;-9.117383;657.5194;652.8368;-0.2381174;-0.3077249;0;
243.9433;0;245.6706;53.3352;5.421242;-10.71581;244.2536;241.1375;0.08695858;0.01742099;0;
166.9243;0;168.8997;54.46851;-0.07656199;-7.155072;164.6106;167.0573;0.2817732;-0.3074332;0;
26.51458;0;35.79683;51.47776;-4.631813;-6.812968;26.82686;30.27059;0.3464575;-0.3720917;0;
-518.9254;0;-469.6726;-96.18727;7.697701;-8.145658;-509.3681;-507.0522;0.02127261;0.08305363;0;
-628.8484;0;-582.7061;-215.2807;9.632349;-7.266696;-618.2388;-614.2386;0.1511859;0.2778722;0;
-274.8942;0;-261.4693;-39.83997;0.1781994;-11.21139;-267.4186;-264.422;0.08606666;-0.04724373;0;
-198.2189;0;-185.8694;71.76898;-1.228499;-10.53029;-188.1271;-190.3184;-0.1738892;-0.3070656;0;
-12.48798;0;-13.33178;43.58599;-0.5576795;-14.60555;-5.404851;-8.968223;-0.04377977;0.1480143;0;
574.0422;0;531.8451;55.41123;-2.097361;-16.26545;571.6855;568.8129;-0.3036051;0.0179309;0;
657.2358;0;621.1405;55.73037;-1.894182;-4.728282;654.819;650.7623;-0.3033001;-0.5018258;0;
248.593;0;249.328;53.92525;-2.09335;-2.513094;249.7393;247.2485;-0.3679627;-0.1764849;0;
171.8817;0;172.366;53.68366;-9.123844;1.240353;170.0908;171.6629;-0.2376583;0.01859445;0;
33.71583;0;43.07023;52.75516;-11.86134;4.454165;34.55042;37.30785;0.2823193;0.01857577;0;
-516.9163;0;-469.1531;-98.90914;-6.289719;0.8327334;-508.0865;-504.3949;-0.04280111;0.1484918;0;
-639.0852;0;-599.0536;-224.8714;-5.613814;1.501726;-630.4518;-625.327;0.1521439;-0.2414615;0;
-267.3796;0;-262.1208;-45.11069;-7.148415;-2.853552;-261.6284;-258.945;0.2819257;-0.3711535;0;
-186.0267;0;-178.3369;69.68946;-5.198849;-5.061121;-178.5321;-179.7245;-0.3030636;0.01902346;0;
-26.66976;0;-29.10762;40.50907;-12.02613;-5.39095;-22.8059;-24.74675;-0.2377918;0.148939;0;
564.9347;0;519.7708;55.58577;-15.49667;-8.265677;560.299;558.4225;-0.1076181;0.01885469;0;
660.881;0;621.4471;56.27953;2.001326;-5.913092;657.7491;654.5628;-0.1724773;-0.1110989;0;
243.9262;0;243.6997;53.34943;4.878727;-6.911894;245.1078;243.5488;0.08756533;-0.3058893;0;
169.4059;0;168.3676;54.35779;-0.4848098;-9.517161;166.7133;169.6536;0.02251;-0.1106799;0;
27.61941;0;35.95241;51.80443;2.262344;-9.842513;27.42825;31.30263;-0.3673167;-0.1105687;0;
-525.5053;0;-479.6995;-98.73448;-12.14089;-15.05717;-516.5759;-512.7054;-0.1070782;-0.5002617;0;
-630.7991;0;-598.0953;-217.3256;-15.27653;-16.44868;-621.7537;-616.7626;0.08793139;-0.499759;0;
-267.5351;0;-268.7845;-39.25914;-12.24707;-15.15948;-261.997;-259.822;0.0228757;-0.1744201;0;
-194.6152;0;-188.3672;70.84998;-15.58366;-15.41218;-187.0837;-189.4712;-0.107082;0.4104612;0;
-10.44967;0;-12.76615;43.23014;-1.16704;-12.38246;-6.67384;-9.933464;-0.3018764;0.3450814;0;
574.9541;0;532.5975;55.93029;2.049313;-11.03048;569.6682;566.4743;-0.4315078;0.1498327;0;
653.2742;0;618.269;55.43681;-1.235276;-7.804217;648.6808;644.1158;-0.3661068;0.2796168;0;
252.1941;0;254.3304;53.8194;1.11049;-4.849248;251.7906;249.4166;0.2189671;0.01946644;0;
177.0408;0;181.1116;53.76532;-4.852473;-6.518949;175.0136;177.2647;0.4136491;0.01944688;0;
23.25263;0;38.876;52.27452;-5.985697;-5.306706;24.85064;27.84907;-0.1714726;0.2792967;0;
-527.244;0;-473.0932;-98.32733;-6.449173;-3.425852;-516.9645;-513.8441;-0.04136562;0.08411406;0;
-638.9078;0;-591.0583;-221.0418;-8.184005;-3.489392;-628.3263;-623.5849;-0.04132405;0.1489969;0;
-271.3878;0;-257.3819;-42.09703;-9.313882;0.5999507;-264.6275;-262.2022;-0.2361846;0.2138145;0;
-190.718;0;-177.5383;71.82552;-12.18491;1.202194;-183.0275;-185.1023;0.1538568;0.01869763;0;
-22.86067;0;-23.99945;43.45508;-4.403135;-1.210399;-18.801;-21.81082;0.2186696;-0.0462885;0;
566.741;0;521.9377;55.53032;-2.388979;-1.008234;561.3013;558.9817;0.08851516;0.2136274;0;
658.6875;0;621.3631;55.7244;-12.30054;-8.442082;654.1279;649.999;0.4132629;0.2134127;0;
243.6714;0;246.7392;53.48201;-12.82404;-11.31387;244.6761;241.7382;0.08801097;0.08326362;0;
166.0904;0;168.1557;54.11542;-14.81991;-8.489215;163.7833;165.9083;-0.2369142;0.278082;0;
22.80799;0;33.36687;51.31243;-16.07782;-9.820343;22.25225;25.68702;0.3480299;0.1478679;0;
-531.1865;0;-482.8447;-104.5983;-10.36824;-8.671766;-522.059;-518.6902;0.6075495;-0.2420848;0;
-639.5355;0;-605.0479;-226.6818;-9.085023;-8.930984;-630.1049;-625.2402;-0.04273427;-0.3068089;0;
-270.7654;0;-269.6082;-42.35904;-5.525921;-6.845662;-265.4672;-262.294;0.02227601;-0.4364353;0;
-194.1567;0;-184.3175;72.31341;-2.908401;-5.298175;-186.3651;-188.1301;0.6069596;-0.2410947;0;
-13.86468;0;-15.59206;43.19285;-1.766402;-8.976791;-9.266762;-12.65421;0.6713172;0.08398428;0;
569.7934;0;526.4636;55.64317;0.5125483;-7.896044;565.2662;562.6318;0.08593655;-0.1110021;0;
647.8063;0;611.0169;55.77466;-0.4259717;-9.361734;643.846;640.2147;-0.1090518;-0.04592327;0;
245.4199;0;245.149;53.46975;-0.3581947;-8.682499;244.8993;243.583;0.1509271;0.08405757;0;
173.5842;0;174.8129;54.35305;1.98669;-5.190784;170.8778;173.8107;0.08580813;-0.1109289;0;
21.6736;0;32.7711;50.23798;2.118415;-4.113842;22.40562;25.2731;0.2156566;-0.04585013;0;
-533.1318;0;-486.0636;-107.2334;-0.02716701;5.06671;-524.0922;-520.9777;0.3453746;0.149098;0;
-638.7927;0;-606.9517;-227.1903;-0.764074;8.812541;-630.1995;-625.0267;0.2800602;0.3438502;0;
-269.7735;0;-275.5706;-41.99247;-2.370897;8.267944;-264.5623;-262.0808;0.01990943;0.408472;0;
-196.2893;0;-192.023;70.61815;-3.0381;10.20202;-188.5845;-190.6032;-0.1750126;0.01825753;0;
-19.24343;0;-20.10388;41.74916;-3.638259;9.320991;-14.98214;-17.62357;-0.4996735;-0.04672816;0;
575.6644;0;531.5765;55.45031;-3.433533;9.244642;569.9264;567.2252;-0.5641387;0.01828614;0;
653.2342;0;616.8118;55.7694;-3.563805;6.690124;648.5015;644.4286;0.0211342;-0.3715363;0;
233.476;0;237.3824;53.4645;-3.225431;5.27676;233.0583;231.3634;0.216015;-0.1112936;0;
167.8992;0;171.8017;54.03546;0.662576;2.257348;164.0462;166.5384;-0.1090388;0.08372027;0;
27.05121;0;38.82087;51.7323;1.599915;-0.4242376;26.07567;29.25249;-0.1089292;-0.04629855;0;
-531.7576;0;-492.0763;-106.0529;8.22974;0.3130009;-523.4868;-520.2507;0.08608227;-0.04625203;0;
-640.9182;0;-615.2697;-228.6971;12.10624;-1.964611;-632.968;-628.0485;0.2808978;-0.2411076;0;
-276.0197;0;-274.6973;-42.74819;4.659333;0.1806946;-272.263;-269.5973;0.2156482;-0.565702;0;
-200.5302;0;-192.0252;70.67527;4.989444;-0.1544017;-195.0281;-197.2377;0.2154315;-0.5001662;0;
-13.735;0;-17.66983;41.74376;7.328955;-4.441032;-11.73667;-14.19387;0.02031304;-0.1098596;0;
574.6705;0;530.6973;55.88219;8.25862;-4.637518;567.2966;565.2167;-0.1096421;0.2150875;0;
645.932;0;609.8115;55.82604;7.112222;-11.59896;639.5649;635.1133;-0.2394666;0.2148713;0;
238.6124;0;240.3217;53.2712;6.033349;-13.93159;236.7495;234.7386;-0.434128;0.1496881;0;
169.9695;0;170.2403;54.34211;17.61423;-10.8365;164.7352;167.8487;-0.1088551;-0.1103317;0;
15.18893;0;23.26805;49.97717;21.14749;-12.16514;12.08377;15.88135;-0.2386804;-0.2401555;0;
-538.3606;0;-490.4346;-107.9312;12.95359;-4.584094;-532.2797;-528.6109;-0.1085059;-0.1099795;0;
-633.1467;0;-590.9536;-224.2018;11.46768;-1.766204;-626.3224;-621.6577;0.1514725;-0.2398037;0;
-265.9448;0;-258.4641;-38.19485;14.13547;-6.587201;-262.3132;-259.7147;-0.4333857;0.02030663;0;
-196.8372;0;-189.0517;70.47642;11.97782;-5.508855;-191.3976;-192.5499;-0.1081136;0.08525359;0;
-9.483466;0;-16.38589;42.04486;10.49191;-7.043805;-8.734538;-10.38537;0.02192976;-0.2396688;0;
574.42;0;524.5462;55.80817;9.208572;-7.10371;565.8604;564.0239;-0.497831;-0.43433;0;
638.3105;0;598.3568;55.68963;-1.048459;-4.95324;631.8834;627.4249;0.08737528;-0.6287956;0;
233.8096;0;232.0643;53.44727;-3.794072;-4.010502;231.3245;228.6821;0.4770916;-0.04345772;0;
164.7343;0;160.492;54.01825;-8.478333;-3.202677;158.5035;160.9863;0.1517754;0.541292;0;
11.0834;0;18.33962;51.21535;-11.75234;-2.395664;8.232213;11.71195;0.151623;0.1509441;0;
-542.1497;0;-495.6704;-111.192;-1.224336;-0.3838911;-535.6902;-531.9641;0.3463726;-0.109077;0;
-645.6151;0;-614.175;-233.2689;1.791004;-0.8523859;-639.3495;-634.1904;0.3460246;0.02096733;0;
-273.3407;0;-278.2265;-42.50523;3.464144;6.382505;-270.6421;-268.2992;0.02084019;0.2808156;0;
-199.9778;0;-196.9876;69.73108;7.5465;8.38558;-193.7212;-196.3782;-0.04414809;0.02066409;0;
-21.49146;0;-28.24942;40.2383;10.88782;0.2723414;-18.42706;-21.83097;0.02086361;-0.4990954;0;
569.608;0;522.6271;55.93996;14.3595;-0.5317274;562.2996;559.5862;-0.109092;-0.3036919;0;
640.3748;0;602.3741;56.07116;17.69398;-7.497174;634.448;630.2382;-0.1089824;0.216352;0;
230.9368;0;229.2061;53.07879;20.28914;-11.03974;229.5762;227.557;0.2159638;0.281102;0;
161.1772;0;160.3853;55.08692;18.1253;-9.153121;157.3817;159.9247;0.08581211;-0.04401721;0;
-0.1536891;0;3.365452;46.91065;16.96801;-11.28738;-1.0094;2.280675;-0.2391108;0.08596171;0;
-552.0012;0;-520.7495;-117.9286;20.0988;-8.127839;-545.5472;-541.6982;0.1509335;0.02090798;0;
-640.5892;0;-612.3674;-230.8783;19.27529;-8.722518;-634.8289;-629.1721;0.2157492;-0.2389824;0;
-275.5037;0;-271.1108;-39.49242;16.77768;-4.159037;-273.2474;-269.6578;-0.04433699;-0.1737749;0;
-206.8238;0;-198.125;69.11769;17.43041;-1.274713;-202.071;-202.9828;0.1506096;-0.1736003;0;
-8.465546;0;-12.76896;42.12428;3.212999;-11.18666;-6.903436;-8.626398;0.1504582;-0.1084585;0;
579.1226;0;530.8456;56.19985;-1.746722;-11.77827;571.5002;569.4667;-0.1095623;-0.2382842;0;
630.8894;0;591.4065;55.5187;8.369089;-12.36916;624.7739;620.681;-0.2393869;-0.3030122;0;
231.7683;0;230.9931;53.65132;6.820439;-13.89734;230.0318;228.0668;-0.369081;0.02212903;0;
174.1892;0;172.7902;54.28457;14.98526;-6.113596;169.5809;172.3656;-0.2387755;0.08707415;0;
8.597339;0;18.88133;51.294;17.64952;-3.495119;7.054627;10.02387;0.02133379;0.08698665;0;
-544.8206;0;-495.4416;-109.6142;11.0677;-4.496351;-537.866;-535.5245;0.2811817;-0.04303545;0;
-635.9771;0;-593.3943;-229.0065;11.59244;-2.34838;-629.4668;-625.6283;0.4108339;-0.3028616;0;
-271.5834;0;-262.714;-39.87133;2.336419;2.074732;-269.39;-267.7418;0.4753884;0.2171815;0;
-199.2842;0;-190.9235;70.30088;-2.019209;5.354689;-195.8436;-198.4449;0.344976;0.4118653;0;
-9.179434;0;-13.57068;41.24481;0.7294863;3.272959;-9.427945;-12.02664;-0.04517463;-0.1732546;0;
578.7842;0;533.2306;56.13336;-2.420054;3.135705;569.8528;567.2568;-0.04512924;-0.3030152;0;
645.6688;0;608.0319;55.63968;-0.9437543;10.6344;638.433;632.7161;0.01988345;0.0870933;0;
238.7867;0;238.3565;53.27243;-1.076528;11.82941;235.6187;231.844;-0.1100712;0.2169405;0;
171.0807;0;169.6514;54.59322;-6.099288;10.47786;164.6674;166.5188;-0.3048626;-0.2380489;0;
12.05112;0;21.68025;48.72878;-5.691018;11.47208;8.830242;11.49181;-0.3695236;-0.3677444;0;
-541.8076;0;-491.9584;-109.3033;-12.58515;2.619046;-535.7174;-533.1835;0.02065169;0.1523639;0;
-632.2175;0;-591.6012;-222.2616;-16.05513;-0.1968685;-625.821;-621.2906;0.410435;0.4120801;0;
-269.0145;0;-263.4839;-36.81888;0.2379764;0.5401416;-266.1852;-264.2206;0.2151206;0.08682935;0;
-202.9022;0;-194.5037;70.4767;3.653013;-2.474511;-198.3892;-201.7988;0.1499371;-0.303062;0;
-5.484994;0;-9.713533;42.60736;1.505888;3.288385;-5.536666;-8.817939;-0.110083;-0.1078554;0;
582.9747;0;537.4587;55.93283;5.791283;3.887806;573.178;570.3998;-0.4348091;-0.0427797;0;
637.4863;0;600.1369;55.62675;-5.868834;0.132977;628.1367;623.3622;-0.1095354;-0.3675734;0;
238.9207;0;237.1535;53.38446;-8.474906;0.6687068;233.641;230.8703;-0.04445804;-0.4321714;0;
177.8987;0;176.3831;54.58018;5.19764;-3.283836;170.5628;172.9174;-0.1743481;-0.3667699;0;
3.619969;0;14.2873;47.71627;7.335871;-3.8164;0.1020222;3.141382;-0.1741729;-0.04156459;0;
-552.1043;0;-501.5303;-115.5621;5.45249;-3.946531;-546.9356;-544.2741;-0.1739979;0.08841187;0;
-634.8827;0;-593.5424;-229.2638;6.385016;-5.148258;-630.2814;-626.1858;-0.1088557;-0.1715464;0;
-264.1808;0;-259.0513;-38.56668;8.454705;2.090949;-262.2702;-260.8024;-0.1737137;-0.3013087;0;
-195.1374;0;-187.5143;70.60472;9.651659;3.830283;-190.0429;-193.0743;-0.1085718;-0.2360386;0;
-10.47154;0;-15.97453;42.36044;5.489751;4.362298;-9.00532;-12.09616;-0.04349532;0.1540027;0;
581.304;0;532.4534;56.12344;4.34516;7.506112;573.8358;570.3107;0.2813851;-0.04105411;0;
644.5629;0;604.257;55.62976;7.555974;-0.6062431;638.4764;632.2688;0.3460697;-0.1059802;0;
228.8113;0;227.2765;53.13759;8.352665;-1.811205;226.3542;222.5266;0.345722;0.4788324;0;
165.8629;0;165.4541;54.70838;3.454152;5.424528;160.6596;162.1458;0.3453746;0.2834492;0;
10.08701;0;21.1728;48.71889;2.580025;5.954941;8.012362;9.934252;0.2150929;0.08826238;0;
-546.6433;0;-497.4628;-113.3736;5.390472;10.10178;-539.9703;-538.2377;0.4747461;0.2830757;0;
-631.8634;0;-599.4114;-226.3279;4.5144;12.77094;-625.9467;-622.2169;0.3443344;0.3477586;0;
-262.4763;0;-269.1624;-36.88305;11.9446;8.33736;-260.8759;-259.7736;0.1490864;0.4123766;0;
-195.8085;0;-194.9915;72.16171;14.34447;8.262;-191.586;-194.9825;0.4088059;0.1520928;0;
4.849981;0;-4.578728;44.41562;10.78009;10.19608;6.007286;2.489294;0.3434278;0.02200529;0;
590.051;0;539.215;56.24002;13.38122;9.382041;582.2741;577.3853;0.1481807;-0.04298416;0;
633.9357;0;592.4587;55.18401;3.990656;11.65003;627.7908;619.4088;0.08306449;-0.3677777;0;
237.2478;0;232.2941;53.69179;2.379056;11.70531;234.9822;229.5445;0.1479484;-0.1075388;0;
183.099;0;177.713;54.20005;6.328781;7.607712;177.8372;177.6523;-0.177037;0.2823733;0;
9.189859;0;16.99017;49.58538;2.838821;6.662307;6.994249;7.496767;-0.2418264;0.1521549;0;
-541.8549;0;-494.7697;-105.3241;22.79664;3.373449;-535.6151;-534.5508;0.3431226;0.2819367;0;
-621.3327;0;-589.2248;-216.9746;27.73022;1.963539;-615.349;-612.4118;0.08290847;0.1517188;0;
-260.5769;0;-264.858;-34.59814;15.31113;2.430447;-258.1599;-257.3496;-0.2420115;-0.04333572;0;
-194.0359;0;-191.7535;71.25844;16.90334;2.361022;-189.6848;-192.6859;0.213003;0.2815445;0;
-1.187772;0;-9.090018;44.13793;0.2745829;3.095462;-1.026452;-4.08697;0.4726584;0.346229;0;
586.7054;0;536.7073;55.83768;-6.490847;3.427144;577.1215;573.6268;0.2123141;0.2159464;0;
641.9628;0;598.8865;55.5317;4.099222;8.648247;633.6379;628.0227;-0.1777033;0.2157294;0;
225.6517;0;220.9119;53.2895;2.018022;10.51508;221.8329;218.3473;-0.2424921;-0.2392587;0;
169.703;0;164.4057;54.54779;3.087722;11.44228;162.7646;164.28;-0.2422484;-0.368953;0;
19.10807;0;24.18591;49.80784;3.018246;12.83742;15.36251;17.81344;-0.3069724;0.1511565;0;
-542.6288;0;-502.3238;-112.7855;3.684799;10.41313;-537.5001;-535.4264;0.08314013;0.2809393;0;
-628.2902;0;-603.1431;-223.4915;5.690828;9.732842;-624.2911;-620.2205;0.01808924;-0.3040491;0;
-254.9088;0;-257.6479;-33.42484;-4.161503;8.24956;-254.8492;-251.9696;-0.1118636;-0.2387763;0;
-193.4334;0;-184.738;70.5565;-6.76929;7.169544;-189.8756;-191.9339;-0.04678387;0.2162351;0;
3.349645;0;-2.456444;42.56214;-0.06468292;5.353801;3.6555;0.7871357;-0.1117042;-0.1737863;0;
592.9249;0;543.9589;56.51234;-0.1983398;5.08049;584.6098;581.0572;-0.04662462;-0.3685137;0;
637.494;0;598.5096;55.20618;-0.2654894;4.070641;630.3741;624.8885;-0.1765124;-0.04330669;0;
235.3677;0;232.7168;53.40159;0.9402261;4.870346;231.0661;228.522;-0.5661392;0.2166062;0;
179.6591;0;176.4486;54.4099;-4.017211;6.607008;172.863;174.382;-0.2407336;0.6061926;0;
5.316106;0;14.22777;47.79602;-5.285973;7.53813;1.900199;3.41763;0.1493124;0.5406162;0;
-547.1616;0;-499.9031;-110.1102;-1.730688;15.4343;-542.6405;-540.5624;0.279097;0.2152362;0;
-617.701;0;-581.4846;-217.0082;-2.532256;17.09336;-613.8716;-609.6717;0.2788166;0.02011793;0;
-252.3262;0;-250.8162;-31.25843;0.1496055;24.10915;-252.1863;-250.2395;0.4734384;-0.04486963;0;
-191.6655;0;-186.7213;71.72123;0.7516915;27.16614;-190.2764;-192.7668;0.6028973;0.2800122;0;
7.052286;0;-1.50164;43.91311;-3.000108;18.96705;4.566913;2.016598;0.3424222;0.1497961;0;
595.2495;0;545.2875;55.80048;-2.527603;18.47911;585.0206;582.2229;0.4070455;-0.3051258;0;
638.6918;0;599.712;55.43207;-11.96953;8.748261;630.2222;624.5538;0.2767018;-0.2398518;0;
225.5074;0;222.0489;53.12751;-16.44549;4.653634;220.1073;216.5685;-0.1133802;0.2151606;0;
171.8701;0;164.4172;54.82324;-6.247556;4.448009;163.477;164.3771;-0.04829897;0.02004233;0;
12.71487;0;15.76409;47.58427;-6.64342;1.161498;7.016274;8.477671;-0.1132178;-0.4997165;0;
-547.5163;0;-504.3653;-119.8169;-7.238981;7.791519;-545.1508;-543.1286;-0.3729734;-0.5641817;0;
-626.8635;0;-591.8143;-227.8922;-6.294678;8.72133;-624.2504;-620.2313;0.1471401;-0.4336802;0;
-252.6714;0;-252.7023;-33.13594;-9.034043;10.923;-253.1844;-250.6685;0.5367963;-0.4332444;0;
-188.0749;0;-186.2317;72.15694;-6.010856;13.52424;-186.0886;-187.6982;0.2763876;-0.04300505;0;
12.26352;0;1.173844;43.97357;-19.4014;10.69749;10.8745;8.579329;-0.1136942;0.4767769;0;
600.3306;0;547.0233;56.42311;-22.59709;10.82071;590.1349;587.0924;-0.503384;0.2813958;0;
638.8327;0;595.0742;55.11704;-6.029965;13.48903;630.084;624.296;-0.3079762;-0.108691;0;
232.3323;0;226.7236;53.56241;-5.018552;13.81039;227.4655;224.1195;0.01716999;0.0213529;0;
178.4384;0;172.0232;54.32069;8.18103;11.25128;171.0152;172.4202;-0.307684;-0.1086032;0;
3.721786;0;7.870272;46.83234;13.73252;10.97205;-0.7578823;1.083006;-0.2424075;-0.2384288;0;
-550.7532;0;-507.1913;-115.1333;5.345973;7.946912;-547.4823;-545.3309;0.01770547;-0.1082545;0;
-622.2886;0;-586.454;-224.2752;6.278606;7.135131;-619.7081;-615.6224;0.08265502;-0.1081458;0;
-258.7208;0;-257.7172;-34.45767;-0.1580645;7.797791;-259.5162;-256.9962;0.3424414;-0.1080371;0;
-190.8073;0;-189.7423;73.33529;-0.9612129;7.722973;-190.0402;-191.0835;0.2121626;-0.2378632;0;
18.71669;0;5.225477;45.52554;-11.34272;12.20295;14.86036;13.56822;-0.242822;-0.1076895;0;
601.7173;0;546.7605;56.03699;-15.28344;14.06609;588.4321;586.2042;-0.1126433;0.4121574;0;
634.4709;0;589.377;55.41847;-5.890962;17.06618;622.8857;617.2243;0.2123066;0.2168413;0;
227.0379;0;220.0326;53.11391;-5.683972;20.39806;219.9621;216.5552;0.2770606;0.08668869;0;
178.709;0;171.8981;54.9346;4.704216;17.36345;169.3289;171.1728;0.1468475;-0.1083005;0;
10.23898;0;14.8667;47.07083;7.847321;17.47997;4.678931;7.333106;0.01676526;-0.4330283;0;
-551.0517;0;-505.6366;-117.144;14.13608;24.22744;-546.5487;-543.5224;0.08171576;0.1521129;0;
-622.3994;0;-583.6516;-221.2239;18.00664;25.54276;-617.7759;-613.0035;-0.1132684;0.5417641;0;
-248.9613;0;-246.4218;-30.03507;12.76363;24.98123;-248.7779;-246.8838;0.4715515;0.0864483;0;
-187.5544;0;-185.7671;72.75596;15.2964;25.8269;-185.7469;-188.2901;0.4061103;-0.3034426;0;
12.78343;0;0.4510522;45.19667;-5.080803;19.83959;10.84097;7.988056;-0.7637098;-0.3681051;0;
597.2892;0;544.6771;56.20819;-11.30499;17.54236;586.7281;583.5032;-0.4381058;-0.3027678;0;
628.798;0;589.6069;55.08975;-2.787163;19.26617;620.5588;615.2757;0.08207317;-0.1075616;0;
221.9953;0;221.3867;53.41021;-5.46368;17.37141;217.3251;214.9833;-0.3078133;-0.1074535;0;
174.8583;0;172.064;54.54345;4.923311;16.14826;167.4442;169.9149;-0.1775694;0.02258912;0;
1.019931;0;9.160375;46.74254;7.531308;14.3235;-3.200881;-0.3578651;0.2124131;0.2824358;0;
-551.5783;0;-504.4032;-114.286;11.07371;14.51005;-548.2362;-544.6464;0.08226499;0.2171847;0;
-617.3033;0;-579.5458;-217.6192;15.61694;14.29453;-614.5892;-609.3163;-0.1127197;0.1519991;0;
-258.9254;0;-256.5006;-29.80731;9.170885;7.113233;-259.6497;-257.1309;0.01732825;0.1518464;0;
-194.5724;0;-191.4005;71.35931;10.30075;4.895649;-192.7973;-194.3414;0.1472455;0.08672646;0;
19.20326;0;7.816824;44.42611;5.132832;7.63703;18.16545;15.56095;-0.2427065;-0.1732301;0;
600.954;0;547.9125;56.31297;1.845145;7.428408;590.7969;587.133;-0.2424626;-0.6927947;0;
631.0223;0;589.6532;55.13195;11.22139;6.21525;622.7493;617.4025;-0.04731696;-0.3672619;0;
230.0894;0;225.8058;53.32743;11.8797;5.807108;226.5724;223.3549;-0.2421714;0.08787853;0;
182.8194;0;175.0418;54.52322;10.39389;8.882366;175.3079;176.4665;-0.1119934;-0.04214447;0;
0.8520592;0;5.201199;45.91024;12.72797;9.007406;-3.965695;-1.933773;-0.04691355;0.02286522;0;
-560.3667;0;-515.7922;-119.1155;4.610861;12.21354;-556.1841;-554.1542;-0.1768011;0.1527769;0;
-624.0214;0;-590.0488;-224.1929;2.797567;14.47856;-621.4047;-617.8152;-0.2415908;0.2175908;0;
-253.5802;0;-256.6857;-31.87668;11.30122;5.354579;-255.0891;-253.9395;-0.1763807;0.1524048;0;
-192.6684;0;-194.6463;71.04113;11.42359;4.076523;-191.5521;-195.7134;-0.1112361;0.217219;0;
11.54762;0;-3.546691;43.17122;15.69902;3.402598;8.289986;3.570637;0.148745;0.2170007;0;
603.9882;0;546.9302;56.37119;16.88869;0.385069;591.4885;587.5235;0.4084649;-0.1730214;0;
639.1133;0;594.3565;55.31504;14.99669;10.96774;628.6877;622.7902;0.3430872;-0.4327169;0;
226.6782;0;219.385;52.76072;16.11972;13.50195;219.5738;216.056;0.2128077;-0.3673148;0;
179.5365;0;168.3776;55.39386;5.052436;5.048778;169.4408;170.5492;0.08265922;-0.3019783;0;
1.195642;0;3.478675;43.34422;2.233344;4.23991;-4.454678;-3.159967;0.01760883;-0.4316096;0;
-558.5242;0;-516.3885;-121.0542;1.963657;6.847984;-555.4233;-553.5051;0.2124932;-0.04137185;0;
-614.1848;0;-583.1483;-216.5095;-1.119776;7.109035;-611.9615;-608.0463;-0.3074591;0.6083431;0;
-253.5611;0;-254.4148;-25.95016;8.660614;4.690506;-254.2136;-252.4887;-0.3071502;-0.1069089;0;
-195.148;0;-192.1903;72.08914;11.39858;4.082947;-193.4261;-195.4511;0.2128972;-0.6265402;0;
29.43527;0;15.33607;45.34262;5.626348;5.217554;26.84517;24.32243;0.0827486;-0.04120457;0;
610.1138;0;552.5506;56.16659;5.486973;4.877397;598.7182;595.8857;-0.2421713;0.3486409;0;
625.6177;0;580.606;55.11066;12.17927;5.475342;616.6698;611.9036;-0.3718626;0.4782253;0;
227.0016;0;219.7662;53.4311;13.70824;4.666045;222.2481;219.3607;-0.3065216;0.2828427;0;
182.7331;0;173.6935;54.56432;11.55102;7.809433;174.2363;175.6622;-0.4361483;0.08765649;0;
-5.043691;0;-1.643036;45.76389;12.209;8.739347;-11.59543;-9.358912;-0.5006774;0.1525358;0;
-559.2601;0;-520.3182;-119.1992;7.6414;3.104121;-557.5593;-554.513;-0.1753376;-0.1074869;0;
-615.5445;0;-590.135;-220.0287;6.562972;2.766087;-614.0954;-609.4279;-0.2401288;-0.1723462;0;
-258.6051;0;-264.3305;-28.029;6.421679;-3.063963;-260.8431;-259.2413;-0.4347895;0.1526637;0;
-200.3744;0;-200.2845;72.01139;5.54457;-6.343048;-200.1114;-202.2593;-0.3044179;-0.1723265;0;
21.40305;0;5.938236;44.51532;8.352038;1.433224;18.29248;15.89687;-0.0442427;-0.302088;0;
609.9607;0;551.8453;56.21469;8.478344;1.230835;597.4205;594.2152;-0.04419825;0.08801962;0;
633.0234;0;586.0234;55.22117;14.02855;2.033393;621.1205;615.732;0.2806829;-0.1069709;0;
224.5298;0;214.496;53.10422;16.76112;3.035972;216.8243;212.878;0.4103355;-0.3667327;0;
177.5153;0;166.3046;55.04986;11.25193;-2.258608;167.1938;167.4993;-0.04484817;-0.4962989;0;
0.7381518;0;1.907559;44.99957;10.50369;-3.394927;-6.699413;-5.082331;0.08513157;-0.5607676;0;
-560.0432;0;-519.3323;-124.5854;13.37352;-3.860396;-558.0405;-555.488;0.2799481;-0.2353674;0;
-621.6367;0;-591.4615;-224.8473;12.5558;-4.39238;-620.1358;-615.7119;0.08476474;0.02473844;0;
-255.8207;0;-259.0965;-28.15761;14.68664;-8.741735;-258.8815;-255.9612;0.3445489;0.08968094;0;
-198.9046;0;-197.5544;71.82044;16.68161;-10.60847;-198.9014;-200.1694;0.3442027;-0.1053112;0;
22.24669;0;7.541078;44.19963;1.058437;-4.837404;18.31439;15.79825;-0.3058165;-0.2351401;0;
610.1163;0;552.7595;56.33659;-4.434983;-3.358919;596.5678;593.3671;-0.3704766;0.2198676;0;
629.2433;0;584.9376;55.03061;10.64002;-4.427271;616.8954;611.5114;-0.1752023;0.5444834;0;
224.8141;0;217.0345;53.2262;11.70106;-3.351096;215.2271;212.0974;0.01987575;0.4140016;0;
174.7382;0;164.2178;54.60949;8.675191;-0.3336184;162.5997;163.9084;0.08482312;0.2186836;0;
-7.40838;0;-5.299564;45.68408;10.47514;0.9393925;-14.97452;-12.97994;0.01977055;-0.04140553;0;
-556.1251;0;-517.8491;-120.4658;3.163593;1.273363;-555.5627;-553.1954;0.3445874;-0.3012333;0;
-609.1019;0;-585.0447;-219.1077;1.083333;1.138118;-609.9144;-606.1126;0.2792738;-0.3009306;0;
-250.2949;0;-258.1834;-26.60913;7.847398;1.538872;-254.6673;-252.9933;0.3439605;-0.3655956;0;
-196.5078;0;-198.8911;68.93209;8.309004;0.7335305;-199.3141;-201.5148;0.4735496;-0.5601302;0;
28.57657;0;9.579037;42.75095;6.223574;-2.750197;20.90055;17.6401;-0.04666495;-0.1697634;0;
619.0635;0;557.1067;56.8259;5.882528;-4.355024;602.5247;598.7053;-0.1765527;0.2202113;0;
629.8732;0;579.9727;55.01968;5.609173;-9.843126;615.1002;610.1602;0.1484614;0.02508795;0;
218.0096;0;206.5773;53.02787;4.866603;-12.84747;207.1868;204.9379;-0.2414919;0.02506275;0;
179.2474;0;167.4518;55.3484;5.062784;-13.03539;165.9368;168.2504;-0.3062166;0.3498743;0;
0.03225385;0;-1.069373;42.73659;5.458862;-14.89781;-10.6413;-7.705346;0.08389518;0.2845554;0;
-561.8104;0;-524.93;-130.032;0.09571864;-13.0743;-565.1644;-561.0444;0.2137456;-0.1705019;0;
-616.2807;0;-587.6207;-226.4154;-1.177175;-12.86022;-620.3185;-613.8914;0.1485635;-0.3652326;0;
-250.9698;0;-256.6339;-26.66315;1.637047;-11.23983;-257.0649;-254.1425;-0.04648785;-0.234931;0;
-195.0581;0;-200.2167;70.43985;2.171265;-8.750162;-198.0237;-199.477;-0.04644114;-0.1697276;0;
30.46217;0;10.50362;42.75795;3.508254;-11.95655;23.12671;21.42496;-0.1113618;0.09031235;0;
617.9487;0;556.3437;56.70795;4.510083;-10.60488;601.4377;598.4883;-0.1112499;0.02525425;0;
624.8865;0;576.087;54.83938;9.193624;-6.37442;610.2662;605.1958;-0.04617079;-0.1047058;0;
216.8384;0;205.3192;53.28503;11.46254;-4.559476;205.9809;203.4768;-0.1760591;-0.03963326;0;
173.892;0;159.8856;54.91814;10.84781;2.879967;159.9845;161.6058;-0.2408495;-0.1045608;0;
-13.5011;0;-13.50046;43.55614;11.84129;7.096998;-23.89645;-21.83943;-0.1756402;0.02547897;0;
-558.1512;0;-526.0417;-119.5931;10.3565;4.946413;-560.2278;-557.7356;-0.1104963;0.09042072;0;
-604.5668;0;-588.6064;-216.8615;9.274363;6.281102;-607.7657;-603.2145;-0.24032;-0.2994742;0;
-255.0722;0;-262.1164;-27.30128;11.07273;11.56632;-261.8286;-258.9687;-0.4999479;-0.3641406;0;
-194.0964;0;-193.1375;72.17616;11.0616;13.56406;-198.6597;-200.3628;-0.1746088;-0.1039054;0;
39.79363;0;19.76213;45.61695;5.759202;10.67029;31.54933;28.16128;0.280338;0.09110108;0;
616.3388;0;554.0987;56.00337;4.950109;10.99448;600.4192;596.5348;0.4749583;0.2859116;0;
620.0923;0;571.3455;55.25994;3.136473;8.10317;606.6249;600.6205;0.2795791;0.3505916;0;
212.6737;0;200.2076;53.01802;1.927873;6.085662;202.4682;198.5938;-0.3054079;0.1553373;0;
172.2303;0;156.6533;55.52596;7.418293;13.11251;157.6622;158.5393;-0.1751664;0.2201486;0;
-7.29015;0;-11.16987;42.22682;8.548939;14.77391;-18.59517;-17.5316;0.4097157;0.08999269;0;
-565.5023;0;-528.5861;-132.0405;9.746773;8.328825;-567.738;-565.8009;0.3443367;-0.04003244;0;
-618.2822;0;-589.9613;-227.1725;10.00442;7.382817;-621.3278;-617.1438;-0.04581334;0.2848445;0;
-245.8478;0;-254.3494;-26.73235;14.28128;10.38951;-252.7634;-251.832;-0.3056367;0.2845583;0;
-189.0667;0;-198.2469;70.808;15.80717;9.70924;-194.4136;-197.9184;0.01950714;0.219305;0;
28.38904;0;4.475485;43.25067;7.08375;11.84294;19.04953;15.61072;0.01948754;0.2190847;0;
618.5014;0;553.1327;56.57549;5.000527;11.89802;600.2382;596.9279;-0.1754341;0.0239625;0;
625.5011;0;573.1291;55.01939;1.981393;10.01054;608.6306;604.0117;0.08461157;0.1538731;0;
214.5788;0;200.1154;53.27746;-0.9009865;9.933502;202.1606;200.045;-0.04540813;0.4785552;0;
178.3188;0;161.1838;54.97305;-2.775115;2.28771;163.6017;165.5487;-0.1752972;0.2831723;0;
-7.204701;0;-11.89125;43.7984;-5.921134;-0.9967519;-18.28385;-16.27629;-0.1101537;-0.1718836;0;
-554.2975;0;-520.3737;-119.5385;-3.771731;3.826899;-557.5569;-555.4889;-0.110043;-0.2366782;0;
-599.5925;0;-574.1985;-213.1838;-6.580981;3.890036;-603.7856;-599.5333;-0.2398671;0.02342894;0;
-248.8535;0;-256.0937;-23.81466;-1.014663;-0.1997092;-255.7911;-253.0423;-0.2396261;0.2183074;0;
-198.6285;0;-204.5496;69.59983;0.1244568;-0.5344232;-202.873;-204.4998;-0.04448331;0.4129901;0;
28.08218;0;7.112129;43.48049;-9.855027;0.269909;19.71904;17.21936;0.02052873;0.5425098;0;
619.7565;0;556.7662;56.30533;-8.774374;-0.1322598;602.2814;599.0346;-0.2393613;0.2820953;0;
627.692;0;577.6335;55.06185;-19.81664;3.886727;612.3583;607.3032;-0.1091861;0.2818119;0;
219.2038;0;207.0516;52.94506;-19.59566;3.882822;208.0085;205.832;0.08582567;0.08662669;0;
186.0001;0;171.049;55.39061;-15.49013;4.749698;171.0679;173.6413;0.02077208;-0.3032644;0;
-2.779467;0;-3.222857;43.27851;-13.53219;4.142079;-13.76114;-11.25287;-0.1091835;0.08684438;0;
-563.12;0;-523.3332;-126.867;7.044317;-0.08188535;-564.9078;-562.1522;0.08582826;0.4115938;0;
-603.5336;0;-577.9671;-218.7558;12.06108;-1.823359;-607.6309;-601.6296;0.2156767;0.6060823;0;
-236.7362;0;-248.6141;-22.32207;41.05196;-10.66303;-245.4521;-241.5184;0.2804273;0.3456039;0;
-187.7728;0;-197.0151;70.15389;54.67474;-14.5372;-193.6689;-194.4867;0.1502109;-0.1095148;0;
34.05442;0;8.829468;42.84709;33.05154;-16.66605;24.54116;22.53724;-0.4346461;0.08549732;0;
621.35;0;554.4838;56.67207;33.88899;-18.79264;603.7878;600.7864;-0.4342094;0.1503787;0;
626.5352;0;574.104;54.67859;22.80288;-18.63979;611.7393;607.4291;-0.1739037;0.08526032;0;
218.9228;0;202.9634;53.18687;16.3496;-19.08994;206.8904;205.5829;0.02117303;0.02020729;0;
181.1591;0;162.6546;55.1949;9.166855;-13.04242;166.0779;167.8327;0.4759232;-0.3046497;0;
-9.177298;0;-14.48233;41.95856;0.1153145;-11.15391;-21.24492;-18.86713;0.2805429;0.0204931;0;
-560.5784;0;-526.8352;-123.438;7.68366;-5.449275;-565.7624;-562.2001;0.085359;0.2803419;0;
-598.8082;0;-574.9064;-213.5811;3.791173;-2.161758;-604.1743;-599.9909;0.1502406;-0.04477653;0;
-244.072;0;-254.3021;-21.27553;8.610135;-4.972747;-251.5567;-250.5009;-0.1747471;-0.1096989;0;
-190.4785;0;-199.6365;71.44926;10.54387;-3.896024;-196.0816;-198.6501;0.2152325;-0.04462131;0;
46.53133;0;20.32867;44.4535;-0.9873043;-8.580792;35.87389;33.308;0.6048203;0.1503256;0;
627.1927;0;558.7251;56.21539;-1.522176;-9.978812;608.6749;605.2995;0.5392452;0.08520718;0;
625.0007;0;569.7828;54.90953;-7.281423;-11.1075;609.3751;603.0046;0.6686381;0.08512156;0;
221.4503;0;201.7076;53.23018;-10.55566;-12.50298;208.4641;203.974;0.4080969;0.2149707;0;
181.2479;0;157.2146;54.86335;-3.445107;-11.82058;163.5895;164.2264;-0.1120519;0.1497874;0;
-11.96223;0;-22.66548;43.62634;-3.174201;-12.41155;-27.54135;-25.59325;-0.1119393;-0.04526518;0;
-562.1111;0;-532.6989;-124.2082;-0.5590433;-8.447088;-569.5537;-567.4202;0.01810784;-0.3700564;0;
-599.7147;0;-579.2025;-216.287;1.987114;-7.500961;-607.2122;-604.2687;-0.1768124;-0.4996192;0;
-240.5423;0;-252.4719;-21.04271;-0.3594075;-4.211261;-250.5311;-250.4016;-0.1116674;0.0206215;0;
-189.6386;0;-200.9939;69.87025;1.047473;-1.460851;-197.1185;-201.2996;0.08334685;0.08556814;0;
43.12257;0;13.41285;42.25139;2.45294;-7.286776;29.59066;25.16398;0.01829576;-0.04445254;0;
633.5949;0;563.4979;56.63918;3.790622;-7.68123;609.7068;606.0967;0.2131794;0.2154615;0;
634.2076;0;579.0486;55.02055;3.183601;-5.999061;611.8428;606.4872;0.5378019;-0.04462437;0;
224.9633;0;203.5927;52.9038;2.578166;-6.595879;204.6199;201.7059;0.3423595;-0.1095469;0;
187.381;0;160.6596;55.34939;8.000583;-6.589252;163.4349;165.3339;0.01717879;0.2153999;0;
-6.772271;0;-18.78675;41.86303;7.590402;-8.591996;-26.75881;-24.42441;-0.2427078;-0.3045553;0;
-560.6746;0;-534.1963;-129.7178;12.67397;-3.626748;-573.7695;-571.1875;-0.3074313;-0.5641186;0;
-594.2191;0;-580.7609;-219.2924;16.27758;-3.489138;-609.7371;-605.3461;-0.04725304;0.02115429;0;
-236.2391;0;-257.1522;-20.98411;-3.56475;-11.3895;-255.4272;-253.4145;0.6024678;0.3459698;0;
-185.5896;0;-205.2323;69.67892;-8.11552;-13.4544;-203.4465;-206.3084;0.7317971;0.2156874;0;
57.16249;0;19.86093;42.68494;0.8012428;-18.53146;33.32649;29.71788;-0.1135136;0.08553604;0;
642.8731;0;562.6306;56.75995;0.3982961;-21.05819;608.9412;604.524;-0.1133995;-0.0444846;0;
632.2322;0;563.8769;54.82886;2.340279;-23.11338;599.3963;592.3599;0.4714205;0.02052743;0;
231.3606;0;197.4317;53.02465;3.744447;-24.16189;200.8065;196.7758;0.3410122;0.3453435;0;
197.2077;0;160.5643;55.0953;5.683068;-23.06588;162.2491;163.6571;-0.2440366;0.2150618;0;
-4.826532;0;-26.81546;41.48425;6.480664;-23.31064;-36.93893;-35.40735;-0.04888935;-0.1749583;0;
-554.7328;0;-539.7182;-133.2821;13.23931;-11.09669;-579.754;-577.9116;0.5358658;0.02011951;0;
-585.2847;0;-583.4661;-224.2274;16.10639;-5.258142;-612.9044;-608.5652;0.275458;0.2799687;0;
-233.873;0;-266.4764;-24.28998;8.454398;-9.606627;-265.4629;-263.6892;0.08027923;0.21472;0;
-186.2868;0;-218.7325;64.68971;8.043761;-6.314933;-216.908;-220.0086;0.6649047;0.2794716;0;
53.77982;0;3.688094;39.44987;1.941086;-4.165134;17.87958;14.40725;0.5992692;0.2142235;0;
640.5558;0;547.7234;57.33871;-1.94563;-2.687325;595.5087;591.6651;0.01396098;0.08407351;0;
637.4759;0;556.356;54.9073;5.692135;1.200264;593.1613;586.8852;-0.1159877;0.2139237;0;
236.0368;0;189.5435;52.72819;6.356;1.667938;193.8906;189.9322;0.1439982;0.2786761;0;
199.5054;0;149.1858;55.86111;-0.6166108;5.953048;153.7784;154.0718;0.07888614;-0.04644062;0;
-1.406676;0;-36.49588;39.06339;-2.826794;7.353708;-42.83987;-41.92206;-0.0511278;-0.1763286;0;
-556.3763;0;-560.071;-142.7595;6.353074;1.518926;-588.6475;-587.1683;-0.3109458;-0.1111841;0;
-585.6772;0;-607.1093;-232.4459;8.155352;0.9145532;-619.5402;-617.0005;-0.7004374;0.2137643;0;
-226.3316;0;-270.7306;-25.50373;0.5113468;-3.641083;-264.7831;-264.8698;-0.3099295;0.4734189;0;
-177.8159;0;-216.0484;65.60112;-1.231455;-5.579929;-216.0415;-219.0016;0.08018591;0.3430085;0;
63.67893;0;3.183602;39.98555;3.52618;-4.569579;18.24547;16.66264;-0.4396334;0.1477618;0;
647.1966;0;545.5328;57.37411;5.1966;-5.837663;590.6894;588.7958;-0.3742243;0.08264602;0;
639.9871;0;550.9191;54.88018;-4.721607;0.1295616;583.6616;579.3336;0.01595577;-0.04737172;0;
244.7299;0;188.0477;52.88851;-5.587519;1.670039;190.6474;189.2598;-0.0490276;-0.1772588;0;
205.9409;0;144.9428;55.77139;-3.907941;2.33819;147.7898;150.7139;0.015989;-0.04714601;0;
1.649014;0;-46.48167;38.47402;-5.042114;3.876326;-54.06984;-51.83579;-0.1139617;-0.1770333;0;
-545.3277;0;-555.9288;-143.9729;7.086741;1.193236;-593.4319;-591.7623;0.01608744;-0.5016921;0;
-572.6407;0;-594.3506;-233.6581;9.960008;0.1203101;-621.7585;-618.0916;0.6007773;-0.1763513;0;
-218.4306;0;-273.352;-27.2145;16.31301;1.258899;-270.3726;-268.3961;0.2103696;-0.3061088;0;
-170.3602;0;-223.8521;63.14244;23.06178;0.5208218;-219.7513;-221.5872;-0.1796458;-0.5656706;0;
74.87531;0;4.383226;38.90364;5.55618;-6.11089;19.97416;17.57779;-0.0495306;-0.3052329;0;
657.3823;0;546.4189;57.60513;2.871279;-9.386791;592.6662;588.8979;-0.3743175;-0.1749915;0;
644.9151;0;548.7433;54.98604;14.38897;-8.573565;581.0762;576.6871;-0.4389088;-0.1098483;0;
242.9688;0;180.5643;52.80686;14.77665;-10.44047;180.3185;179.4945;0.01630365;0.2800661;0;
200.8083;0;132.1571;56.00216;17.1727;-11.43472;134.1604;136.7105;-0.1786148;0.4097194;0;
1.456594;0;-54.00719;37.83;19.76839;-11.49022;-62.0633;-58.8911;-0.2434026;0.01950366;0;
-544.2081;0;-562.0101;-150.9881;12.44751;-15.76546;-600.6677;-596.9989;0.4065154;-0.37032;0;
-572.8341;0;-603.5492;-241.8532;10.09048;-16.55341;-630.4239;-625.8842;0.3411396;-0.1100785;0;
-211.3149;0;-275.2325;-27.90506;19.12267;-12.5178;-272.595;-269.809;0.01596006;0.01996677;0;
-161.565;0;-222.3573;64.20169;18.2328;-11.29965;-220.9719;-222.1242;0.01594403;-0.04502063;0;
79.66365;0;2.628116;38.27518;20.96115;-9.010881;16.69332;14.04287;-0.1140067;-0.1099427;0;
664.1023;0;547.2892;57.60199;23.01619;-7.394237;593.1368;589.6769;-0.2438268;-0.04486493;0;
649.8168;0;548.9257;55.1703;5.645337;-3.903816;581.234;576.3408;-0.2435818;0.2150495;0;
252.051;0;187.0557;52.49118;2.357135;-1.48863;185.7859;183.3964;-0.3083044;0.01993141;0;
218.502;0;146.9503;56.37396;-1.73107;-3.4965;147.0561;148.7295;0.08180944;0.01991139;0;
8.075603;0;-54.59608;36.51477;-6.217309;-2.622209;-60.29998;-58.00364;0.2766293;0.08485874;0;
-543.8426;0;-569.6573;-152.6144;7.988832;-4.428113;-604.2784;-601.4222;-0.04848541;-0.4999326;0;
-560.4125;0;-595.759;-235.8566;12.6025;-5.830306;-622.5992;-617.8093;0.081498;-0.629365;0;
-205.4651;0;-270.636;-23.66365;8.838798;-1.336713;-270.4628;-266.9896;0.2113508;-0.3038959;0;
-163.9044;0;-227.698;60.50533;12.44724;-0.933472;-228.0872;-227.5535;-0.1786656;-0.1736558;0;
89.07072;0;4.101889;37.08128;12.97059;-4.348542;19.51761;19.42613;-0.1135188;0.08638804;0;
669.1896;0;544.4512;58.28334;9.474937;-4.74607;592.6474;592.1812;0.01652999;0.2162359;0;
645.2789;0;537.7197;54.78901;33.04243;-7.755411;571.7496;570.4718;-0.3732907;0.08608396;0;
251.3906;0;179.2343;52.73495;34.81789;-10.02504;180.434;181.4688;-0.5028503;0.1509648;0;
217.7798;0;142.9474;56.55502;13.48307;-3.986623;143.0839;148.0532;0.08236107;0.1508131;0;
10.85238;0;-50.72399;37.25787;4.761982;-2.174078;-59.95788;-55.30593;0.407115;0.1506616;0;
-540.194;0;-565.7891;-151.6221;-5.692628;-10.20972;-602.8123;-599.102;0.08186924;0.02057549;0;
-560.2034;0;-599.266;-235.1777;-10.70977;-10.80231;-625.7572;-620.3016;0.2117217;-0.04441252;0;
-194.8864;0;-267.5803;-22.61064;-54.63884;-8.179122;-265.1219;-261.9831;0.4713783;0.3454362;0;
-154.4608;0;-225.5824;62.49431;-69.05225;-8.237886;-223.5637;-224.8009;0.0811006;0.5399911;0;
83.44993;0;-6.653122;37.75642;-51.36672;-3.339977;8.606807;7.433379;0.01605176;-0.04525758;0;
670.8832;0;540.8909;58.14571;-51.71725;-1.796136;588.4317;586.135;0.1459703;-0.2401141;0;
653.8423;0;540.16;55.15126;-26.21226;-1.191485;574.6595;569.6166;-0.04907838;-0.2398729;0;
252.6992;0;174.5507;52.53463;-12.25347;-0.6544238;177.2191;175.3671;-0.1789638;-0.3045992;0;
220.8986;0;138.7682;56.97959;0.3511447;-0.2518687;142.0586;144.5813;-0.3087186;-0.1743584;0;
8.783192;0;-60.5836;34.68351;11.46923;-0.1176498;-67.47884;-65.27109;-0.5033104;-0.2391506;0;
-541.3241;0;-573.7023;-151.2579;39.85847;-6.145874;-610.9503;-607.6828;-0.3079027;-0.1089756;0;
-548.4014;0;-596.2392;-226.3181;55.35748;-8.483978;-620.4564;-614.8808;-0.1126913;-0.2388008;0;
-195.4025;0;-276.6129;-16.88335;26.63462;-11.28874;-270.5085;-267.3748;-0.2425127;-0.3035282;0;
-162.66;0;-235.7929;64.5302;23.79385;-14.49245;-234.1923;-234.685;-0.5671058;0.2165156;0;
89.06448;0;-0.1118102;40.53988;15.93306;-15.48263;14.35569;13.55119;-0.6964706;0.1513307;0;
667.3718;0;537.1183;57.4906;6.874719;-19.01705;584.5546;583.0638;-0.3059667;0.02124391;0;
645.3369;0;531.2062;54.80916;2.112389;-12.50072;563.665;559.7394;0.1491121;-0.1087121;0;
259.1323;0;178.3496;53.31731;-6.864715;-10.67974;179.6664;177.9311;0.473799;-0.2385376;0;
219.3918;0;134.6922;55.76248;0.8443664;-22.39066;136.3825;139.0842;0.2134535;-0.1083632;0;
4.154383;0;-65.40508;38.40265;0.5760744;-23.10497;-74.89842;-71.82458;-0.371467;-0.4980583;0;
-540.451;0;-573.7088;-155.0387;-5.922215;-25.49314;-611.1786;-608.2327;-0.4360611;-0.4325906;0;
-559.5231;0;-606.9279;-243.8382;-5.647844;-27.47689;-631.5539;-627.1743;-0.2407209;-0.04235185;0;
-197.5176;0;-278.0455;-26.5773;-2.761781;-16.46445;-273.0367;-270.8479;-0.04557703;-0.3021787;0;
-156.8395;0;-234.5379;59.28126;-1.620907;-13.7016;-231.3457;-233.0946;0.01943611;-0.1719404;0;
82.13556;0;-14.72509;34.85894;3.940428;-11.87942;1.457383;-0.35222;-0.1754854;0.2830038;0;
673.8181;0;534.7635;58.74939;6.548437;-8.719286;584.1005;581.4807;-0.04537443;0.2827195;0;
656.7118;0;534.0388;55.31705;4.398403;-7.90673;569.0834;564.6545;0.08460584;0.3474027;0;
252.3174;0;165.7495;52.51285;4.595054;-5.755453;168.4002;166.9743;0.01955349;0.217119;0;
223.3283;0;134.2237;57.14523;4.054574;-9.098695;137.0592;140.1324;-0.2403355;-0.04296858;0;
13.20937;0;-59.7512;33.84949;3.247192;-10.29525;-68.41285;-65.21772;-0.4999634;-0.1728601;0;
-543.0868;0;-586.4889;-162.5233;1.234197;-5.194319;-617.0683;-613.5016;-0.1746243;-0.3675884;0;
-550.662;0;-617.1339;-242.07;1.031886;-4.184356;-628.3173;-622.6927;0.4752246;-0.4971537;0;
-192.7258;0;-284.8055;-24.93575;-6.939753;-11.01229;-274.1137;-270.7436;0.474747;-0.3667195;0;
-157.7372;0;-236.9182;54.54936;-10.08061;-12.60869;-235.3576;-236.2388;0.08446597;0.218355;0;
97.1058;0;0.7629604;34.12979;-2.635743;-10.58666;15.25305;13.81055;0.01941375;0.1531683;0;
672.5939;0;535.1811;59.39528;-2.566722;-12.04952;581.7654;579.5123;-0.5003445;0.08804706;0;
642.2455;0;520.0881;55.02526;0.9858303;-6.344109;552.7577;548.3829;-0.6297764;-0.04197611;0;
257.0435;0;169.2416;52.97098;2.526057;-4.328246;170.2068;168.5225;0.2803992;-0.431738;0;
223.5519;0;130.2161;56.79081;2.389797;-9.548444;133.3042;135.6196;0.4750194;-0.1064675;0;
1.251392;0;-76.49839;34.68233;3.726567;-8.40014;-85.09502;-82.53204;0.1497054;0.0235742;0;
-542.9763;0;-589.4137;-162.6284;-3.243403;-11.138;-619.6783;-616.3058;0.149555;0.2184526;0;
-548.0529;0;-619.431;-243.6741;-5.51732;-11.66267;-625.5524;-620.1218;0.01947005;0.2832004;0;
-193.1178;0;-288.8495;-24.91412;-4.84219;-4.215969;-273.7253;-270.799;-0.04551686;-0.1718556;0;
-158.5661;0;-240.2086;54.5085;-7.047152;-2.336211;-236.4689;-237.9182;-0.2403731;0.2181212;0;
89.34373;0;-11.45705;33.40181;-8.111797;0.9481781;6.209381;4.074304;-0.305099;0.2828693;0;
674.6472;0;533.593;59.60506;-10.38082;3.358611;582.9757;579.2186;-0.04492303;-0.1721863;0;
647.2327;0;522.5621;55.1099;-6.754045;4.292875;558.1522;550.8381;-0.1748126;0.1528234;0;
243.9098;0;154.6592;52.80566;-4.938598;6.030118;156.9802;151.485;-0.3045716;0.08770254;0;
216.5534;0;124.3315;57.43774;-15.85198;5.957076;125.7131;124.9711;-0.4342003;-0.2372223;0;
11.5637;0;-67.00984;32.82987;-17.64373;7.826612;-74.93745;-75.61622;-0.3038293;-0.3019513;0;
-542.0447;0;-592.0536;-169.9762;-12.40207;1.790406;-620.2755;-620.7662;0.2811821;-0.04177851;0;
-554.3061;0;-623.4426;-250.3274;-12.25588;0.6498974;-634.8321;-632.4487;0.08599752;0.3480675;0;
-191.4312;0;-283.8615;-26.75065;-5.076273;6.07474;-276.5615;-275.9296;-0.2389256;-0.3019556;0;
-153.7577;0;-237.2871;54.17307;-0.9853358;6.135619;-237.2407;-240.9823;0.3460205;-0.9513257;0;
97.27069;0;-4.540512;33.75387;-5.002834;11.82288;10.31083;6.198203;0.4106402;-0.430631;0;
673.1334;0;533.4436;59.83183;-3.658636;13.6864;579.2645;575.4059;-0.3693805;0.08954043;0;
635.4756;0;511.0436;55.08656;1.23516;13.20389;544.3871;538.7208;-0.2390747;0.3493198;0;
248.4688;0;155.646;53.09468;2.170948;13.72637;159.7832;156.2465;0.410839;0.2190341;0;
226.4176;0;129.0029;57.03933;5.652367;12.507;134.2604;135.1625;0.6053281;-0.365892;0;
7.300159;0;-72.90028;36.17997;6.784788;12.82935;-80.20425;-78.8033;0.2798832;-0.105655;0;
-538.9951;0;-581.0715;-158.8209;1.01817;2.434348;-617.7909;-616.1415;0.3445694;0.4791572;0;
-541.2646;0;-599.1033;-238.8085;-1.66217;-2.122816;-621.3555;-618.1461;0.2792558;0.4137084;0;
-185.7117;0;-277.0379;-21.42771;0.7503973;4.242452;-269.9075;-268.8252;-0.3057309;0.2183907;0;
-149.793;0;-238.6537;57.30426;0.6832704;2.83167;-232.9673;-235.5092;-0.2404563;0.2831386;0;
101.3563;0;-5.905796;35.25773;-9.766266;3.029773;13.51803;10.60383;0.1495893;0.4777561;0;
683.3994;0;537.0772;59.46012;-11.76618;3.830402;587.9032;584.5547;-0.4352671;0.2174067;0;
649.1046;0;521.1078;55.21498;-12.82609;-2.26865;558.2646;552.9829;-0.694699;-0.1726158;0;
246.5918;0;154.2059;52.9731;-15.09038;-4.074909;160.216;157.8756;-0.1742623;0.1523944;0;
222.1062;0;124.4408;57.79242;-4.492642;0.2159709;132.2564;134.2912;-0.1091199;0.0872739;0;
7.740719;0;-74.33439;31.93482;-3.282679;-0.1191608;-77.83342;-75.67575;0.02092447;-0.2376505;0;
-545.3016;0;-594.873;-169.4336;5.361784;0.08190773;-623.356;-620.7632;0.08587079;-0.1724444;0;
-544.2539;0;-614.8899;-243.3511;11.04982;0.9526036;-625.2908;-621.7012;-0.4339542;-0.4321405;0;
-184.8249;0;-281.7517;-20.53094;-4.032805;-3.268156;-269.4036;-268.1289;-0.4335182;-0.3017716;0;
-152.7178;0;-239.4272;56.51348;-5.903788;-3.063924;-234.6502;-236.7501;-0.2381806;0.08833572;0;
104.5564;0;-1.368707;34.84256;-2.146811;-4.668436;18.14609;15.54859;-0.3029086;-0.2365898;0;
684.7222;0;538.4863;59.60758;-3.01531;-4.998659;589.2158;586.496;-0.1077022;-0.3013194;0;
649.5515;0;519.3921;55.23735;-4.352427;-0.03702157;554.7033;550.4869;-0.302496;-0.1061146;0;
265.7165;0;168.7961;53.37026;-4.481776;1.034743;173.2124;171.7489;-0.10729;-0.04104063;0;
235.527;0;135.3308;57.12722;-5.28058;7.999806;140.992;144.7149;0.5424912;-0.1059667;0;
3.594323;0;-77.07352;35.20581;-6.145929;11.60872;-86.16058;-82.19157;0.02220737;0.02407443;0;
-541.9476;0;-590.7379;-162.4178;1.629778;7.310274;-624.1785;-620.2135;-0.3026516;0.2189523;0;
-538.7794;0;-610.9463;-240.7776;3.03466;7.302928;-624.0511;-618.8407;0.0874565;0.08879759;0;
-186.7896;0;-286.1204;-24.08195;7.318518;9.17099;-276.9107;-275.2038;0.2173033;-0.04122633;0;
-154.4931;0;-246.4152;49.8426;12.13394;7.956204;-243.5866;-245.6295;0.02218294;0.2186845;0;
101.9708;0;-8.037306;31.86403;-6.030265;7.881227;8.406616;6.240834;-0.3676434;0.3483994;0;
682.2017;0;535.3226;60.56757;-10.64591;7.672359;582.6096;578.447;-0.172372;0.02321263;0;
648.5328;0;516.2941;55.32182;5.038553;-3.521255;552.3516;545.6944;0.2825726;-0.1067454;0;
256.6403;0;157.5179;52.9549;6.975873;-7.73752;162.8046;159.2775;-0.1075154;0.2181986;0;
229.271;0;127.1872;58.58633;-0.3321536;-3.777874;132.5936;132.9431;-0.3023094;0.08804467;0;
6.402554;0;-79.08693;29.16722;-1.470896;-5.582618;-85.55506;-84.89352;0.3476678;-0.2368805;0;
-550.6364;0;-604.6807;-182.2558;4.626151;-3.299588;-634.2557;-632.1581;0.7371225;-0.04174048;0;
-549.8333;0;-625.4999;-253.8491;5.42481;-1.956614;-634.4305;-631.1481;0.1516758;-0.04169853;0;
-185.9009;0;-285.9167;-22.08542;3.343254;-6.710436;-273.724;-273.5059;-0.2382807;0.08827806;0;
-150.7317;0;-241.5891;52.77415;3.674687;-7.440384;-237.592;-241.497;0.08679548;0.2830914;0;
106.1032;0;-7.401436;32.23142;0.6568851;-3.012156;13.02085;8.620077;0.3465776;0.1528722;0;
680.2704;0;528.0869;60.62225;0.7899469;-2.875164;578.8483;573.7024;0.2162947;-0.0421834;0;
638.1078;0;504.5053;55.37644;-6.444516;-1.264807;540.2858;533.5833;-0.1087593;-0.1720757;0;
256.783;0;156.8604;53.38427;-10.45653;-0.2587917;162.9948;159.235;-0.04368271;0.2179013;0;
234.7859;0;131.9652;58.01578;4.75825;-7.023564;138.9055;139.0226;0.08629587;0.4125843;0;
4.353156;0;-83.12187;32.34536;8.035999;-9.092978;-87.93257;-87.12846;0.1511765;0.02236572;0;
-539.6278;0;-592.2199;-169.1484;0.0573215;-8.480994;-625.8238;-623.8336;0.1510246;-0.1075914;0;
-533.6508;0;-601.6823;-242.4415;0.1909858;-10.01308;-622.7587;-618.1468;0.02093816;0.3472881;0;
-187.4133;0;-288.11;-22.30841;-3.091736;-12.28032;-279.7426;-277.1343;-0.04405022;0.6717758;0;
-151.7429;0;-249.4023;50.7398;-8.178844;-13.80859;-240.9808;-243.1228;-0.04400596;0.2812968;0;
115.9626;0;1.97203;32.94773;-2.276128;-12.85695;22.9413;21.42615;-0.1089291;0.02114475;0;
687.8086;0;537.201;60.46328;-8.034617;-13.11196;588.6339;586.9329;-0.3037217;0.08609086;0;
642.6398;0;508.8627;55.52997;-6.887468;-11.1564;546.4384;542.3652;0.02142023;-0.3687671;0;
259.9986;0;158.5272;53.22531;-7.684831;-8.53286;164.7683;163.8852;0.4761701;-0.2384618;0;
237.4361;0;131.3815;58.23178;-39.96166;-16.69608;138.241;140.857;0.0858876;0.2165492;0;
9.436992;0;-81.20621;32.2488;-46.55294;-18.21979;-86.53495;-84.60874;0.3456707;0.1513643;0;
-540.546;0;-592.3052;-174.5547;-66.33214;-6.010955;-629.3626;-626.6887;0.7351273;-0.1086572;0;
-534.1309;0;-599.0189;-243.7194;-79.86314;-3.59353;-624.17;-619.4373;0.3445847;-0.5633194;0;
-178.4602;0;-276.5787;-16.71351;-41.67022;0.4959176;-271.2824;-268.8033;0.2143037;-0.3678514;0;
-148.9206;0;-242.7552;51.14418;-35.13161;5.519017;-238.6511;-239.8602;0.08415373;0.152257;0;
109.1619;0;-4.755759;31.04037;-35.16269;-3.997861;14.71148;14.12829;-0.04586551;0.0221693;0;
683.7633;0;528.0437;61.05658;-25.75023;-4.797639;581.0995;579.8922;0.01914792;-0.1077877;0;
641.0349;0;505.0869;55.62293;-28.26995;1.972336;541.9725;537.9553;0.1490634;-0.237614;0;
255.959;0;154.5054;53.13076;-23.28505;1.501474;160.307;158.5427;0.2788483;-0.1724079;0;
234.525;0;126.3642;58.69955;-19.51061;6.858478;134.4713;136.8317;0.2136007;-0.237202;0;
4.904623;0;-88.15504;30.46723;-17.54862;8.526159;-92.98705;-90.44157;0.08345142;-0.4318657;0;
-544.824;0;-606.9307;-178.5208;-15.85605;1.953387;-635.4958;-632.7656;-0.04656711;-0.1715624;0;
-532.8448;0;-615.1913;-247.1194;-16.71078;1.281595;-624.55;-621.3851;-0.04652032;-0.2363574;0;
-178.4248;0;-283.9269;-17.79874;-12.07228;-0.7961637;-272.6615;-272.4359;0.01849376;-0.4310219;0;
-150.1346;0;-242.7871;54.9326;-10.78736;-1.39821;-240.591;-243.9888;-0.4362962;-0.3656215;0;
111.3849;0;-0.539829;34.82498;-21.76221;-3.272205;17.27122;13.2522;-0.5657925;0.219452;0;
685.2969;0;533.2549;60.58952;-23.7491;-4.00573;582.3448;577.8301;-0.1104526;0.8039376;0;
633.3841;0;499.9231;55.65609;-27.7447;-0.7866459;532.5344;526.9623;0.08456041;0.2184237;0;
248.0035;0;148.4722;53.72611;-31.80266;-1.187753;149.8789;148.0605;0.2144101;-0.04166517;0;
233.7614;0;129.3325;58.10739;-18.57518;10.20029;132.9867;135.8552;0.1492273;0.3481808;0;
1.143296;0;-85.12721;32.87416;-15.47506;14.81175;-93.47065;-92.04178;-0.1757593;0.02299418;0;
-547.4571;0;-596.9094;-173.2428;-23.76588;6.625189;-634.2924;-633.7394;-0.1106154;-0.366833;0;
-531.7271;0;-600.6199;-244.4079;-24.74638;7.623276;-623.2852;-620.484;0.2143325;0.02333967;0;
-180.8689;0;-281.2392;-20.21234;-15.14332;5.204231;-276.7078;-275.7835;0.2141171;-0.1066185;0;
-153.0136;0;-248.5354;48.89825;-12.44879;3.79236;-246.5073;-249.1447;-0.1759021;-0.6912174;0;
113.1314;0;-3.346265;31.42037;-21.94712;6.869764;14.4843;11.47482;-0.30566;-0.3007188;0;
687.6664;0;533.2624;61.24879;-23.80108;6.126049;582.3093;578.0535;0.01948383;-0.04054729;0;
637.3129;0;501.3673;55.81495;-20.22719;8.397313;535.4974;529.4343;0.0844316;0.0244608;0;
255.5516;0;151.9139;53.32259;-19.93845;8.790651;156.2123;152.7789;-0.1105553;0.1543709;0;
239.2404;0;128.523;59.07859;-25.14333;7.241333;136.1278;136.3835;-0.3053462;-0.3005556;0;
6.866673;0;-88.05987;29.65899;-26.18979;7.368023;-93.26873;-92.26363;-0.1751047;-0.3652209;0;
-543.8634;0;-601.8381;-183.0139;-24.82333;4.949234;-635.5274;-633.5238;0.6696467;-0.2349193;0;
-530.0736;0;-609.3542;-247.2976;-26.6744;4.073483;-621.8329;-618.0197;0.5390391;-0.5595199;0;
-176.9057;0;-285.8418;-17.97679;-15.7966;3.064768;-271.134;-269.5111;-0.3060779;-0.2990884;0;
-160.4237;0;-255.7571;45.4469;-12.56555;1.922978;-250.8716;-253.1859;0.08403366;-0.1688532;0;
105.2916;0;-8.998982;29.47175;-19.51915;3.595497;10.6866;8.187285;0.4087859;-0.1037162;0;
699.8243;0;541.6083;62.17568;-17.55715;3.390936;595.8192;592.6978;-0.2412982;0.1562574;0;
650.0833;0;509.2051;55.49153;-24.23732;1.981009;548.6815;542.2523;-0.5658925;-0.03880161;0;
263.8739;0;156.8703;53.87406;-24.74883;0.9742745;165.7598;160.3366;-0.4353892;-0.1686973;0;
246.2425;0;133.0371;58.63001;-21.37506;2.112005;144.4789;143.5588;-0.110115;-0.03859311;0;
1.867792;0;-93.2954;30.95998;-21.42093;1.507037;-95.79559;-95.09052;-0.1749717;0.09138037;0;
-544.6094;0;-606.3187;-177.4039;-11.08428;0.2998298;-634.616;-632.7872;-0.1098285;0.2861906;0;
-529.507;0;-610.1448;-248.1275;-9.063406;0.8353919;-621.4221;-617.4712;0.2151185;-0.03893372;0;
-183.7735;0;-286.3192;-18.93078;1.059758;-6.734397;-277.7826;-276.0845;-0.044967;-0.2337966;0;
-144.6709;0;-238.1805;55.42588;6.819469;-8.736996;-235.1498;-238.0761;-0.1748565;0.1562424;0;
124.4643;0;8.934708;35.63011;-7.052484;-4.106517;29.64103;25.65567;-0.1097135;0.5458894;0;
689.1179;0;531.9128;61.20643;-8.585639;-3.834459;583.6453;578.6644;-0.2395379;0.6103082;0;
636.7639;0;492.9602;55.64769;-11.5921;-1.151411;529.8356;522.4235;0.1505068;0.219891;0;
256.0026;0;144.8271;54.21747;-15.93373;-0.3464584;150.1812;144.1509;0.2802903;-0.3000687;0;
242.627;0;129.0644;58.28592;-11.63081;5.146368;134.2258;131.5123;-0.04482806;-0.4946692;0;
15.05997;0;-78.0862;33.30238;-12.02127;8.021463;-86.79805;-88.94658;0.02018433;-0.1043682;0;
-534.9287;0;-589.0634;-167.6301;-16.49717;3.994427;-626.7519;-628.3985;0.1500987;0.1556061;0;
-527.0199;0;-600.1531;-238.9882;-15.74366;5.73197;-620.9997;-620.8331;0.3448499;0.02551504;0;
-176.2914;0;-279.9607;-15.23542;-17.87129;0.3007148;-273.1752;-274.1957;0.01966672;0.09045676;0;
-141.819;0;-238.2627;58.24296;-18.18813;-0.8382972;-236.1067;-239.5624;-0.3701571;-0.1695035;0;
127.5632;0;12.16345;35.3834;-8.658031;5.458819;27.56059;24.17084;-0.1748831;-0.2343005;0;
696.399;0;542.1348;60.39775;-7.10909;6.391095;587.439;582.366;-0.4995441;0.1557389;0;
639.6649;0;500.6732;56.58895;1.137076;10.40353;531.6889;523.685;-0.4340748;-0.4291236;0;
262.7113;0;152.6573;53.65853;5.0207;12.13463;156.2181;150.8459;0.3459694;-0.3637251;0;
248.2045;0;134.5754;58.72704;-2.017919;15.94034;139.6319;138.2631;-0.2390843;0.1563791;0;
4.077707;0;-93.13296;32.49369;-0.9441645;18.26873;-98.32633;-99.88118;-0.4337461;-0.2335821;0;
-541.2148;0;-612.6532;-169.1251;-11.25834;15.23614;-633.7708;-634.4496;-0.04350619;-0.16838;0;
-515.871;0;-601.7303;-231.7986;-14.66231;15.68971;-609.0836;-607.8876;-0.3682992;-0.1032435;0;
-174.0866;0;-275.9766;-13.36287;-15.04972;10.4494;-270.9538;-272.1328;-0.3679291;-0.2330744;0;
-148.5495;0;-244.5275;48.74434;-20.25951;7.625738;-244.1324;-248.3711;-0.4325268;0.02702913;0;
127.2113;0;7.091894;33.26562;-3.292589;9.694425;26.41459;21.99268;-0.3021575;0.02700197;0;
692.2369;0;534.3822;61.84281;0.3944145;7.273419;583.6704;579.0031;0.02298285;-0.1029598;0;
629.8223;0;491.1168;55.72122;-10.32325;10.01229;525.6129;519.0137;-0.2369096;0.09204564;0;
249.6303;0;143.2979;54.22845;-9.173802;10.80602;148.7114;144.4302;-0.1067369;0.1569205;0;
236.1986;0;123.7886;58.98404;-18.14054;0.01115824;131.3831;130.9168;-0.2365643;0.02682813;0;
7.950834;0;-90.41567;30.31416;-22.87774;-3.136929;-93.13613;-94.60149;-0.5611633;-0.2330682;0;
-533.5975;0;-598.6943;-181.8597;-8.453784;1.755855;-629.8352;-630.2371;-0.1058281;-0.2978013;0;
-522.3792;0;-603.5275;-250.3924;-6.033416;0.8833129;-622.0185;-619.359;-0.3006237;0.287204;0;
-175.5908;0;-286.5801;-20.06894;-16.20876;-0.9930968;-276.2545;-276.2213;-0.4302564;0.6117521;0;
-145.6169;0;-251.9969;49.10396;-16.46089;-2.465601;-243.3683;-246.646;-0.1049873;0.2213334;0;
120.2709;0;-4.305518;31.50094;-17.51608;-0.7216898;17.68268;14.90795;-0.1698492;0.02620892;0;
692.7372;0;529.2431;61.8915;-19.50723;-0.9888963;582.6309;578.5471;0.09019084;0.09114994;0;
630.2597;0;486.0453;56.14467;-8.10078;-3.466149;523.0751;517.4962;0.6098389;0.02609099;0;
242.6959;0;134.2335;53.96432;-4.140525;-2.725854;138.8674;136.8548;0.2843895;0.4158688;0;
233.3316;0;120.6679;59.09499;-12.24166;-10.96189;126.7339;127.7843;-0.1706677;0.4804183;0;
-2.471909;0;-97.40633;29.48796;-11.22499;-12.42438;-105.0895;-104.4774;0.1543405;0.2200662;0;
-542.448;0;-605.3656;-180.2487;-11.14636;-8.192095;-638.4657;-637.3546;0.8038589;0.1548778;0;
-518.977;0;-603.5704;-244.91;-12.47433;-8.049897;-617.5219;-615.2249;0.4132471;0.0897548;0;
-182.187;0;-292.3701;-18.96491;-1.209639;-0.8078964;-283.1942;-283.5232;-0.2368416;0.154632;0;
-148.2085;0;-250.5347;46.95852;1.538243;0.9344716;-247.1776;-250.8795;0.2181678;0.2194439;0;
138.0467;0;14.2716;32.6685;-4.089381;7.09584;34.05458;30.66864;0.4128506;0.02432138;0;
698.1263;0;538.931;62.55813;-3.885177;9.968855;587.0549;583.4225;-0.1722703;-0.3005398;0;
624.1492;0;487.5401;55.8736;-8.033483;5.002223;517.7495;512.4966;-0.4969339;-0.1703031;0;
243.713;0;141.7238;54.31821;-10.63836;5.53306;141.1059;139.169;-0.3664999;0.2196721;0;
238.5331;0;131.9612;59.26112;-7.345136;-2.979088;132.3434;134.9687;0.08863975;0.2844187;0;
9.03362;0;-80.25229;31.84033;-7.471478;-5.588429;-93.11381;-90.49113;0.2184854;-0.1056711;0;
-541.2614;0;-593.9759;-173.0262;-14.96606;-9.534685;-635.5601;-632.0654;0.1532985;0.1543044;0;
-521.9769;0;-591.4425;-235.0711;-17.96513;-13.81189;-618.0549;-612.3774;0.3480465;0.08918203;0;
-165.8187;0;-264.4498;-6.199797;-11.85151;-4.621594;-264.7362;-261.5006;0.3476968;-0.3007117;0;
-143.6007;0;-236.0108;59.46093;-11.77323;-4.683933;-239.3578;-240.3734;0.02251069;0.08939457;0;
125.6584;0;12.78895;35.2883;-13.77015;-0.6603726;26.12441;24.1728;-0.3023486;0.02433739;0;
703.8664;0;551.1305;61.30225;-13.6226;2.421506;595.4995;593.175;-0.6268815;-0.1056217;0;
632.0074;0;497.9157;56.30564;-13.34146;-5.752723;525.1862;520.9275;-0.4313496;0.2193211;0;
248.065;0;146.9041;54.31253;-11.78684;-5.813926;143.3501;141.2821;0.2187572;-0.105736;0;
247.1911;0;141.634;59.13051;-17.06726;-8.554262;139.5829;142.2646;0.3484721;-0.3654991;0;
5.501582;0;-81.39625;33.52144;-17.31755;-10.35421;-97.06351;-93.32251;0.1532199;-0.2351972;0;
-533.5455;0;-588.5595;-159.9775;-10.33393;-7.597502;-629.3234;-624.0244;-0.04183606;0.02490852;0;
-508.3343;0;-586.0316;-220.2239;-7.444133;-8.728578;-606.5147;-599.1596;-0.1067614;0.3497202;0;
-180.4256;0;-284.7189;-6.359993;-5.895436;-5.370782;-280.5688;-275.7823;0.2181826;-0.04043525;0;
-149.3848;0;-243.4534;55.80265;-3.343917;-5.365386;-247.4284;-247.2069;0.152996;-0.4301987;0;
141.3068;0;26.84298;36.38132;4.361626;-3.752404;37.92692;37.02373;-0.4968311;-0.2348644;0;
704.694;0;550.053;61.08232;7.974566;-1.672285;594.0468;592.02;-0.4963319;-0.2995957;0;
627.8992;0;492.0292;56.33581;9.775214;-12.72242;520.549;516.0881;0.2837749;-0.559164;0;
254.0809;0;149.5817;54.65501;12.04257;-14.58516;148.4627;145.6929;0.6083264;-0.2987328;0;
252.4512;0;140.3734;58.72303;9.685943;-12.69498;142.5664;143.2352;0.4128132;0.1563387;0;
10.38162;0;-90.21428;33.73905;9.072998;-13.88792;-94.45776;-93.78969;0.4773658;0.1561816;0;
-536.2291;0;-612.4861;-170.942;9.13123;-9.721146;-632.2175;-630.613;0.6068207;-0.1038447;0;
-515.8877;0;-609.7467;-237.1119;8.787263;-9.510429;-613.6537;-610.1769;0.2813743;-0.03877299;0;
-167.6066;0;-279.987;-8.613359;3.55352;-4.544258;-269.1475;-268.0479;-0.4335491;0.156168;0;
-141.2639;0;-242.287;57.54954;2.545572;-2.865119;-241.5158;-243.6657;-0.4980808;0.1560111;0;
126.1187;0;4.957345;33.75365;-0.2036523;-3.733018;21.09498;18.94724;-0.04280898;-0.03904771;0;
705.4507;0;540.4332;61.39332;-3.417652;-2.18866;593.2861;589.329;0.02220138;-0.2988778;0;
639.5247;0;489.5405;56.95883;10.5846;-10.82714;530.5963;524.5191;0.02217907;-0.1686428;0;
252.5762;0;137.2879;53.77817;13.05222;-12.89261;146.256;143.3709;0.02215678;-0.1684734;0;
250.9482;0;131.2154;59.97099;9.690198;-11.94189;140.9242;141.915;-0.1727675;-0.3632061;0;
3.382816;0;-98.48851;28.86384;11.35442;-13.00162;-102.4077;-101.4803;-0.3025286;-0.2329065;0;
-545.4697;0;-617.1913;-183.3085;5.448517;-10.51031;-643.3453;-640.7947;-0.2372573;-0.2326725;0;
-513.1251;0;-611.6985;-239.1587;5.10825;-9.227072;-613.651;-609.0415;0.08781784;-0.6222427;0;
-181.7133;0;-303.8009;-15.15584;-2.130551;-8.414005;-285.574;-283.9052;-0.04220508;-0.5566502;0;
-155.4189;0;-263.8281;38.9572;-6.482667;-7.467789;-257.4261;-258.8823;-0.3669994;-0.2962215;0;
144.5241;0;14.2349;29.17295;1.830218;-0.4943047;35.74786;34.79282;-0.2366959;-0.2309565;0;
709.2824;0;542.58;63.81371;-0.1813526;1.51568;592.5571;589.6039;-0.1714908;-0.1007897;0;
630.4215;0;484.8761;55.69114;6.04812;2.183986;517.6865;511.7379;-0.3012531;-0.2955905;0;
262.6601;0;150.0569;54.88556;8.386568;2.918604;153.2242;150.0302;-0.04108107;-0.2303261;0;
251.2143;0;136.0381;59.20321;-4.951097;-1.036322;140.5766;141.0089;0.1538622;-0.03519267;0;
-0.7240947;0;-95.04501;32.34469;-6.754783;-2.307834;-105.3786;-104.8842;-0.04119439;-0.1001246;0;
-536.4541;0;-596.26;-169.8987;-11.57077;-9.807482;-633.6321;-631.8889;-0.1061203;-0.03505671;0;
-509.6158;0;-596.2856;-228.9482;-14.6406;-13.61553;-607.1335;-603.6428;0.218823;-0.2948909;0;
-179.5194;0;-296.7117;-8.766193;-11.67815;-13.33392;-278.0011;-277.45;0.5434398;-0.1646599;0;
-160.6609;0;-262.6805;46.09005;-12.26963;-14.99509;-256.8572;-260.6794;0.2830244;0.03040762;0;
126.2939;0;8.197385;30.42658;-10.71608;-14.64511;24.57203;20.81612;-0.107064;-0.2294923;0;
705.6257;0;549.4796;62.94215;-11.5096;-13.89359;596.0101;592.7577;-0.2368911;0.03060766;0;
632.703;0;495.8291;56.38217;-0.5796942;-13.67868;524.8842;520.5731;0.02321627;0.03057691;0;
254.9443;0;149.4423;54.45146;3.171932;-13.26303;147.1089;145.5508;-0.0417744;0.09551354;0;
249.4408;0;139.1722;59.64411;-5.940934;-3.939324;137.9656;139.5949;-0.6264385;0.1603849;0;
0.6276018;0;-88.72814;31.78565;-5.399101;-0.5863408;-105.1134;-104.2978;-0.236005;-0.2945476;0;
-540.9133;0;-601.5062;-174.3302;-12.29255;-1.255581;-638.7395;-636.488;0.1540362;-0.2292843;0;
-510.7597;0;-597.466;-232.8755;-14.55835;1.291032;-611.2362;-605.7385;-0.2359226;0.09578276;0;
-179.1004;0;-288.1459;-12.2523;-13.40465;-4.269727;-283.4115;-280.1058;-0.1057509;-0.09921552;0;
-157.3063;0;-257.1218;42.35757;-15.06612;-5.069232;-260.0134;-260.5215;0.4140941;-0.3589852;0;
133.4557;0;10.50218;30.38351;-8.285825;-3.05465;26.60397;26.03384;0.1538087;-0.2936572;0;
699.0997;0;539.7881;63.27393;-7.138423;-3.118563;586.046;585.0392;-0.1062153;-0.1634274;0;
622.5603;0;483.836;56.33881;-2.776994;-5.258884;512.9936;509.7389;-0.0411412;-0.0333285;0;
257.6804;0;150.0174;54.59554;0.03883523;-7.129;150.3477;148.7829;-0.1710345;0.2915417;0;
254.423;0;139.5594;59.66311;-2.305728;3.059325;144.1996;145.1976;-0.04092801;0.09634674;0;
1.107016;0;-94.21342;32.17945;-0.2273068;6.070361;-104.0706;-103.8232;0.0890478;-0.2285868;0;
-540.6218;0;-603.7376;-177.0602;-6.924883;-0.9018413;-638.4473;-637.0133;-0.1059437;-0.2933244;0;
-505.1586;0;-592.5737;-233.7912;-8.123374;-0.09714;-605.2597;-601.5782;-0.2357719;-0.09812769;0;
-174.1922;0;-285.8822;-12.54239;-4.766309;-2.508306;-276.4415;-274.5128;-0.040633;0.1618403;0;
-159.337;0;-262.7939;38.13224;-5.163661;-3.778461;-258.735;-260.6189;0.1543099;0.09671034;0;
133.8008;0;6.834758;29.4108;-1.80957;-0.02374249;29.44276;26.9361;-0.1057146;0.5513846;0;
707.0032;0;543.4332;64.48859;-2.477338;-0.8275138;595.1913;592.1874;0.08929368;0.4858632;0;
627.27;0;483.2921;55.8656;6.501109;2.924362;518.8188;513.5066;0.2191386;-0.1642984;0;
255.6387;0;142.2277;54.87244;9.575059;3.52427;149.1706;146.3;-0.1708856;0.03076866;0;
256.3813;0;136.4626;60.00219;-2.223558;0.4395138;146.8967;148.1519;-0.1707139;0.3555745;0;
6.561687;0;-92.49703;30.08191;-4.096358;0.573038;-97.50309;-95.68693;0.08932701;0.1603152;0;
-538.0461;0;-600.836;-178.2186;-4.829176;-5.656828;-635.1973;-632.321;0.1542046;0.09518673;0;
-500.649;0;-586.9265;-232.762;-5.360187;-7.794477;-600.3262;-596.2659;0.02411497;0.09509109;0;
-163.5027;0;-276.6799;-7.828611;-15.66993;-7.116815;-263.8918;-263.5213;0.02409074;0.1599629;0;
-146.0346;0;-248.2285;47.27656;-20.40961;-8.181391;-242.8246;-247.202;0.08903387;0.2247695;0;
145.4032;0;22.38498;32.6114;-6.657719;-7.235409;43.27566;39.52735;-0.3008596;0.0296416;0;
710.2231;0;550.2222;63.31319;-6.517307;-7.563054;601.2017;596.6451;-0.5604267;0.2245139;0;
623.3028;0;484.2022;56.31556;3.469576;-1.795044;517.9517;510.4636;-0.1700595;0.549125;0;
257.1103;0;150.0709;55.197;10.76711;1.22087;153.9264;148.9446;0.2199154;0.2237365;0;
255.3527;0;141.9866;59.57681;-10.54355;-3.803955;147.8372;146.4836;0.1547271;-0.2312597;0;
-1.462451;0;-95.72418;30.9688;-13.07855;-3.26427;-104.8094;-105.9118;-0.04033041;-0.16606;0;
-535.5675;0;-594.8146;-170.3362;-5.295879;-2.457194;-631.0645;-631.4786;0.02467745;0.2239109;0;
-496.1114;0;-576.5383;-224.0129;-7.099219;-3.861367;-594.3235;-593.113;0.08961999;0.2886533;0;
-168.7772;0;-275.9848;-6.084767;-0.125861;4.783067;-270.5138;-271.0537;-0.04040474;0.1584285;0;
-149.4922;0;-248.5336;46.27003;1.079714;7.390595;-248.8777;-253.0403;0.08957054;0.1582694;0;
143.6357;0;24.32908;32.23058;-1.332268;-4.070668;40.2896;36.6935;0.2843826;-0.1667264;0;
704.147;0;548.8535;63.30755;-0.2592027;-6.41098;594.0957;590.1284;-0.2356419;-0.2315262;0;
619.919;0;485.646;56.62227;-6.621955;-2.385563;512.8518;505.5152;-0.4303071;0.0285758;0;
252.6054;0;149.9515;55.19107;-8.156518;-2.852046;147.8947;144.0637;0.2197986;-0.1663549;0;
247.2917;0;139.9308;59.50841;-9.1527;-5.461515;139.5002;140.4207;0.3495125;-0.0362531;0;
-3.268503;0;-93.59252;32.89946;-11.75547;-5.924908;-106.204;-106.3465;-0.1056101;0.3535874;0;
-542.4317;0;-609.0518;-172.7178;-6.452375;-4.043432;-637.5801;-636.4106;-0.1704714;-0.03657196;0;
-507.2791;0;-596.6333;-232.0768;-6.914406;-3.101608;-605.3304;-601.226;0.219504;-0.2964046;0;
-170.9382;0;-279.0056;-11.45437;-5.835732;-2.763577;-272.3267;-271.9746;0.4141855;-0.1012047;0;
-153.2752;0;-252.6134;42.28013;-4.088555;-2.090971;-253.1876;-257.0836;-0.1059695;0.09379901;0;
143.1049;0;20.0035;29.8064;-13.72999;1.193172;36.9836;33.84107;-0.1708303;-0.2960993;0;
711.4879;0;552.0909;63.8843;-15.12271;1.794819;598.8515;595.025;-0.04072398;-0.5556712;0;
615.8832;0;477.261;56.69869;-14.23686;4.67316;508.1076;502.1609;-0.3655198;0.09456062;0;
243.8885;0;135.7029;54.83013;-15.7628;5.874157;138.9073;135.4655;-0.1052831;0.2244003;0;
247.3291;0;133.0678;60.2098;-10.05353;0.1078447;139.0801;139.5772;0.02475734;-0.1656293;0;
-7.478992;0;-102.1977;28.10291;-9.642264;-1.432749;-110.8716;-109.9377;-0.04023487;-0.2953975;0;
-545.3886;0;-604.9672;-182.9443;-8.091358;-2.302088;-641.4934;-640.2481;0.3496096;-0.2301334;0;
-500.5504;0;-582.5578;-233.1101;-7.748435;-3.170552;-599.7444;-596.6888;0.2193236;-0.2299021;0;
-170.3381;0;-284.6219;-10.98742;-6.200408;-6.650357;-273.3681;-272.377;0.02420123;-0.03476908;0;
-153.238;0;-262.0971;35.56272;-3.648583;-7.380487;-255.6647;-258.2353;0.1541116;0.4850046;0;
149.0141;0;18.65025;28.21816;-17.0415;-7.908935;40.19363;37.93793;-0.04094528;0.4845173;0;
710.707;0;542.743;65.17122;-18.83304;-9.910476;594.812;592.0588;-0.1708388;0.2891284;0;
618.4139;0;472.1079;55.98532;-19.21528;2.692029;506.5084;502.3212;0.0892022;0.4837399;0;
258.0983;0;144.7354;55.42932;-22.41116;5.100588;150.1158;149.3061;0.02414523;0.2883518;0;
253.2163;0;137.2187;59.9963;-5.443054;5.564343;144.5927;147.6569;-0.3007157;0.09316005;0;
-14.15384;0;-108.9206;27.95209;-1.887611;9.912521;-117.5459;-114.7347;-0.1055116;0.2230011;0;
-546.2471;0;-606.6234;-179.1594;-0.8139873;-7.110616;-642.9761;-639.9178;0.1544638;0.4176791;0;
-495.3486;0;-573.8425;-229.5789;3.608436;-10.1177;-594.8539;-589.8622;0.219276;0.2223574;0;
-165.3915;0;-271.2303;-6.710179;-3.897278;-5.552819;-268.545;-265.7446;0.284023;-0.3625721;0;
-149.4207;0;-251.2176;42.27195;-3.558569;-8.159452;-250.534;-252.0469;0.1538029;-0.4271752;0;
145.1439;0;19.46136;29.67328;-2.885408;3.503533;39.07226;36.81133;-0.106221;0.0929928;0;
706.4659;0;541.8667;64.25107;-1.944504;6.782054;593.3169;589.7464;0.2187224;-0.1020027;0;
616.8007;0;475.3554;56.69028;-0.6697525;2.823368;507.8259;502.135;0.02360064;-0.2968022;0;
247.054;0;140.171;55.0716;2.612474;4.428;141.562;138.2507;-0.3662271;0.2232348;0;
247.5554;0;135.8448;60.5135;0.8685368;4.088636;140.2953;140.7979;0.2188469;0.09307577;0;
-4.87911;0;-96.55;29.28087;0.1980788;4.553408;-106.7216;-105.8447;0.5434638;0.0280149;0;
-543.6659;0;-608.9454;-177.8944;29.66939;2.874382;-638.2846;-636.2217;0.3480156;0.0929541;0;
-499.2042;0;-588.2186;-228.5651;40.62429;2.000715;-595.7893;-591.7294;0.347666;-0.5568127;0;
-169.1182;0;-273.5355;-5.947245;26.24986;4.878849;-267.6678;-266.2357;-0.1724221;-0.2314165;0;
-156.4546;0;-247.9608;45.15805;28.83545;6.280588;-253.2809;-254.7238;-0.04231418;0.5484241;0;
144.9887;0;28.89929;32.1192;33.3618;-0.3569108;41.07576;39.63429;0.4774671;0.2880037;0;
706.6855;0;549.2337;64.00838;34.86853;-2.298935;594.3813;590.8174;0.217118;-0.1020898;0;
610.2111;0;470.3462;56.5103;31.81938;6.343929;501.518;496.146;0.08696511;-0.03701985;0;
250.7784;0;141.726;55.57896;30.38089;6.605486;145.3178;142.9498;0.1518451;-0.10195;0;
251.276;0;138.3977;59.77098;33.23075;10.21581;144.1099;144.6177;-0.3030789;-0.3617169;0;
-14.03076;0;-104.6193;30.10081;30.91921;12.28201;-114.9673;-114.335;-0.3677417;-0.1664514;0;
-543.1257;0;-608.0735;-171.3282;33.16629;3.963909;-637.0268;-634.8959;-0.1075028;0.09358519;0;
-491.3557;0;-581.2257;-222.1929;29.64936;2.754355;-588.7856;-585.1576;-0.4322315;0.2883932;0;
-170.9603;0;-276.7944;-6.952719;30.89237;0.2732191;-270.8535;-269.8528;-0.4967646;0.4830054;0;
-160.5437;0;-256.9636;40.84275;29.7896;-0.9327483;-257.6504;-260.024;0.2183754;0.09271605;0;
142.8402;0;20.78009;30.11958;9.531556;-3.477041;40.02152;37.83769;0.3480906;0.02765554;0;
710.4113;0;551.8048;64.1347;4.029622;-5.282086;599.7;597.5183;0.08787148;0.4174318;0;
617.4314;0;478.5993;57.0113;-7.227559;2.627086;510.0172;506.6508;0.02281585;0.352045;0;
247.1843;0;139.9759;54.95502;-14.18652;4.097949;143.0014;142.1372;-0.1071418;0.4166586;0;
252.0583;0;137.7113;61.0842;-4.191932;6.907114;145.3565;147.4291;-0.3019361;0.2863053;0;
-2.816942;0;-101.307;27.60212;-3.317064;8.909539;-106.4131;-104.8423;-0.1716981;0.09111559;0;
-545.104;0;-607.5756;-185.506;0.1025203;8.431828;-642.5366;-640.5926;0.02337649;0.02605668;0;
-494.394;0;-576.418;-232.1086;2.178522;9.494962;-594.3524;-591.1609;-0.171549;-0.3637736;0;
-164.5628;0;-275.8021;-8.237783;14.36747;5.667516;-266.9195;-266.105;-0.3013113;-0.4283754;0;
-159.275;0;-262.5315;37.62244;18.10408;5.795787;-258.7178;-261.215;-0.1061065;-0.1031082;0;
142.421;0;18.09134;28.77657;22.90768;-0.7742423;38.08062;35.58596;0.1538694;0.2867994;0;
703.2459;0;543.4341;65.16685;29.58345;-3.45266;592.3887;589.8341;0.1537148;0.611348;0;
608.0867;0;470.2371;56.4807;-0.521006;1.775356;501.0266;497.475;-0.2362437;0.0260276;0;
255.6526;0;148.7384;55.48692;-7.151915;0.232965;151.636;151.0241;-0.2360063;-0.4937373;0;
248.0869;0;138.4691;60.80347;-1.31758;9.878029;141.9884;144.7504;0.0241002;-0.1684045;0;
-30.33509;0;-119.9153;24.0733;-6.673914;12.74837;-131.7042;-129.6947;0.02407599;-0.03830058;0;
-549.856;0;-608.0494;-180.6605;8.604412;5.434543;-644.564;-642.1817;-0.04091555;-0.2981315;0;
-489.0213;0;-565.9592;-221.9581;12.74798;5.295116;-585.5707;-581.1293;-0.1058418;-0.4927339;0;
-177.8735;0;-280.1589;-7.467787;6.774296;0.7350781;-275.5129;-273.3872;-0.1707028;-0.1674021;0;
-165.0137;0;-260.5746;36.89242;9.178387;-1.476097;-259.4939;-261.4934;0.1543055;0.1576028;0;
148.3072;0;31.72791;30.85837;9.035442;-4.287775;48.61206;46.17734;0.02421573;0.1574445;0;
710.563;0;557.0569;64.87275;7.619844;-7.297577;603.3469;600.6022;-0.1707106;0.09231891;0;
615.334;0;481.6598;56.81158;18.32946;-4.008203;511.6614;506.9205;0.08933027;0.1571935;0;
250.0865;0;148.4056;55.25525;20.3198;-4.272107;149.6415;146.4671;0.2841426;0.0920682;0;
253.7708;0;147.4444;61.07178;10.0516;-6.076354;150.6156;150.6303;0.4787591;0.4168124;0;
-4.104742;0;-90.27182;28.46427;9.639358;-6.003265;-101.6591;-101.8318;0.283376;0.2214916;0;
-547.8273;0;-595.8019;-178.0231;-4.100731;-5.595335;-637.475;-636.6481;-0.3016149;-0.2335024;0;
-494.1785;0;-560.6581;-220.9475;-10.05846;-5.656696;-586.5472;-583.0975;-0.6911158;0.02660159;0;
-159.1002;0;-254.8108;0.1634725;-1.408162;-1.766002;-253.9998;-251.9902;-0.5604867;0.09154222;0;
-153.4431;0;-243.3104;46.20267;-3.349131;0.9149678;-246.9355;-248.0513;0.02478255;-0.2333865;0;
150.4959;0;36.35615;32.9129;5.094328;-7.458574;51.10048;49.73584;-0.105177;-0.2981193;0;
709.751;0;558.8694;64.05166;9.308768;-8.924705;604.5834;601.5959;-0.6897774;-0.2328524;0;
607.5264;0;479.7224;57.17822;2.735331;-2.016617;506.8372;501.2291;-0.2992803;-0.1026838;0;
262.2142;0;162.5246;55.62152;5.278178;-1.880624;162.1884;159.2721;0.1557918;0.02735409;0;
262.1381;0;155.8021;60.56312;2.125043;0.7334777;157.2779;158.175;0.3505373;0.09229396;0;
-21.42037;0;-106.9725;26.95663;0.5816901;1.938433;-121.9899;-121.281;0.4801198;0.02723387;0;
-547.5094;0;-598.8677;-178.2798;12.43745;-0.6758487;-640.1068;-639.0863;-0.04010139;0.1571412;0;
-487.1768;0;-558.4734;-222.0786;13.56305;-0.5412037;-580.9305;-578.2244;-0.4298652;0.4168527;0;
-173.0325;0;-273.93;-8.712557;14.6885;-4.090633;-269.1907;-269.111;-0.03962917;0.2215318;0;
-161.7392;0;-258.4749;35.08669;16.41505;-5.225233;-256.0517;-260.1575;0.1553127;-0.03856019;0;
151.4535;0;31.26429;30.30382;6.820367;-6.760468;50.9264;46.5749;-0.1047127;0.2863153;0;
708.3963;0;550.0346;65.13084;5.406994;-8.763163;599.1621;595.3772;-0.2345422;0.4159623;0;
605.2985;0;469.0224;56.94448;1.917961;-3.529811;500.1096;495.5164;-0.1693392;0.350577;0;
245.9331;0;143.9018;55.38802;1.179099;-2.253588;145.66;142.883;-0.1691691;0.415192;0;
245.8734;0;138.4474;61.76663;-2.438432;-4.528744;143.5146;143.5515;-0.2989337;0.3498075;0;
-20.7398;0;-112.6906;25.47278;-4.646784;-3.117552;-118.498;-118.5861;-0.233666;0.4144234;0;
-556.4496;0;-615.9493;-193.0055;8.151258;-4.186146;-647.9252;-647.2636;-0.1684639;0.0242029;0;
-498.5444;0;-578.1616;-235.2278;8.344139;-3.847025;-594.0509;-591.4534;-0.233262;-0.2356908;0;
-164.0238;0;-272.5465;-4.982012;26.08562;0.6445748;-261.3709;-261.2748;-0.03812557;-0.04055194;0;
-157.3623;0;-258.8419;39.93792;34.76695;1.581688;-250.9884;-255.2652;0.2867495;-0.2354132;0;
145.1439;0;21.21505;29.40306;10.08327;4.862141;44.92767;40.90508;0.02659195;-0.04027465;0;
710.2139;0;549.6156;65.29296;8.331827;6.531828;602.4772;598.5836;-0.03840211;0.2846026;0;
610.1752;0;472.5393;56.85656;-0.1830111;3.444172;507.5443;502.0304;0.4813752;0.02444719;0;
253.9284;0;147.79;55.61253;-9.359855;3.105797;154.1492;151.1396;0.1560548;-0.04054472;0;
249.2379;0;138.1463;61.24129;13.22219;1.963966;146.1233;146.3026;-0.1689387;0.1543981;0;
-33.99525;0;-125.2977;21.57467;17.09367;0.9572489;-132.3837;-131.8297;-0.2337363;0.2841776;0;
-557.7603;0;-616.05;-186.9672;-4.35707;-4.067311;-649.0533;-647.1257;-0.5583382;0.2838921;0;
-486.6728;0;-568.2672;-223.0111;-7.23308;-8.149061;-580.8102;-577.7599;-0.2329404;0.1536721;0;
-172.8413;0;-281.715;-5.396311;1.481725;0.5666646;-268.6956;-267.71;-0.03780432;0.02358302;0;
-167.2329;0;-263.8158;37.33764;2.0161;1.838771;-259.1803;-260.7568;-0.1027337;-0.1063754;0;
153.2117;0;37.17316;31.74041;6.099911;-8.277255;56.67148;55.09653;-0.1675978;-0.1712358;0;
711.1522;0;558.6862;65.06675;9.175241;-8.938767;607.2753;605.1396;-0.4272988;-0.1060964;0;
603.4914;0;473.9796;56.94292;0.9269986;-12.94864;502.9672;498.335;-0.3619021;0.3487816;0;
250.8745;0;151.1653;55.6988;-3.15977;-15.8159;152.2003;150.5713;0.02826563;0.4783658;0;
254.1206;0;149.5142;61.76476;9.168264;-4.413149;152.6096;155.9173;-0.2965995;-0.3666903;0;
-20.7467;0;-101.7598;27.22003;6.680806;-1.79638;-116.5335;-113.7914;-0.3612688;-0.4312892;0;
-560.3296;0;-614.2124;-183.6388;10.89365;-4.406909;-647.7743;-644.9725;0.0938656;0.3487523;0;
-496.361;0;-577.6133;-224.3713;16.44241;-2.593942;-585.0921;-581.5435;-0.1660981;0.2184672;0;
-161.3429;0;-261.2542;1.490775;-32.20299;-2.993233;-252.2962;-252.6242;-0.03599651;-0.3014911;0;
-156.2457;0;-244.7498;48.09085;-45.70094;-2.454362;-246.0457;-249.6217;0.223909;-0.3011881;0;
150.757;0;38.60379;33.175;-22.47917;-0.5095132;54.73797;51.79019;-0.2310873;-0.1059835;0;
707.9504;0;561.8644;64.25103;-24.86748;-0.2410695;604.6565;601.2744;-0.2308552;0.2839271;0;
597.4193;0;473.6565;57.50233;-18.34576;2.103575;497.1027;492.2872;-0.1006885;0.08873975;0;
253.1792;0;157.0269;55.63297;-15.38056;3.909879;155.0874;152.6506;0.2242494;-0.2361861;0;
260.8583;0;156.0571;61.38664;-8.532603;-3.997792;159.6792;161.4302;0.3539587;-0.1060141;0;
-31.38205;0;-112.0276;23.09418;-2.964324;-6.67297;-127.0247;-124.5883;-0.1661357;0.1539618;0;
-563.6454;0;-610.7267;-183.0129;-7.516673;1.907306;-650.5089;-648.075;-0.03603404;0.2187744;0;
-491.1153;0;-566.3226;-218.1863;-5.834181;2.039356;-578.9534;-575.9597;0.09393685;0.1535872;0;
-174.843;0;-274.3376;-1.763214;-10.04788;3.176016;-264.4045;-263.3503;-0.2309943;0.2833676;0;
-166.7963;0;-256.3833;41.02955;-11.78007;5.919003;-255.2058;-257.7134;-0.2957295;0.08818085;0;
148.6503;0;32.35432;33.30468;-12.57154;-3.732242;52.77094;49.39133;-0.1005303;0.02312488;0;
700.5359;0;546.6882;64.69292;-13.96543;-3.527544;596.2572;592.2563;0.02950539;0.1530363;0;
595.2596;0;462.0562;57.56897;-15.02312;-4.863657;493.8343;487.8384;-0.0354916;0.08791523;0;
249.46;0;145.1885;55.69954;-15.14175;-7.002102;149.8857;146.3946;-0.230358;0.1527942;0;
258.0175;0;147.7287;61.51562;-14.32323;10.68794;155.5447;156.4923;-0.1651592;0.2825754;0;
-23.10063;0;-112.1641;24.6598;-13.97404;15.09795;-119.8483;-119.2764;0.02990882;0.1523568;0;
-568.2409;0;-619.2964;-193.5678;-5.989398;13.81023;-656.2082;-655.5744;0.1598134;-0.3675351;0;
-500.7661;0;-575.9457;-231.9164;-3.102992;16.81046;-590.3941;-587.7619;0.09468552;-0.2372311;0;
-169.679;0;-275.2678;-3.360663;0.1826557;12.37282;-261.6533;-261.2726;0.2894924;0.1528114;0;
-169.0713;0;-264.3716;38.18433;3.866168;11.02073;-258.5168;-261.7597;0.2242342;0.08769047;0;
141.4426;0;23.49952;29.7127;-4.845254;9.000166;46.65217;43.47498;-0.1657952;-0.04233234;0;
702.0811;0;546.3381;65.7897;-7.988218;5.441149;598.7028;595.3414;-0.0356939;-0.0422898;0;
591.9932;0;456.9588;57.22786;0.7937189;5.502665;491.0925;485.9854;0.354146;-0.172182;0;
243.5731;0;136.3481;55.79605;0.3917558;4.425408;144.4605;141.4825;0.2238555;-0.4318784;0;
252.7612;0;141.0836;61.92438;-7.64659;-5.961149;149.3753;149.7735;-0.1661735;-0.171575;0;
-34.16123;0;-127.1734;21.32004;-9.648639;-8.500388;-132.3832;-131.2982;0.0288955;-0.04146795;0;
-567.4838;0;-633.6035;-192.8438;-16.80624;-7.353137;-656.924;-654.8406;0.6785399;-0.3012956;0;
-488.3281;0;-571.3728;-225.0712;-19.66876;-8.417476;-579.3651;-576.2218;0.6128907;-0.1060909;0;
-167.7483;0;-269.0753;-1.769657;-19.7837;-0.7732076;-260.1306;-259.2393;0.1575035;0.02395041;0;
-165.4558;0;-259.9344;37.39993;-20.70085;0.8351597;-255.1216;-257.667;-0.1674915;-0.1060083;0;
154.4247;0;36.86519;31.11549;-18.40287;9.005994;59.60171;56.24673;-0.3622252;-0.1059018;0;
707.7413;0;555.0676;66.00417;-18.71917;13.28385;606.0172;601.4161;-0.2319265;0.08910663;0;
591.9006;0;461.744;56.87991;-7.046067;8.246907;493.3395;486.9316;-0.2966608;-0.1058849;0;
244.6676;0;146.6257;56.26054;-3.220594;9.913072;149.2041;145.7386;-0.2313954;-0.4955826;0;
248.4822;0;146.9782;61.70124;-6.097746;1.731437;151.4904;151.4017;0.1586411;-0.3001826;0;
-41.6218;0;-121.4097;20.78478;-3.880816;-1.552344;-133.706;-133.6072;0.02854706;-0.1699463;0;
-567.1908;0;-613.2279;-186.6943;-11.78115;3.137899;-652.1235;-650.6505;-0.1014163;-0.4946122;0;
-488.8474;0;-555.8278;-218.6156;-13.57797;1.929053;-575.8188;-572.5981;0.09358762;-0.2992132;0;
-176.8253;0;-267.3515;-1.192605;-13.89912;1.726166;-265.2086;-264.3025;0.1584609;-0.1040106;0;
-170.5258;0;-251.7781;40.16281;-15.0906;1.590466;-256.1965;-258.1649;0.09333436;-0.03893871;0;
155.6068;0;48.01186;33.50078;-19.36235;1.722834;63.27551;60.87182;-0.2315961;0.09103511;0;
704.8618;0;558.457;65.13869;-23.36138;2.256966;604.6273;600.7267;-0.1014287;-0.2338931;0;
586.1503;0;464.068;57.32714;-6.794464;1.316937;489.265;483.8691;-0.03635948;-0.4285601;0;
239.8601;0;149.0723;56.33251;-2.768173;0.9137162;145.5708;143.4912;-0.2961923;-0.2332274;0;
246.0533;0;150.4218;61.39833;-13.48266;4.261823;149.9848;150.9682;0.223844;-0.2979604;0;
-36.11468;0;-107.8496;26.7915;-13.20069;5.530216;-126.2771;-125.6695;0.8732924;-0.1677264;0;
-564.3129;0;-606.8654;-180.881;-14.86237;0.8359761;-647.5757;-645.5319;0.7424803;0.09231155;0;
-490.7825;0;-562.1527;-220.6792;-15.51702;-0.102625;-578.272;-573.7314;0.1570282;-0.0377159;0;
-166.2648;0;-263.2379;-1.130206;-16.17101;3.045676;-257.4144;-254.8775;0.2218378;-0.1026454;0;
-159.8508;0;-248.9179;42.34908;-16.62426;3.511496;-248.5976;-248.9992;0.6114189;-0.2324769;0;
153.34;0;39.12504;32.74883;-16.20541;0.8956335;58.87279;58.97133;0.1560332;-0.2322433;0;
700.6607;0;549.7665;65.44947;-17.79672;-0.1100105;597.7927;597.1415;-0.03902561;0.09282678;0;
582.3907;0;454.949;57.57513;-7.329985;2.301486;482.6871;480.1;0.09094828;0.2876355;0;
239.1028;0;141.9615;56.20544;-4.978096;1.696327;143.4974;143.2242;0.02588956;0.1574118;0;
248.6701;0;144.505;61.89607;-10.93396;1.42669;152.3486;155.3242;0.09083088;0.02731897;0;
-38.74788;0;-119.8199;25.35221;-10.92298;1.090342;-127.9761;-125.4409;0.155707;0.2871609;0;
-560.1968;0;-606.5798;-177.7587;-15.5337;-2.728658;-642.214;-639.7437;0.1555505;0.1569377;0;
-481.9855;0;-550.6856;-211.563;-16.32238;-3.797644;-567.6058;-563.4514;-0.2344098;0.09181264;0;
-175.53;0;-270.8976;-0.7062839;-24.07551;-7.276818;-262.8134;-261.3494;-0.559011;0.2216551;0;
-167.4201;0;-258.4441;38.46224;-28.07078;-8.877097;-252.4919;-254.9024;-0.3635473;-0.1034044;0;
158.5219;0;42.53947;33.80091;-15.18185;-9.471024;66.664;64.44338;-0.4281493;-0.1682678;0;
699.0283;0;547.4929;65.43853;-11.61662;-12.00674;599.2043;596.2988;-0.03791508;-0.03816405;0;
580.1354;0;450.1164;57.43927;-17.4321;-3.086186;482.723;478.2586;0.2219924;-0.2330277;0;
239.9107;0;138.0708;56.06971;-16.67765;-1.006736;143.0334;141.8219;-0.4279041;0.09204314;0;
253.2253;0;143.8041;62.01036;-5.809903;-7.904722;153.6343;155.485;-0.3625068;0.5467221;0;
-32.57312;0;-119.1458;22.46789;-2.32144;-7.494882;-125.0051;-123.7809;0.1575962;0.1563686;0;
-571.8318;0;-619.2122;-194.1333;-2.319108;-11.9081;-656.6747;-653.4528;0.02750315;-0.1036579;0;
-492.4843;0;-559.807;-227.1716;0.09509613;-13.2358;-580.9901;-574.7104;-0.1024592;0.221283;0;
-167.715;0;-262.5187;-0.1822667;-3.656044;-10.07442;-257.3811;-253.794;-0.1023562;0.3509954;0;
-170.3575;0;-257.3824;39.92276;-4.054512;-9.528435;-255.6233;-256.475;0.09264866;0.02580596;0;
151.9017;0;39.53966;31.38691;-5.323236;-8.112219;60.22493;58.562;0.2224903;-0.2990567;0;
707.3448;0;557.8644;66.08791;-6.657057;-7.300272;607.8267;604.7911;-0.10257;-0.2337888;0;
582.8838;0;458.2911;57.46331;-5.243848;-1.264717;488.0883;482.4945;0.2223697;0.1562501;0;
242.5314;0;147.6115;56.40608;-5.439651;1.013973;149.8301;146.4284;0.4820157;0.09112579;0;
256.718;0;154.5846;62.09651;-5.233114;-0.1257554;160.6116;160.8989;-0.03820739;-0.1688352;0;
-39.95352;0;-119.2456;22.30409;-4.759341;0.1423027;-130.2787;-129.9916;0.2217004;0.1561712;0;
-563.4002;0;-606.4434;-182.4904;-3.013247;-0.5946525;-646.4507;-644.4773;0.4163796;0.2209816;0;
-479.4385;0;-543.1155;-212.2295;-1.938492;-1.330867;-565.4041;-561.1213;-0.4286142;0.1557923;0;
-178.4828;0;-268.645;-0.684965;-1.132261;-6.821887;-267.0482;-265.7682;-0.4931509;0.09066837;0;
-171.6818;0;-255.6939;35.92232;-0.327816;-9.427366;-257.9093;-260.3163;0.3519201;-0.03935744;0;
168.0075;0;58.90499;32.9502;1.413826;-8.614099;76.43192;74.21481;0.2865992;0.02564945;0;
708.3795;0;565.3412;65.96298;2.685203;-8.270528;610.3367;606.81;0.09140915;0.3504604;0;
580.1068;0;461.8874;57.52591;0.2716071;-17.30467;486.7228;481.2006;0.221252;0.4150756;0;
246.3164;0;156.8888;56.34367;0.405056;-20.50246;156.2746;154.5685;0.1560623;0.2197565;0;
254.3773;0;159.4798;62.28405;0.7394416;-5.210119;162.177;164.4082;-0.1689312;-0.04033369;0;
-43.04148;0;-115.1675;24.36549;0.6049768;-2.056686;-129.5269;-126.9856;-0.2337288;-0.6899666;0;
-574.4186;0;-611.5522;-189.1767;2.881545;-2.858415;-653.6957;-649.0955;0.1563101;-0.819208;0;
-494.6937;0;-553.0917;-222.5322;3.481862;-0.3103133;-576.9521;-570.545;0.2860877;-0.03877674;0;
-172.9831;0;-259.4333;2.578343;4.951255;0.5607767;-257.9075;-254.1304;-0.03903644;0.09119692;0;
-169.2486;0;-249.49;43.36775;6.018007;3.239531;-252.276;-252.001;0.1559048;0.02613793;0;
155.196;0;48.79835;32.95438;1.591331;-5.672333;64.56831;64.59317;0.02581348;0.4159157;0;
712.6972;0;565.6145;65.77975;-1.357029;-8.345828;613.6649;612.5653;-0.3640165;0.3505305;0;
586.8565;0;461.5357;58.03002;9.226906;-0.4337004;491.9841;488.5743;0.2210553;0.4151456;0;
243.0643;0;147.5421;56.16012;11.56216;-0.8351622;151.2233;150.1907;0.3507679;0.2847938;0;
259.4368;0;157.3263;62.6629;-4.591735;2.313875;165.4391;167.7809;0.2204808;0.08960559;0;
-44.54626;0;-124.0029;17.87242;-8.270817;4.454882;-133.0771;-130.7377;0.5450959;0.08951556;0;
-574.8599;0;-620.8785;-195.0385;-5.717887;-2.917473;-656.3678;-653.4061;0.4795809;-0.4303131;0;
-485.2021;0;-553.0385;-218.4557;-7.519826;-3.450405;-569.5641;-564.7938;-0.04063975;-0.3649134;0;
-182.4914;0;-276.3716;-1.157797;-6.708963;-2.308228;-269.4548;-266.8132;-0.4953703;-0.03971004;0;
-174.437;0;-265.9739;33.45097;-5.697844;-3.109704;-259.1891;-260.923;-0.1700359;-0.1046375;0;
168.441;0;50.19704;32.41786;-8.973673;1.917018;78.33929;75.7951;0.4148411;0.0903697;0;
702.0034;0;550.645;66.61808;-9.768939;3.656648;605.7454;602.5167;0.08958754;0.1552462;0;
567.8027;0;440.0221;57.43073;-1.31903;2.380298;475.0147;470.4148;-0.1054045;-0.03981179;0;
239.272;0;139.7306;56.56093;-0.648119;3.717565;148.3264;146.6047;0.3494728;-0.1697065;0;
246.2779;0;141.7142;62.50108;2.701435;4.249571;152.6751;154.5158;0.2841543;-0.4294053;0;
-55.75534;0;-137.5379;19.39742;3.569376;4.915131;-146.2657;-144.1769;0.1539341;-0.4939412;0;
-577.562;0;-630.7142;-197.9503;-2.863595;6.249851;-661.9844;-659.2106;0.2187468;-0.2985429;0;
-488.5261;0;-568.2366;-224.9253;-4.133516;5.841673;-573.8632;-569.1556;-0.1712771;0.2214959;0;
-171.0696;0;-271.1272;2.623966;-18.06181;10.8594;-258.5073;-255.2412;-0.3010397;0.54611;0;
-169.7733;0;-256.7993;40.97705;-24.40668;12.45608;-254.9992;-254.7349;-0.04086781;0.4156266;0;
158.6074;0;47.43091;32.62755;-22.84191;3.936854;68.15724;67.85905;-0.1707614;0.2852743;0;
712.8568;0;565.8726;66.1404;-26.97215;1.6556;615.5635;612.8918;-0.4304592;0.02511827;0;
581.3937;0;458.92;57.76563;-23.0593;4.534081;489.0708;483.4658;-0.4300267;-0.2997437;0;
235.4832;0;142.3678;56.58315;-22.63497;4.529525;145.127;141.9014;0.0251768;-0.1695078;0;
253.8622;0;152.8444;62.77315;-23.88404;-1.235436;158.6618;158.3755;0.2200535;-0.1043701;0;
-41.49457;0;-118.9227;20.60624;-21.58287;-2.506749;-131.2894;-131.5755;-0.1699716;-0.2342;0;
-568.8128;0;-612.1177;-186.1855;-23.36984;2.050488;-650.2091;-648.8082;-0.1048335;0.2208068;0;
-481.7847;0;-550.2834;-210.9859;-21.80612;3.388086;-565.7854;-561.6373;-0.2346628;0.2205849;0;
-179.7647;0;-270.8082;4.118093;-15.75599;5.795945;-264.7429;-263.1602;0.09040964;-0.1044735;0;
-167.7775;0;-249.9839;41.65758;-12.25656;8.067541;-249.7968;-252.6509;0.6750249;0.1555009;0;
182.0903;0;72.66772;35.99355;-11.17251;10.8726;92.84462;90.99285;0.2195752;0.220312;0;
717.3257;0;574.7173;65.69244;-9.218905;12.80418;621.1107;619.2609;-0.1054821;0.1551233;0;
575.6758;0;459.385;57.81786;-1.975974;17.34603;484.0552;479.0837;0.1544932;0.2849021;0;
246.0752;0;157.7623;56.82273;0.9063999;20.40969;155.9835;153.6407;-0.1055314;-0.1051882;0;
259.1338;0;163.2884;62.45028;1.843494;13.69113;166.0716;167.6667;-0.23536;-0.3649519;0;
-51.72047;0;-124.4811;20.28369;4.45361;12.27074;-139.1919;-137.9732;-0.04022149;-0.1047158;0;
-575.4052;0;-619.2322;-189.1314;-2.583463;16.07631;-655.7298;-653.4504;0.08975361;-0.03964328;0;
-482.3735;0;-556.6412;-212.4296;-4.122084;14.65352;-565.4285;-561.7146;0.2195981;0.02536389;0;
-176.5423;0;-273.9737;4.61237;-2.309281;16.78225;-262.2625;-260.7387;-0.1054593;0.1552731;0;
-173.2415;0;-259.0183;39.02794;-4.316693;17.30125;-257.3763;-258.4777;-0.3002553;0.02518239;0;
165.6998;0;55.83385;33.80383;1.984284;10.11681;76.15234;75.17693;0.08985043;0.2200591;0;
715.0696;0;572.6429;66.19106;3.723603;9.235867;620.7396;618.5782;0.2846622;0.4797074;0;
572.9221;0;456.813;58.00364;-4.049671;5.676613;484.3091;480.0885;0.02450678;0.2843233;0;
225.3959;0;137.0145;56.63351;-5.586819;3.661421;138.496;136.9033;-0.04048519;0.349005;0;
248.0329;0;149.8078;63.07334;-2.298676;10.62385;156.2854;157.5678;-0.1703792;0.283687;0;
-48.56737;0;-127.266;19.28194;-2.698508;12.01981;-136.2872;-135.8181;-0.36511;-0.04143481;0;
-577.9399;0;-629.6356;-195.9418;-2.494725;13.54834;-657.888;-657.4194;-0.03990645;-0.1713279;0;
-488.7788;0;-564.098;-219.4829;-1.687936;15.20918;-570.7704;-567.866;0.09006833;-0.04122102;0;
-184.3154;0;-277.7374;0.8144733;-6.241567;18.07416;-268.0988;-267.2587;-0.1049242;0.02378774;0;
-172.9483;0;-259.0925;37.10791;-6.70381;19.99839;-254.3361;-257.3076;0.2849853;-0.1061708;0;
177.9866;0;64.94257;34.82175;-5.089484;17.23211;90.87103;88.09001;0.4146336;-0.3659335;0;
711.2272;0;561.3777;66.58328;-4.950648;17.08083;616.453;611.9881;0.02441294;-0.2356312;0;
566.2725;0;436.9384;57.58337;0.4803102;13.78151;474.1548;467.0082;0.1543231;-0.1054597;0;
241.9912;0;140.2733;57.02576;3.024447;10.82053;151.028;147.0121;0.154168;0.02458094;0;
255.1788;0;146.6916;62.65311;-1.734014;14.8955;160.8713;160.3576;0.08904578;0.1544909;0;
-61.79338;0;-146.6834;17.55029;-4.277867;14.41165;-149.1971;-149.8352;0.3488257;-0.2354684;0;
-585.4056;0;-639.6007;-199.6082;8.386084;8.368947;-664.5381;-664.176;0.02363846;-0.2352318;0;
-487.1789;0;-566.3071;-222.521;10.32004;7.154845;-569.4803;-567.1821;-0.10632;0.02487397;0;
-178.5943;0;-277.0082;2.901881;-4.559809;3.798509;-262.4996;-262.8274;0.4784929;0.219751;0;
-169.7941;0;-259.3636;40.94234;-8.574691;1.852309;-251.5537;-255.6293;0.7378814;0.3494649;0;
175.3905;0;56.9257;35.46643;-11.78126;5.802319;86.09196;83.20742;0.347336;-0.170625;0;
712.6942;0;559.8032;66.35275;-14.8499;6.265369;615.6143;612.7326;0.02215031;-0.2354209;0;
560.8665;0;434.4284;57.91529;-24.3468;6.326056;467.6323;463.5666;-0.1078066;-0.04028232;0;
221.2234;0;123.3356;57.10748;-28.80934;6.654615;130.2067;129.6434;-0.1726656;-0.3650785;0;
245.2389;0;141.0777;63.04708;-22.08259;10.1979;152.0024;154.2507;-0.04255746;-0.4296791;0;
-55.04422;0;-135.9249;18.38115;-22.19412;11.79525;-142.0651;-140.8185;-0.0425147;-0.4942147;0;
-580.1624;0;-629.1653;-197.9036;-15.80881;8.367386;-660.4117;-658.9166;-0.1724067;-0.3637834;0;
-483.3778;0;-556.7567;-220.4433;-12.44402;8.492822;-568.7939;-565.3636;0.1526033;0.2212882;0;
-179.8569;0;-278.0246;0.2923296;-10.28806;6.206991;-267.8733;-266.4456;0.02251526;-0.0388035;0;
-176.7402;0;-266.4384;33.90014;-6.058164;4.861095;-260.0454;-262.8045;-0.2373767;0.02620283;0;
175.0107;0;62.2267;32.86658;-10.13791;6.463801;87.04151;84.09782;0.2176332;0.5459152;0;
709.3162;0;564.849;67.44116;-8.854929;5.85446;615.1885;611.1234;0.02251247;0.2854973;0;
556.2425;0;438.907;57.56583;-8.377518;9.063636;467.8316;461.6466;-0.2373795;0.1552758;0;
231.659;0;143.0519;57.38305;-8.435472;11.131;146.148;143.5924;0.2825978;0.02518507;0;
250.4167;0;156.214;62.76015;-3.671574;3.952764;162.9302;163.6879;0.5421832;-0.299677;0;
-62.1155;0;-133.6099;19.34389;-2.663507;2.609255;-144.2043;-143.5722;0.3467363;0.02546088;0;
-580.48;0;-622.6672;-191.1947;-0.6510989;8.56787;-656.8641;-654.7334;0.02155123;0.0254353;0;
-482.6331;0;-550.0777;-214.9281;0.4212823;7.889554;-562.8135;-558.9983;0.02152957;-0.0395576;0;
-178.7382;0;-269.5407;5.052402;0.0860663;14.84761;-261.2118;-260.2115;-0.0434594;0.09041685;0;
-169.5006;0;-251.4664;41.65393;0.3534235;18.11485;-248.9554;-251.7042;-0.3682525;-0.1695434;0;
178.9321;0;71.81145;35.36521;-2.392622;5.035223;94.68467;91.87613;-0.3029151;-0.03943834;0;
715.1077;0;573.9868;66.37657;-3.997808;2.886831;624.9479;621.0803;0.217128;0.285438;0;
564.0273;0;450.0346;58.12649;-5.266589;3.285706;478.1435;472.6555;0.1519425;0.2851512;0;
225.8802;0;141.6122;57.06858;-7.672194;0.06734592;141.8318;139.9725;-0.3679489;0.08996265;0;
242.9571;0;150.2155;63.2581;-4.851446;7.167347;156.307;158.1352;-0.1726772;-0.3648992;0;
-58.57313;0;-129.9197;20.27861;-3.573774;8.231873;-140.2636;-139.6866;-0.04256896;-0.2995652;0;
-576.6913;0;-619.4805;-190.5108;-14.02001;1.99431;-652.4901;-651.5389;0.02244115;-0.2342968;0;
-481.4095;0;-551.5793;-213.058;-15.41244;1.590409;-559.4434;-556.2443;0.282288;-0.1041267;0;
-175.3293;0;-267.2303;6.98312;-9.301385;1.655793;-254.5967;-254.2744;0.217037;0.2208146;0;
-168.0317;0;-251.8444;43.52023;-7.88552;1.989044;-245.7203;-249.2088;0.1518516;-0.1692113;0;
180.3371;0;68.3104;36.41755;-2.652683;1.920063;95.23039;92.99474;-0.1731377;-0.2989759;0;
719.8221;0;574.2999;66.36589;-0.03804956;2.721929;628.1793;625.9459;-0.04302907;0.1560959;0;
563.6145;0;445.6622;58.17829;8.133662;5.666321;477.6234;473.4557;0.1519162;0.155939;0;
225.7177;0;135.8074;57.3702;12.88091;7.134252;141.8121;140.0849;-0.4329425;-0.03911971;0;
240.7332;0;142.5425;62.74733;8.582037;10.67706;152.664;154.6242;-0.3675402;-0.1040477;0;
-70.35239;0;-145.8308;20.51797;9.577792;12.13995;-153.5855;-151.6898;0.2825026;-0.2338779;0;
-576.5272;0;-621.3827;-183.65;9.902961;16.48152;-653.6797;-650.599;0.4121534;-0.2986102;0;
-470.7508;0;-537.8;-205.0172;10.2278;19.07718;-551.6364;-546.2474;-0.1729668;-0.1034082;0;
-176.363;0;-264.2719;7.58208;5.729548;11.55616;-258.6666;-256.5938;-0.5625971;0.1565651;0;
-170.6261;0;-255.3232;43.80625;3.915129;9.602045;-250.0983;-252.2755;-0.4320971;0.09144048;0;
185.4289;0;68.64565;38.32747;6.25572;12.47266;99.41492;97.17741;-0.3017282;0.2212833;0;
715.5386;0;563.2031;65.83761;4.709193;11.7903;621.3651;617.6931;-0.0415557;0.610865;0;
553.4632;0;425.9558;58.33769;9.929374;7.960549;460.8836;454.9039;-0.1064813;0.2854145;0;
225.0719;0;124.2418;57.15464;10.58898;7.014789;132.5228;128.6106;-0.236309;0.09022567;0;
246.6472;0;141.3583;63.15666;9.037125;6.940757;152.6295;151.8447;-0.1061369;0.1551023;0;
-67.38036;0;-145.0149;18.9279;10.23447;7.134732;-152.8704;-153.8418;0.1538392;-0.1698902;0;
-586.0519;0;-630.0628;-195.1085;0.5786431;7.261529;-663.2101;-663.431;0.08871724;-0.1047522;0;
-481.5778;0;-546.9087;-214.2153;-2.503397;6.651386;-560.5325;-559.0041;-0.301176;0.09025512;0;
-179.433;0;-267.062;5.889423;0.5805771;16.95983;-260.1825;-261.9039;-0.1709386;-0.1697049;0;
-174.8799;0;-258.7352;38.74199;-1.56346;20.42578;-255.0485;-260.3914;-0.1057995;-0.1045671;0;
181.7416;0;68.17305;35.39222;2.926089;14.10898;94.84451;89.50699;-0.1056932;0.1554074;0;
716.4777;0;569.4775;67.15318;4.26232;14.42972;623.7333;617.0893;0.2192497;0.02531651;0;
554.9011;0;437.4089;57.77788;-0.7658049;14.61617;467.7472;459.9229;-0.1058073;-0.03967627;0;
223.8846;0;136.4954;57.53242;0.03924778;14.80243;139.6918;134.5616;-0.3655704;-0.0396364;0;
243.0874;0;149.5392;63.03432;-3.243321;10.56776;156.7928;154.6038;-0.04036635;0.02537077;0;
-68.37542;0;-136.9672;18.61827;-4.646582;9.217479;-147.8992;-150.0235;0.02464155;0.15528;0;
-580.5493;0;-618.3375;-188.9211;2.793802;12.69133;-651.9346;-652.8699;0.08958413;0.4149933;0;
-477.9547;0;-540.5674;-207.8467;3.125788;12.41065;-551.3923;-550.7025;0.2194288;0.4145763;0;
-178.9995;0;-263.1635;7.566487;6.002059;16.28306;-254.9245;-257.2339;-0.1056284;0.02435569;0;
-168.8246;0;-246.3449;41.60427;7.268826;17.0705;-244.4859;-249.7915;-0.5602937;-0.04063612;0;
188.7903;0;83.11218;36.93979;2.5061;15.78067;105.7713;100.5335;-0.2348939;0.02437205;0;
717.4598;0;577.0303;66.51279;1.900369;14.6261;628.2148;620.4836;0.2201135;-0.3004892;0;
556.382;0;440.6438;58.32504;-6.809077;16.95581;471.9119;461.877;0.08995761;-0.04031784;0;
231.6109;0;144.5996;57.45434;-11.8251;17.87653;150.0992;143.3228;-0.04006747;0.08965737;0;
246.683;0;156.6357;62.95632;-5.98607;6.136801;164.6285;161.732;-0.0400272;-0.4301715;0;
-72.52953;0;-136.4994;19.85219;-7.051783;4.723993;-148.0673;-150.5236;0.154915;-0.2348372;0;
-583.6997;0;-621.9931;-190.6245;-12.06854;-2.112891;-653.9142;-655.1812;0.4146287;0.2201702;0;
-476.6042;0;-546.2809;-210.7352;-12.3912;-6.665485;-551.4958;-549.9504;0.2193101;-0.1048878;0;
-176.5884;0;-264.7482;8.116626;-17.80376;11.29227;-253.1538;-253.7339;0.02418771;-0.2347171;0;
-175.0991;0;-250.8016;42.34126;-20.1304;14.76392;-248.4642;-252.292;-0.3006733;0.1553228;0;
179.2113;0;73.53752;36.3642;-11.9385;16.75857;99.8605;96.41132;-0.2354038;0.09019942;0;
721.0713;0;579.022;66.62493;-11.32426;21.69835;634.6788;629.5464;0.0896694;-0.1697606;0;
559.74;0;444.4451;58.31213;-6.289043;16.38501;476.4952;469.369;-0.1053227;0.4151161;0;
218.224;0;130.4061;57.06664;-2.129538;17.23933;135.8749;132.3166;-0.2351516;0.2197969;0;
237.8697;0;144.4554;63.94331;-15.12184;18.49456;153.2921;153.6104;-0.2349153;-0.2351953;0;
-74.21258;0;-142.8579;16.77774;-17.45117;17.33739;-151.4588;-150.7036;-0.1047446;0.02491037;0;
-590.5035;0;-635.6541;-194.4455;-9.664106;18.52554;-661.6751;-658.9841;0.2851647;-0.2999514;0;
-479.1533;0;-549.4333;-206.4939;-9.855467;16.63152;-553.9391;-549.5016;0.3498455;-0.4295847;0;
-182.0709;0;-267.6476;9.854918;-11.05101;16.34688;-257.5312;-256.4715;0.154592;-0.234251;0;
-177.7026;0;-256.6341;39.76748;-12.11164;15.25873;-251.8376;-254.0274;-0.3003348;-0.493885;0;
192.7898;0;85.70182;37.22877;-10.69295;9.014105;109.9212;107.8586;-0.6248696;-0.168552;0;
722.8296;0;582.3035;66.73901;-10.94965;7.464562;632.7979;628.301;0.2203336;0.2214214;0;
553.438;0;436.0417;58.11375;-13.68531;0.2230268;467.9321;460.6911;0.4799816;0.3511336;0;
232.1682;0;140.0021;57.74302;-12.8009;-3.52812;147.8101;144.1371;-0.3001088;0.3507808;0;
245.9903;0;150.4811;62.99483;-21.56195;3.776321;158.9059;158.6724;0.08999683;-0.03937574;0;
-81.21748;0;-150.7688;20.45288;-23.34895;3.973475;-160.7807;-161.826;0.4147431;-0.4941075;0;
-586.5068;0;-634.3741;-185.6516;-14.88637;6.849749;-658.6188;-658.6011;-0.04044502;-0.4936111;0;
-475.6604;0;-547.2802;-204.0807;-12.05739;9.522061;-552.0103;-549.6813;-0.1053717;-0.1682784;0;
-187.5771;0;-269.557;8.580091;-9.165866;7.837921;-265.5993;-265.8963;0.02466884;-0.1681093;0;
-182.3911;0;-255.4806;42.55439;-6.075198;10.04048;-257.0865;-261.6936;0.3494807;-0.102973;0;
184.8577;0;81.60677;38.88845;2.236302;6.011539;103.4282;98.51341;0.08926024;0.0270651;0;
718.5286;0;579.1497;66.52296;5.516585;4.129977;628.8726;622.9008;-0.3006335;0.09200527;0;
554.701;0;438.3882;58.27274;10.33381;14.70889;467.4465;459.1694;0.02450528;-0.3628586;0;
225.4964;0;136.5991;57.46456;13.20382;16.10075;139.6414;133.6839;0.1544153;-0.557396;0;
241.4492;0;147.4564;63.65368;5.955906;11.86477;153.494;150.6035;0.08929284;0.2227722;0;
-75.82156;0;-143.2333;17.48789;4.744473;11.71888;-156.8793;-159.3921;0.2191378;0.2875157;0;
-590.1743;0;-619.6623;-193.9234;-3.766761;6.013677;-662.28;-663.1661;0.08898292;-0.232512;0;
-477.7625;0;-528.0229;-207.6591;-8.585748;3.730215;-552.6693;-551.6805;-0.2359432;-0.167311;0;
-175.9964;0;-255.1292;9.128229;-8.979262;0.9133056;-252.8894;-255.025;-0.1707388;-0.1671429;0;
-175.6321;0;-250.2502;40.22842;-13.25715;-2.168827;-249.0121;-254.6438;0.2842042;-0.1020076;0;
187.4244;0;86.51958;37.43938;-7.550399;1.182499;107.8713;103.3073;0.4138533;0.287899;0;
716.4077;0;580.3719;66.88694;-7.073322;0.779413;629.6256;624.0667;0.4784048;0.09270766;0;
547.6472;0;436.923;58.26153;-10.81726;-1.49879;465.0753;456.7109;0.5428914;0.2225492;0;
230.2562;0;145.1304;57.51584;-9.39987;-2.10013;148.9542;142.847;-0.04236015;0.7420643;0;
243.3307;0;150.7942;63.39256;-14.88278;-0.5574125;158.1748;154.7599;-0.5620563;0.2215799;0;
-88.87196;0;-155.7033;16.04013;-16.20797;0.1129769;-167.9453;-171.794;-0.1067202;-0.03851208;0;
-589.5934;0;-622.9994;-196.1818;-7.148382;-1.226795;-661.0911;-663.6866;0.2831911;0.09146131;0;
-471.1227;0;-527.9209;-207.6039;-4.730302;0.04711313;-545.4846;-546.3283;0.0230372;-0.03856529;0;
-189.6031;0;-271.1443;4.435772;-5.395134;-4.038771;-264.7023;-267.3568;0.3478508;0.0264408;0;
-189.1628;0;-265.2496;29.60616;-3.514679;-5.039457;-261.0005;-265.589;0.6073706;-0.1035204;0;
184.2147;0;80.21838;33.94921;-2.907935;2.199641;106.3272;102.2432;0.1519889;-0.1683838;0;
717.7614;0;579.3868;68.08543;-2.302777;3.068087;631.8936;627.1265;-0.2379678;-0.2981493;0;
549.312;0;436.5637;57.95957;-0.7592455;7.150963;465.2172;459.3304;-0.5625654;-0.4927517;0;
223.1737;0;136.5881;57.52652;-1.361695;9.421076;140.85;137.343;-0.1072288;-0.2973545;0;
244.8134;0;151.1309;64.21532;2.458066;5.191807;160.8234;160.2559;0.1527483;0.09274828;0;
-79.51966;0;-147.246;14.11345;4.665423;5.253573;-157.0535;-156.6209;-0.3671439;0.09265509;0;
-596.9296;0;-630.605;-203.2915;-9.740229;2.167201;-667.514;-666.4572;-0.3018076;0.02759464;0;
-477.5146;0;-536.7057;-210.0212;-13.81628;0.3564844;-552.4633;-550.2206;-0.04163501;0.1575016;0;
-178.3724;0;-266.1147;9.829425;-5.831793;0.4231091;-257.1814;-257.1273;0.1533089;-0.2324607;0;
-187.1886;0;-271.2196;32.74553;-6.964033;-1.318872;-265.7935;-268.3007;0.2830895;-0.6220312;0;
175.0675;0;63.19743;33.52471;-3.407062;0.02211163;89.54511;88.28979;0.3477724;-0.2965695;0;
716.6193;0;570.7538;68.28604;-1.059114;-0.513774;624.7486;623.1197;0.1525209;-0.1663368;0;
551.2944;0;433.3116;57.97257;-8.225346;-0.7142066;464.0138;460.2002;-0.2374364;-0.2961043;0;
229.0897;0;139.0239;57.72692;-8.685596;-0.3115914;144.333;142.3973;-0.1072631;-0.1009048;0;
240.2288;0;143.0696;64.22811;-3.385582;-3.124439;153.9331;154.7479;0.2176813;-0.2307381;0;
-99.90427;0;-170.4791;11.56502;-1.439798;-3.456215;-179.1792;-179.1149;0.2174626;-0.4254082;0;
-599.8026;0;-636.6984;-202.2766;-4.050319;-3.586708;-672.5636;-671.7496;0.3471788;-0.2300788;0;
-474.3876;0;-534.0474;-207.2583;-3.711457;-4.18595;-550.6362;-548.1365;-0.0429741;0.09498914;0;
-193.302;0;-275.2656;8.591595;0.2434114;-0.9666854;-270.5984;-270.7249;-0.5626696;0.2897957;0;
-185.4241;0;-264.057;35.06965;-0.02427687;-0.4968335;-261.7059;-264.8307;-0.2372676;0.3544719;0;
195.8206;0;85.78259;36.59613;9.085426;2.651742;111.3697;108.373;-0.1720618;-0.03568837;0;
717.3616;0;574.7631;67.60625;13.16213;5.730292;626.6862;621.8809;-0.4317583;-0.2955219;0;
543.1655;0;429.3833;58.2305;-0.5151215;-2.782054;457.9535;450.7168;-0.04152041;0.09457913;0;
219.782;0;136.0991;57.7347;-2.256892;-3.248139;137.4667;133.4231;0.08845599;0.3543535;0;
229.9934;0;142.2717;64.23589;-2.254624;4.256969;145.7618;145.7828;0.0883671;0.02916068;0;
-92.20082;0;-155.9715;14.82116;-5.400191;6.73106;-170.8505;-170.7672;0.218213;0.09409874;0;
-595.4177;0;-625.8909;-197.5245;1.772531;8.733663;-667.8665;-666.7836;-0.2367776;0.2239389;0;
-468.4454;0;-522.2513;-203.8228;2.306614;11.47119;-544.3821;-541.3014;-0.4314418;0.09377918;0;
