Fp1;Fp2;O1;O2;POLY3;POLY4;A1;A2;Video;Audio;event;
-680.58;0;-646.5143;-688.8347;-6.659916;4.871693;-689.1628;-691.2274;0.1728131;0.3614783;0;12:43:44 Глаза открыты;
-358.3078;0;-357.1973;-401.9738;-8.9304;6.474388;-370.8175;-374.1294;-0.02226254;-0.2885583;0;
-191.6564;0;-201.7288;-247.5848;-5.839968;6.4009;-203.4664;-210.8354;0.3025965;-0.4831704;0;
-131.9937;0;-143.6802;-188.3032;-17.95789;8.001936;-144.354;-153.1524;0.2373251;-0.2877829;0;
418.4873;0;367.145;356.7371;-19.81586;9.266572;397.2064;387.9796;-0.08775003;-0.02762438;0;
726.037;0;661.378;678.5917;-18.99166;2.760038;701.9664;690.7498;0.04227283;0.2972401;0;
357.1176;0;327.6933;345.327;-21.65189;1.886609;337.8187;327.1132;0.2371324;0.2319741;0;
179.7227;0;160.2606;183.936;-12.72153;1.013935;158.1319;152.3722;0.1719268;-0.09309572;0;
144.9345;0;124.4924;147.0821;-11.57065;-0.6616571;122.8032;119.6729;0.1067867;-0.02803484;0;
-368.2033;0;-352.4555;-361.2477;-12.96554;5.300367;-381.3793;-385.381;0.4964834;0.03696067;0;
-683.3622;0;-652.0756;-692.718;-12.68409;6.299785;-693.9638;-697.5242;0.6259192;-0.3528805;0;
-362.399;0;-364.9393;-409.414;-12.00176;6.628369;-378.3623;-383.0435;0.1705189;-0.02768923;0;
-194.8065;0;-209.8379;-255.8296;-10.98533;7.961246;-210.0665;-218.1164;0.3652496;0.2971753;0;
-124.9582;0;-140.3494;-184.5457;-21.28942;7.149451;-140.7027;-149.744;0.2999153;-0.2878294;0;
429.951;0;375.8447;366.9875;-24.54958;8.414943;405.2893;396.5695;-0.2850922;-0.4174748;0;
730.3677;0;663.2599;684.2092;-20.03693;4.5216;704.0442;693.0842;-0.2848057;0.2975854;0;
365.3795;0;335.3205;355.9363;-20.28522;3.646278;344.767;333.006;-0.02465017;0.03741701;0;
190.1002;0;171.5657;195.4717;-21.40294;8.532247;168.0717;160.5704;0.235244;-0.417392;0;
142.683;0;124.292;147.4868;-20.64547;9.528418;120.3018;116.0563;0.1700402;-0.09213588;0;
-369.578;0;-350.4694;-358.1573;-17.74434;9.92074;-383.8158;-387.3073;0.03993471;-0.2869453;0;
-682.2368;0;-647.5927;-689.006;-15.8505;10.84853;-693.7117;-695.8878;-0.02507276;-0.4165917;0;
-368.6461;0;-367.3325;-412.3274;-12.82046;12.98096;-383.92;-387.7806;0.03991977;0.2335003;0;
-193.9258;0;-205.4196;-250.9315;-11.60213;14.17361;-207.6851;-216.4769;0.2347817;0.1682984;0;
-131.887;0;-145.3058;-188.8979;-4.624249;12.41782;-147.0068;-156.7268;0.1695784;-0.4165768;0;
413.2841;0;359.649;352.5199;-1.136977;11.73563;388.122;379.5362;0.1044407;-0.4161582;0;
731.0838;0;662.5101;685.9354;-8.302155;12.86243;703.1984;692.1225;0.3642051;-0.09090337;0;
359.3482;0;327.5125;349.8522;-7.892647;11.97872;336.0511;325.1737;0.2339045;-0.2857141;0;
170.1446;0;148.7731;173.7765;-11.70213;10.22525;145.0592;139.6275;-0.1561346;-0.2204596;0;
141.6129;0;119.8256;142.6175;-13.83383;9.277219;117.5522;114.0001;-0.02604302;-0.09030343;0;
-366.2742;0;-348.6844;-356.9623;-8.060128;4.378265;-381.0653;-384.2391;0.1039178;-0.2201474;0;
-686.1827;0;-654.6176;-693.9965;-8.05203;2.029463;-697.9604;-699.257;-0.156056;-0.2848935;0;
-365.8414;0;-368.5408;-411.1285;-4.493966;0.5539212;-381.3554;-383.9625;-0.09093181;-0.2846072;0;
-198.3078;0;-210.2498;-254.1691;-2.680789;-2.594833;-212.4319;-218.5971;-0.0258731;-0.1543866;0;
-133.0163;0;-145.8833;-188.5091;-4.7542;3.235167;-147.5635;-154.9718;-0.1557818;-0.08926412;0;
422.6506;0;370.4413;362.5909;-3.610347;3.901746;398.5603;391.9715;-0.480462;-0.02420708;0;
721.5755;0;657.7994;680.3792;-5.951244;-1.259738;695.5104;687.3665;-0.5449466;0.2356866;0;
355.3466;0;326.9919;348.8618;-6.347406;-0.3207117;333.9305;325.9196;0.1052744;0.3004172;0;
190.135;0;168.9302;195.3383;-4.197574;-7.956322;165.6169;162.7365;0.1051687;0.3650826;0;
143.2799;0;121.0969;147.3535;-3.791215;-10.09166;118.6615;117.9704;-0.2197737;0.1698138;0;
-374.7288;0;-359.1584;-366.224;-1.51023;-1.909845;-390.1396;-391.8294;-0.3494876;-0.1551936;0;
-678.5118;0;-649.7763;-689.8806;0.2999489;-1.30508;-691.221;-691.7847;-0.2192017;-0.1550377;0;
-365.4871;0;-368.6394;-413.0762;-1.843806;4.85854;-382.4314;-383.1819;0.2357899;-0.4147512;0;
-199.7655;0;-212.7222;-260.1753;-1.975675;8.001734;-215.131;-219.7538;0.3654877;-0.3493671;0;
-127.4135;0;-141.9189;-187.7626;1.710005;6.118293;-142.6387;-149.3183;0.3651204;0.23569;0;
421.8135;0;368.7796;359.0263;0.8376306;7.987545;398.1079;391.4975;0.1698515;0.5602899;0;
728.1105;0;661.5117;681.7531;9.945492;2.888939;702.3672;692.9523;0.0397462;0.1699228;0;
357.19;0;325.9528;345.6117;15.02669;1.278568;337.0948;327.0022;0.1696409;-0.2850193;0;
171.8615;0;150.9006;175.3499;-6.154528;3.889495;150.2873;145.2023;0.0395358;-0.08983089;0;
141.2666;0;119.827;144.2517;-9.631945;2.746877;119.1519;116.3209;0.2993654;0.1051614;0;
-359.8735;0;-344.8099;-353.643;-1.919107;3.480929;-373.4703;-377.0481;0.4289993;-0.02487895;0;
-679.8508;0;-650.0598;-693.804;-3.524769;3.544415;-689.3735;-692.1357;-0.09117047;-0.219756;0;
-364.4509;0;-365.6742;-414.6844;3.980861;0.0578627;-377.2749;-381.1587;0.1687905;-0.1545678;0;
-187.7983;0;-199.0779;-250.1002;4.847517;-0.7459906;-199.9223;-208.1125;0.4934576;0.1054569;0;
-125.5159;0;-138.3457;-186.4433;10.40235;-1.616019;-137.6901;-147.5587;0.1031577;0.1703182;0;
419.9612;0;368.0388;356.7211;14.34401;-3.422812;399.8032;391.0064;0.2329888;0.04021241;0;
723.5739;0;658.9601;679.5128;2.205813;1.939017;700.75;690.7127;0.8174607;-0.02479534;0;
358.9672;0;330.5877;351.8069;1.131869;2.87483;340.0393;330.4494;0.6867046;-0.1547051;0;
187.2551;0;168.0246;191.6587;-1.482212;0.259729;166.5347;161.702;0.03634124;-0.02461497;0;
139.7782;0;120.0672;143.8026;-4.762277;2.000902;119.391;117.0619;-0.02866262;0.4951485;0;
-372.1674;0;-354.1901;-359.9638;1.137007;-6.775629;-383.6012;-386.6151;0.1013009;0.1698143;0;
-676.0156;0;-642.7515;-681.2529;0.4662787;-9.180083;-683.19;-685.4512;-0.288605;-0.0252584;0;
-365.3671;0;-361.934;-404.0823;2.609264;-0.9991859;-376.4698;-378.7913;-0.4182497;0.364571;0;
-200.2078;0;-205.8985;-250.1285;3.543671;-1.534045;-210.8621;-217.554;0.03694198;0.1693027;0;
-126.5436;0;-134.9772;-179.2252;0.5260006;7.643914;-137.1247;-147.1207;0.1018722;-0.0907368;0;
423.7445;0;376.0266;366.4307;0.7265428;12.19095;404.0536;394.8173;-0.02816484;-0.155613;0;
726.9161;0;665.8154;686.4015;-2.62309;0.5240368;703.7468;693.2079;-0.09310388;-0.2853913;0;
356.684;0;330.6271;350.2554;-3.424737;-0.07933611;337.9731;326.7577;-0.1579777;-0.02523516;0;
172.7928;0;158.2563;181.1133;-3.756089;0.7915217;152.0393;145.5203;0.03708309;0.2996269;0;
142.8842;0;127.2378;151.6336;-4.288178;-0.749881;122.7762;119.1998;0.1669805;0.1044238;0;
-359.5694;0;-339.2181;-344.9568;-3.212142;3.470675;-369.5373;-373.4225;-0.158024;-0.09058314;0;
-677.3607;0;-641.5376;-680.0665;-4.012222;4.070034;-684.3825;-686.5771;-0.2228325;0.1044099;0;
-356.4661;0;-354.0996;-395.4009;4.163483;3.463098;-369.4153;-371.4203;-0.287576;0.03933765;0;
-189.6291;0;-197.1975;-240.4563;6.972339;4.799277;-201.3159;-207.5043;-0.7420584;-0.09063656;0;
-133.5291;0;-140.9651;-184.8051;-0.6704772;1.981172;-144.2048;-153.198;-0.6763455;0.1693239;0;
418.89;0;369.9823;361.2937;-1.808879;1.644388;399.1046;390.3702;-0.1559271;0.1041864;0;
727.5637;0;664.275;686.8294;1.676539;5.728573;704.4874;695.0122;-0.09080309;0.1040817;0;
362.5157;0;336.5844;358.0542;2.143369;6.057732;344.5226;335.4317;-0.1556792;0.2988792;0;
184.9281;0;168.4555;193.7143;-4.289146;10.60636;165.7661;160.6823;0.2342813;0.3635462;0;
140.7019;0;122.6842;148.4798;-5.691356;13.34188;121.7466;118.542;0.2990132;0.2332462;0;
-363.1238;0;-344.6418;-351.1683;-5.216147;5.022837;-374.2515;-377.203;0.2337454;-0.09182487;0;
-667.6682;0;-634.6495;-674.5902;-6.684774;3.611149;-676.7232;-677.173;0.2335106;-0.4165693;0;
-358.5274;0;-355.4644;-399.0505;0.08709662;6.420804;-371.5713;-372.8327;0.2332759;-0.02634669;0;
-196.2485;0;-200.9971;-246.9758;2.096741;4.605813;-207.2178;-212.9758;0.1680742;0.1036145;0;
-123.7751;0;-131.0802;-175.7633;-0.4509612;10.29461;-134.671;-142.4221;-0.3518334;-0.351261;0;
429.0089;0;379.295;370.3264;0.6875918;12.0257;408.4414;400.1359;-0.546382;-0.2209734;0;
729.5516;0;665.5823;686.4827;1.692255;1.296715;705.9437;695.3976;-0.09106154;0.1040853;0;
363.0024;0;335.5166;356.8333;3.298145;-1.450888;344.5407;334.9423;0.03896464;0.2339154;0;
185.3518;0;168.7631;194.681;-0.9920768;2.301492;165.5968;161.5052;0.1038928;0.03877837;0;
149.6209;0;132.2993;158.6909;-2.59867;1.093609;129.9482;127.9847;0.1687558;-0.22113;0;
-359.0863;0;-338.6595;-344.5282;4.235468;1.561391;-370.306;-372.8297;-0.02631581;-0.1559404;0;
-680.5637;0;-645.2274;-686.3225;3.830046;2.430478;-689.7106;-689.6082;-0.156224;-0.02584905;0;
-356.9172;0;-357.0986;-400.8386;6.438167;-3.868116;-371.5522;-371.3249;-0.09109973;0.169079;0;
-183.7705;0;-195.2585;-239.0794;7.503424;-5.471819;-197.9534;-202.5989;0.03892649;0.2988437;0;
-133.8608;0;-144.0879;-188.6144;-0.4747182;0.7629693;-147.967;-154.7943;0.1038547;0.1036415;0;
415.8724;0;366.6128;355.9265;-1.479595;1.632859;393.2846;386.2769;0.233685;0.1035373;0;
730.4837;0;665.0942;685.4031;-10.45309;2.100099;705.045;695.5456;0.03854822;0.2983353;0;
359.6857;0;328.6572;349.7577;-15.26536;3.035749;338.6454;329.2805;-0.0914252;-0.02680119;0;
177.7281;0;158.1;182.865;-9.35552;1.425231;154.585;149.9771;-0.221268;-0.2216763;0;
141.88;0;121.7093;144.7628;-12.02544;0.5530205;117.948;115.5311;-0.3509804;0.2982852;0;
-364.5081;0;-347.6771;-354.5067;-3.975402;1.490226;-379.7329;-381.835;0.2990457;0.3629528;0;
-676.5474;0;-644.1785;-680.549;-0.5551561;0.3500186;-688.321;-687.7349;0.4936472;0.1027188;0;
-362.8999;0;-362.9223;-402.4421;-13.08053;-0.655077;-379.2844;-379.1986;0.03837984;0.1675829;0;
-201.1163;0;-209.8844;-251.301;-13.06739;-0.2525212;-215.8602;-220.4597;-0.09159341;0.2973492;0;
-133.9479;0;-142.4573;-181.8333;-15.80092;-10.36645;-147.8649;-153.959;-0.1564687;0.5569198;0;
423.469;0;375.6755;371.0716;-18.12859;-12.96836;400.3207;394.3577;-0.3512135;0.6213275;0;
728.2651;0;665.1523;689.3511;-7.193014;-8.869375;702.9536;693.9981;-0.415828;0.2308992;0;
366.7147;0;336.149;360.5109;-5.309776;-9.530293;346.4261;337.2298;-0.2854755;0.1656998;0;
190.9344;0;170.7067;200.229;-4.702204;-1.951889;167.8552;163.5405;-0.4800906;0.03559861;0;
140.3929;0;120.9352;149.1784;-2.888818;0.7963728;117.0245;115.1505;-0.3496735;-0.4841759;0;
-367.4305;0;-350.2621;-353.5314;-4.359784;2.336058;-382.2797;-383.777;0.4302859;-0.4836894;0;
-677.9051;0;-645.1992;-680.7615;-4.288054;5.146994;-689.8658;-689.7374;0.4948209;0.1664701;0;
-364.3187;0;-363.3797;-404.1537;-5.489194;2.596471;-379.8906;-381.324;0.0395523;0.4911395;0;
-191.6642;0;-202.033;-243.9529;-5.818471;2.660845;-206.4084;-212.4006;-0.02545478;0.1008419;0;
-130.5648;0;-143.0471;-182.8634;-11.17126;2.926103;-146.5435;-153.7166;0.03953814;-0.2890635;0;
417.1662;0;365.0288;360.0476;-12.83497;1.985402;392.8952;387.0411;-0.1554036;-0.288773;0;
730.4019;0;665.6982;691.3316;-16.03726;2.586253;705.718;697.2462;-0.2202148;-0.0935808;0;
365.3511;0;337.3191;363.1765;-20.77657;3.253484;346.3766;337.4135;0.1048432;-0.02851943;0;
179.7646;0;161.6933;191.5852;-1.197161;-4.385596;158.3105;155.166;0.4945419;-0.02849078;0;
139.1667;0;120.5514;150.2259;5.435474;-6.591626;117.172;117.3415;0.2341756;0.3613419;0;
-362.8458;0;-343.9613;-346.2381;-16.00453;-0.3557118;-375.7605;-376.6532;0.1040056;0.4259462;0;
-679.2595;0;-644.8393;-680.3471;-17.06017;-0.2213885;-688.7255;-688.8676;0.4937052;0.1006815;0;
-369.5448;0;-366.8308;-406.3633;-12.08556;5.338295;-383.8113;-384.0158;-0.091497;0.230515;0;
-198.1969;0;-205.4806;-248.784;-13.07877;8.949887;-212.5116;-216.7763;-0.3512744;0.5551201;0;
-129.0949;0;-138.1829;-181.1304;-2.34836;3.046519;-144.6446;-150.2168;0.1038499;0.2946929;0;
420.2587;0;369.2635;364.5274;0.9355533;3.579321;395.7292;390.9746;-0.4809605;-0.03043991;0;
728.8062;0;662.8697;689.7474;0.8008913;6.790783;702.927;694.7414;-0.8702813;0.09952538;0;
370.6285;0;341.8022;367.8409;3.479404;7.252841;350.5225;341.7204;-0.1547661;0.1643927;0;
188.5349;0;170.1074;200.6801;1.600874;10.5947;166.2627;163.529;0.2351935;0.2941622;0;
141.3691;0;122.8351;152.3151;2.469921;12.19152;119.1817;119.0119;0.04005516;0.2288993;0;
-364.3938;0;-344.8658;-348.3988;1.596783;10.37085;-377.0637;-378.5451;-0.02495243;0.09873462;0;
-676.2457;0;-643.0567;-678.695;1.394108;11.23121;-686.0293;-686.0724;-0.3497641;0.1636028;0;
-362.2237;0;-362.6137;-400.1527;0.723122;8.942508;-376.4952;-376.226;-0.2194779;-0.4212677;0;
-194.9436;0;-207.2023;-246.4527;-0.4840294;7.325932;-208.5761;-212.2427;0.3004813;-0.2909097;0;
-131.2797;0;-145.3376;-184.9859;4.071784;15.7583;-145.8979;-151.7472;-0.02465731;0.2291213;0;
424.6354;0;371.9235;366.6104;4.737278;17.81881;401.4111;395.5052;-0.1545672;-0.2258803;0;
738.051;0;671.524;697.1381;5.201033;11.63872;713.0385;705.077;-0.2193792;-0.2906207;0;
368.2449;0;338.3289;364.4795;7.272888;11.22513;349.0046;341.3011;-0.2841262;0.03450802;0;
182.2182;0;161.7651;192.0123;0.9689402;10.611;161.8728;158.9871;-0.0239713;-0.09546133;0;
145.8033;0;122.1848;151.777;0.09731049;8.858787;124.7912;124.0323;-0.2188492;-0.03039807;0;
-361.6507;0;-348.1391;-349.5611;4.786262;13.67253;-374.2084;-375.6537;-0.08869465;0.03459981;0;
-685.1246;0;-655.822;-689.2889;5.182618;14.73052;-694.921;-694.7407;-0.08860553;-0.160337;0;
-364.7843;0;-367.1827;-405.7385;8.191521;8.955312;-378.8188;-379.5132;-0.2184512;-0.2251432;0;
-187.3193;0;-200.7098;-242.0379;9.188643;8.678382;-199.9029;-205.1568;0.4314417;0.09991974;0;
-127.536;0;-143.4743;-182.5744;9.380482;7.129054;-141.1065;-147.3546;0.4959756;0.424656;0;
422.3158;0;367.1633;363.772;9.371057;5.782354;399.3262;393.9589;-0.1541962;0.359262;0;
730.9861;0;662.0834;688.5555;7.48563;13.27839;705.1461;697.8477;-0.3489433;-0.1608377;0;
367.7463;0;334.52;361.1529;5.736796;15.94436;346.3675;339.5137;0.04121137;-0.5504801;0;
185.4058;0;162.4577;194.2487;3.185436;10.97173;162.7366;159.8877;-0.1537321;-0.2250903;0;
138.1806;0;114.0687;145.9527;0.8377111;11.02769;115.5342;114.4373;-0.608349;0.09997256;0;
-361.4572;0;-347.5015;-347.446;-5.124002;14.0977;-376.1473;-376.8058;-0.02303164;0.1648394;0;
-671.8128;0;-642.254;-675.4319;-8.334034;12.87784;-682.6151;-682.6483;0.4317629;0.03473912;0;
-361.7308;0;-364.5604;-401.7654;-9.865901;18.55833;-375.3958;-376.6783;-0.02344234;-0.3550998;0;
-192.6396;0;-203.7122;-243.566;-10.99506;19.27649;-204.7916;-210.1334;-0.02341878;-0.02990632;0;
-130.9769;0;-142.6631;-182.9142;-12.85905;10.34864;-143.1792;-150.3896;0.04157209;0.1000584;0;
417.8788;0;365.0376;359.9968;-12.91348;8.261768;396.3185;390.5522;-0.02343702;0.4247946;0;
728.8649;0;661.709;687.9701;-9.75267;1.555295;703.8281;697.2554;0.1714886;0.6842371;0;
363.6283;0;331.897;359.1937;-9.34073;-1.795292;342.9893;336.6107;-0.08855312;0.03387617;0;
180.6672;0;159.7124;191.5419;-0.4227359;-4.338717;158.9246;156.5503;-0.2183988;-0.4209293;0;
146.2529;0;124.5071;156.367;2.324355;-7.34859;126.0313;124.9713;0.1066573;-0.355539;0;
-360.3895;0;-344.0076;-343.9137;-0.1572029;-1.245881;-370.9081;-372.9041;0.2364848;-0.03034501;0;
-685.6137;0;-652.1319;-686.3334;-0.3571397;-0.2398854;-694.1852;-694.5551;0.1712799;0.1645875;0;
-361.0251;0;-361.4349;-400.3496;-2.701305;2.305585;-375.1477;-375.7046;-0.2186963;-0.1604146;0;
-184.3135;0;-196.8418;-237.4041;-3.636596;4.84862;-196.7977;-201.9142;-0.3484112;-0.09528606;0;
-136.7146;0;-149.1054;-189.4395;-17.16325;2.298396;-148.5616;-156.1093;-0.02322442;0.3595811;0;
413.2089;0;362.3499;357.6634;-22.97315;1.961172;392.0035;385.0257;0.04176626;0.3592198;0;
732.7579;0;668.3318;695.6964;-18.73051;7.518663;708.4504;700.2302;-0.08821039;0.1639568;0;
368.8916;0;339.95;366.9123;-20.25193;8.984733;349.4186;341.8314;-0.2180564;0.1637921;0;
187.2995;0;167.0077;198.0658;-20.3653;0.3351507;165.2224;162.3279;-0.15287;-0.09624189;0;
142.5712;0;120.6756;152.2023;-18.93832;-1.607691;120.0166;118.7492;-0.1527164;-0.2260799;0;
-364.6297;0;-348.1476;-348.699;-20.66158;-0.8022805;-377.8539;-379.6197;-0.0875956;-0.09591802;0;
-669.3599;0;-637.3397;-670.9365;-21.91264;-1.337338;-679.8846;-679.0875;0.2373291;-0.2257563;0;
-353.1584;0;-353.5291;-390.5279;-4.610248;-3.546431;-367.2958;-367.3116;0.5619274;-0.0955948;0;
-192.9464;0;-202.4372;-242.5222;0.2171557;-3.87766;-205.3829;-209.709;0.431428;0.1643706;0;
-129.222;0;-139.8901;-178.8104;-6.012353;-1.529483;-142.1457;-148.0917;-0.1537115;0.03427078;0;
419.8194;0;369.4945;366.4078;-2.791131;-2.197776;398.1006;392.2231;-0.4134264;-0.4205351;0;
723.8696;0;660.7891;687.628;-12.2328;8.588441;699.6113;692.2405;-0.3480437;-0.2252105;0;
367.2586;0;338.4118;366.3482;-11.54994;11.99582;348.1472;340.6588;-0.2177593;0.4246893;0;
188.4792;0;167.9698;201.2504;-11.67304;3.008296;167.8253;164.0926;0.1072962;0.3592952;0;
147.9976;0;127.2589;160.0688;-9.785298;1.397683;127.7392;126.6964;-0.08771361;-0.2257719;0;
-357.1473;0;-340.6963;-338.9038;-3.479803;-0.814036;-367.5777;-369.2442;-0.2825275;-0.03064305;0;
-685.0609;0;-652.572;-683.0776;-2.940443;-4.363192;-692.3574;-693.1476;-0.08734158;0.4891265;0;
-365.4079;0;-363.4363;-398.6589;31.35777;-6.167346;-377.1323;-377.1721;-0.2821558;0.2287657;0;
-184.8813;0;-192.5943;-231.5921;44.11964;-8.170637;-195.9068;-199.5697;-0.3468397;0.0986011;0;
-137.0944;0;-146.2365;-185.8198;33.42539;-18.27661;-148.8585;-155.1414;0.2382149;0.2284367;0;
411.705;0;361.4678;358.0936;39.42002;-22.2771;391.7069;385.118;0.3029429;-0.09662955;0;
738.0021;0;670.8864;700.7489;27.72514;-19.44143;715.0256;706.7567;0.1077365;0.2932716;0;
373.5059;0;339.6284;370.8977;23.344;-21.3644;354.9253;347.9765;-0.02230648;0.4229116;0;
182.7263;0;160.6894;195.5505;27.80754;-16.25235;163.2898;161.283;-0.02228406;0.4224867;0;
141.0636;0;120.7355;154.7494;22.55567;-15.83412;122.3962;121.8282;0.1726404;0.6819315;0;
-362.3877;0;-344.3396;-343.4058;26.48512;-14.74649;-371.7909;-372.5458;0.3673689;0.2914423;0;
-679.8638;0;-645.6545;-678.0798;25.78794;-13.66006;-686.4465;-684.5145;0.4969344;0.09624739;0;
-365.6507;0;-363.4597;-399.6006;12.16535;-18.00011;-377.2868;-376.2313;0.4314678;0.161118;0;
-194.2443;0;-205.1739;-243.0276;9.139017;-17.51314;-205.3689;-210.249;0.5609689;0.09598879;0;
-132.7674;0;-147.9339;-183.3133;5.981027;-26.60498;-144.0683;-150.9424;0.5604053;0.1608597;0;
416.5274;0;362.7706;361.2223;3.229327;-28.98963;396.9921;390.812;-0.2847333;0.09573071;0;
726.1406;0;659.6941;687.2578;8.182575;-25.14247;704.0637;695.9532;-0.4143819;-0.03430018;0;
368.2155;0;337.6928;366.2907;7.638489;-25.45213;350.4711;343.5557;0.04080591;-0.03426572;0;
190.1223;0;171.4993;203.5668;18.28074;-17.72376;170.6466;169.173;-0.1541371;0.1606708;0;
140.706;0;122.539;154.3868;23.35356;-14.7587;121.6872;122.2765;-0.0890149;0.09554197;0;
-371.8028;0;-352.2205;-350.5771;12.21068;-12.19864;-381.0574;-380.8435;0.3008786;-0.03448873;0;
-687.7702;0;-652.4655;-683.3698;11.12668;-10.31086;-693.0175;-691.6169;0.430511;-0.09942141;0;
-363.0545;0;-360.144;-395.7024;18.55024;-5.276903;-371.7948;-371.7075;0.365111;-0.1642889;0;
-187.2154;0;-195.0524;-233.761;19.73705;-2.525422;-195.1973;-199.6078;0.1698421;-0.09915644;0;
-139.3637;0;-147.068;-185.2379;12.28248;-9.957746;-148.2122;-154.18;-0.02523054;-0.3589262;0;
405.7523;0;360.1999;357.6754;10.66255;-9.880757;388.2921;383.1425;-0.09017253;-0.4885002;0;
726.9955;0;666.3089;694.8339;5.896413;-18.37754;706.8666;700.1604;0.03985276;-0.09820531;0;
362.9476;0;336.8672;366.3005;-0.5398728;-21.97603;347.7115;341.1995;0.1047801;-0.09810663;0;
175.0522;0;158.8055;193.5191;15.80402;-14.65293;157.0204;155.0125;-0.02525991;-0.1629754;0;
135.7085;0;117.2917;151.6581;17.66415;-15.30804;116.7577;116.2512;-0.1551692;0.09705774;0;
-368.1747;0;-350.0288;-348.4305;-0.03709579;-7.187964;-377.6736;-378.6794;0.1698234;0.03199286;0;
-682.3341;0;-649.5264;-681.7877;-2.649027;-3.429698;-688.5751;-687.6434;0.2346201;-0.2279086;0;
-367.9937;0;-367.1403;-403.3672;-10.61697;-7.177296;-377.9766;-377.7953;-0.3503217;0.09715708;0;
-199.0836;0;-208.2886;-245.666;-14.35734;-5.629477;-207.7446;-211.4367;-0.02513299;0.4218962;0;
-134.0412;0;-145.1109;-181.014;-13.94078;-5.556837;-143.4431;-147.8811;-0.02510774;0.1616029;0;
410.5698;0;361.6552;360.958;-15.33426;-5.283322;392.8065;388.9977;-0.5448213;0.1614405;0;
722.1879;0;659.8917;690.7419;-7.749419;-5.746894;701.7563;695.5776;-0.2194371;0.1612783;0;
372.5127;0;343.5748;375.2061;-5.330735;-6.343966;356.4744;351.0515;0.04065276;-0.2936552;0;
188.793;0;169.6294;204.4772;2.44513;-6.739489;171.584;171.4763;0.1705466;0.03147659;0;
138.9408;0;120.1087;152.7352;6.662231;-7.871427;122.0614;123.3281;0.2353426;0.2913143;0;
-366.5698;0;-347.3395;-345.9802;10.13816;-5.1842;-374.6866;-374.2332;0.04020407;-0.03381509;0;
-685.9158;0;-651.6499;-682.0259;14.21381;-4.040281;-691.7131;-689.0737;0.1700984;0.1611209;0;
-371.2594;0;-370.3862;-405.8541;6.027856;-9.5287;-381.861;-378.7245;0.1049601;-0.09891035;0;
-194.4125;0;-203.0354;-240.5292;5.017421;-10.12197;-203.0669;-204.3065;-0.02508005;-0.03384362;0;
-142.9929;0;-150.5452;-186.1897;4.074375;-9.040074;-150.3893;-154.5636;0.0399125;0.5508965;0;
403.1888;0;355.0395;355.0379;2.396317;-10.30367;386.3671;382.5093;-0.3499317;0.3554409;0;
731.7433;0;668.0877;698.071;-1.826625;-2.59052;710.6907;704.7128;-0.2846127;0.2251491;0;
369.4398;0;342.2674;370.9712;-6.24542;-0.3774804;352.5313;347.0592;0.1704447;0.3548575;0;
184.0366;0;168.0733;201.1211;7.96075;-5.132767;165.5208;165.3016;0.2352407;0.3545009;0;
152.1801;0;135.3583;168.6228;11.50272;-4.65873;134.4326;135.338;0.2350044;0.02930804;0;
-358.1539;0;-337.6025;-336.0431;-3.579384;-7.199399;-365.4513;-365.6087;0.1048336;-0.3605255;0;
-687.5033;0;-649.6688;-681.2817;-6.187755;-8.46472;-690.4206;-689.4534;-0.02520646;-0.0353265;0;
-369.1596;0;-364.534;-399.2386;-1.225045;-6.781763;-376.0095;-375.793;-0.09014848;-0.1002583;0;
-191.1905;0;-201.437;-236.6689;-2.898753;-7.578743;-197.7836;-201.1904;-0.2199926;-0.4249943;0;
-133.1524;0;-144.5131;-179.0225;0.58776;-5.695606;-140.4886;-145.6411;-0.08983684;0.1601388;0;
414.2687;0;366.3129;366.071;3.065416;-5.020054;398.5692;393.6093;-0.08974658;0.2249452;0;
725.8832;0;665.7941;696.162;-12.41036;-7.024498;708.3878;701.3089;0.1052456;-0.1650848;0;
368.6455;0;343.9116;376.123;-16.61744;-6.213645;356.1027;350.2803;0.5599113;-0.09995162;0;
196.9237;0;180.1482;217.5122;-3.942071;-9.355476;182.1447;181.8878;0.3644466;-0.2297859;0;
154.5595;0;136.489;173.1283;-2.799034;-10.55177;139.5455;140.2884;-0.02572361;-0.424457;0;
-358.8378;0;-337.4725;-334.4156;-1.25598;-4.17791;-365.7783;-365.2236;0.2341716;-0.6189325;0;
-678.4414;0;-641.3555;-672.347;2.429953;-3.235951;-683.251;-680.323;0.363871;-0.8132126;0;
-366.4787;0;-362.2885;-396.4348;-5.744162;-0.5535042;-375.0316;-372.5438;0.03866867;-0.3576241;0;
-206.0034;0;-210.6255;-246.1743;-7.279608;2.595128;-212.2364;-213.6866;-0.3511742;-0.03242809;0;
-153.1979;0;-158.1276;-192.5788;4.918844;-4.306478;-158.9873;-161.9353;-0.480756;-0.2922649;0;
408.3614;0;361.77;362.5858;7.392148;-3.900253;393.9571;390.4498;-0.3503383;-0.4219059;0;
739.222;0;677.0603;709.297;4.035818;-3.025678;721.6464;716.0187;-0.479921;-0.2915473;0;
377.0984;0;351.5433;384.1848;5.036141;-4.228209;364.2255;359.2282;-0.2845367;-0.0963523;0;
185.8779;0;171.343;207.2625;1.012593;6.426082;171.8936;171.5864;-0.08934879;-0.03128814;0;
143.275;0;128.0675;163.2013;-1.332949;8.295026;129.5545;131.1842;-0.08925901;-0.03125671;0;
-363.3644;0;-339.8885;-336.3991;5.700988;9.023502;-367.2635;-366.2602;-0.1541367;0.3585788;0;
-683.4007;0;-642.957;-672.6419;7.57127;11.22487;-683.8602;-681.7958;-0.3488838;0.4881532;0;
-365.9982;0;-356.3922;-390.7949;-1.814437;2.907832;-371.4547;-370.0172;-0.1536312;0.2277933;0;
-190.9683;0;-190.4298;-227.2342;-2.348477;1.565374;-194.5452;-197.357;-0.02354218;0.03266235;0;
-137.1159;0;-137.0777;-172.8456;0.3332;-1.65138;-140.127;-144.685;-0.1534532;0.09759689;0;
402.6257;0;360.6849;361.1847;1.203521;-4.395899;390.0599;386.4435;0.236505;-0.09740321;0;
721.623;0;662.9203;695.2787;4.552191;-0.6405596;706.5087;701.4591;0.3662021;-0.032338;0;
369.4496;0;346.7254;380.0507;4.948782;-0.8408647;358.5983;354.241;0.2358994;0.6173679;0;
186.6701;0;174.9631;212.0655;17.0676;1.169468;173.6433;174.9125;-0.02420697;0.4218456;0;
144.3787;0;131.7465;168.4368;20.80149;2.909727;133.239;136.1936;-0.2190847;-0.1632844;0;
-364.3857;0;-339.2118;-333.6677;16.82848;2.839821;-365.1444;-363.4422;-0.2188645;0.09674905;0;
-685.9203;0;-644.4048;-672.3495;18.21809;4.176626;-683.6797;-679.7928;-0.02374259;0.3565212;0;
-371.1389;0;-362.024;-394.5632;9.827037;7.186539;-373.3359;-370.0776;0.2361506;0.4211303;0;
-200.9764;0;-203.802;-238.1827;7.607336;8.853891;-202.2341;-204.3513;0.2359134;-0.03406425;0;
-142.4287;0;-146.6884;-179.5352;3.580228;7.103439;-143.6227;-147.6744;0.1057416;-0.09899736;0;
405.4391;0;362.7655;365.9336;0.3624257;6.292628;396.2503;392.8274;0.1706027;0.5507755;0;
723.4341;0;667.0604;700.585;6.121861;9.769296;711.6309;706.2125;0.1704313;0.03048337;0;
366.9485;0;344.9892;378.4177;7.455857;9.558531;358.8428;354.3669;-0.219544;-0.489286;0;
177.6748;0;164.9204;203.1253;8.251673;5.798004;167.3284;167.7919;-0.3492581;0.1608791;0;
138.3284;0;122.7758;161.3171;10.78898;4.720451;127.6801;130.1421;0.1058642;0.09575009;0;
-364.9951;0;-343.8007;-337.2195;15.80198;-1.714532;-366.4499;-364.2402;0.4955619;0.09565388;0;
-694.5875;0;-656.4229;-683.144;18.59914;-5.396748;-693.2922;-689.0233;0.495064;0.1605251;0;
-375.0499;0;-369.7196;-399.1;26.34998;-3.114028;-378.6284;-374.2388;0.1047625;-0.4243423;0;
-190.2032;0;-195.8103;-226.723;30.81149;-4.986299;-192.0291;-192.1416;-0.02527748;-0.2290139;0;
-138.0383;0;-143.6397;-175.5208;23.41216;-6.186981;-139.6748;-142.0361;-0.2201541;0.3559223;0;
400.3924;0;355.5663;357.5752;21.57997;-7.051543;389.9494;387.6529;-0.2849002;0.2905973;0;
719.392;0;661.8049;694.4839;27.25172;-8.718908;706.9605;702.23;0.1051901;0.3552727;0;
360.2243;0;339.8014;372.1977;26.01888;-9.112045;352.0532;347.5774;-0.08981764;0.09504636;0;
172.7689;0;163.7983;201.2844;18.49065;-10.44255;163.4815;164.0702;-0.2196621;-0.2948532;0;
135.6139;0;129.0261;168.4736;14.98945;-10.49904;130.2089;132.7335;-0.08950667;0.03027976;0;
-368.0193;0;-333.3087;-324.573;12.29507;-11.09134;-360.4878;-358.7779;0.1054853;0.4200534;0;
-688.863;0;-637.3833;-661.7646;11.00992;-11.34812;-677.2787;-673.8838;0.430216;0.2896967;0;
-370.8304;0;-353.0729;-380.7407;2.157596;-8.992317;-366.0667;-362.1755;0.104947;-0.1003985;0;
-192.922;0;-191.6116;-221.8128;0.7489085;-9.38518;-191.9113;-192.0844;-0.09006046;-0.1002976;0;
-133.7578;0;-139.6326;-172.2397;1.0156;-3.816288;-137.1834;-139.4178;0.03996472;0.2246399;0;
403.5441;0;359.6318;361.3528;-1.597389;-1.602138;390.7517;388.7069;-0.1549775;-0.03545522;0;
715.6066;0;659.1197;692.7604;22.5171;-10.30807;700.7031;696.9737;0.1050476;-0.1653543;0;
363.7515;0;341.3043;374.7238;29.19325;-12.03926;352.9859;351.0719;0.1699094;0.1596486;0;
180.4155;0;166.674;204.2453;22.93463;-9.213884;167.6617;170.9969;-0.02516334;0.02955348;0;
140.7541;0;124.2153;161.374;25.52355;-8.802728;125.6393;130.7203;0.364666;-0.1653782;0;
-358.3865;0;-340.2386;-334.6639;16.2545;-14.48731;-368.1763;-363.1004;0.2993322;-0.4900488;0;
-683.7377;0;-653.5516;-680.4036;11.14796;-15.54448;-691.3937;-685.011;0.1041294;-0.6844584;0;
-370.7702;0;-373.3479;-404.171;8.925952;-10.23733;-382.9787;-377.602;0.03905747;-0.1640319;0;
-189.2387;0;-198.7479;-230.2896;1.749688;-9.222301;-199.1861;-197.8752;-0.1558838;0.09600228;0;
-140.0107;0;-146.6992;-178.0218;0.6762026;-3.988488;-147.2619;-148.4511;0.2340769;-0.2289309;0;
396.9227;0;352.7597;354.8893;-1.132162;-1.104336;382.1825;381.6192;-0.09099503;-0.09876619;0;
724.0468;0;662.312;695.9236;-24.1058;0.7053128;704.9485;703.3863;-0.545675;0.1612024;0;
362.8754;0;332.1246;366.0148;-30.91409;3.450782;345.608;344.4846;0.2994488;0.09607311;0;
170.9196;0;149.9448;188.7984;-25.79183;0.6341538;150.2337;154.9211;0.7539192;0.1609439;0;
144.6984;0;121.246;161.8721;-29.45059;0.7004995;122.5966;130.715;0.03852096;0.03084751;0;
-353.6341;0;-340.2689;-331.2927;-10.66577;1.235659;-366.031;-358.483;-0.3513218;0.09578387;0;
-681.6137;0;-650.4584;-674.4747;-4.559489;-0.172224;-689.6254;-680.0235;-0.2210341;0.03072027;0;
-366.1495;0;-369.0085;-397.2484;-6.430917;2.909042;-380.8373;-370.8703;0.168992;-0.03427794;0;
-188.3083;0;-202.3463;-233.5564;-0.1278159;3.040085;-201.1073;-196.3976;0.3637243;0.0956912;0;
-130.5231;0;-142.423;-173.1644;-8.768852;-0.2450116;-140.748;-139.3539;-0.1563799;-0.09930699;0;
411.0234;0;359.5928;363.4899;-8.425248;0.291098;390.9388;392.8937;-0.02628813;-0.4240439;0;
721.6416;0;654.7704;690.0228;-5.267974;-6.005468;698.891;699.657;0.6234117;-0.2287158;0;
364.9704;0;334.5857;370.7397;-7.607206;-7.807973;347.9897;349.0049;0.6227852;0.03138337;0;
188.8795;0;169.5822;208.9483;3.787292;-2.77653;168.9799;175.2414;0.4272575;0.09631919;0;
146.9607;0;126.3085;165.1977;5.323728;-3.443447;125.4569;134.5856;0.2968935;0.2261571;0;
-357.2461;0;-342.7702;-332.7805;2.170547;4.731687;-370.5449;-361.6127;0.1666605;0.09599517;0;
-676.1641;0;-644.5239;-665.4663;5.517269;7.205179;-684.8269;-673.5299;0.03655835;-0.228938;0;
-371.5125;0;-367.5152;-394.496;-14.58267;4.652709;-381.1661;-370.755;-0.02844572;0.09612875;0;
-196.7269;0;-204.0404;-234.8047;-20.19409;6.456573;-203.872;-198.7188;0.2964196;0.2909342;0;
-142.3065;0;-151.6741;-181.9077;-4.433666;-2.257573;-149.7568;-146.2329;0.4260564;-0.1641296;0;
393.4423;0;345.6659;350.7574;-3.558555;-4.733551;377.004;381.149;-0.02914309;-0.228932;0;
721.5068;0;659.0358;695.7314;-0.2060768;-2.652446;701.8992;704.0411;-0.02911381;0.03116742;0;
364.7733;0;338.472;374.4435;2.608145;-4.458198;350.3078;352.4475;0.3607195;0.09610346;0;
176.5013;0;161.9079;200.5294;5.150144;-2.84625;161.9878;168.1858;0.03552034;0.03103954;0;
148.9002;0;135.321;174.5909;8.15908;-3.513097;135.8381;143.7166;-0.0294827;-0.03395899;0;
-358.1197;0;-333.0796;-324.2714;8.821443;-2.237014;-361.7359;-353.3656;0.4902857;-0.09889221;0;
-691.2172;0;-649.4607;-675.144;12.16148;-2.167783;-690.5819;-679.8462;0.1649563;-0.0338255;0;
-378.6794;0;-367.0122;-398.7292;0.561336;-5.313681;-380.9808;-370.2559;0.2947252;-0.03379152;0;
-205.011;0;-205.6619;-237.9717;-3.658787;-7.183864;-206.498;-199.7818;0.5542985;-0.2936269;0;
-146.5218;0;-149.6708;-178.9496;12.75461;-5.100174;-148.2572;-143.047;-0.485736;-0.2283645;0;
398.3516;0;359.2239;364.2073;14.9526;-4.827118;388.1847;394.2018;-0.8750519;-0.0982004;0;
715.8541;0;664.0845;701.2342;8.842004;-13.262;704.0107;707.2731;-0.6143033;-0.2280364;0;
364.9983;0;347.576;386.6874;9.03419;-14.11933;359.2888;361.3609;-0.2888494;-0.0978726;0;
182.7854;0;175.3756;215.7596;7.484871;-17.25334;176.5819;182.525;0.296147;-0.09777426;0;
136.7498;0;129.3475;167.6293;6.539345;-18.84347;131.1772;139.6756;0.4907514;0.03225867;0;
-369.6331;0;-338.9222;-331.2259;8.341435;-9.179235;-366.5795;-357.4025;0.2953563;0.357063;0;
-692.9116;0;-646.177;-671.6593;9.471153;-7.361596;-686.4252;-674.946;-0.2246792;-0.1630345;0;
-384.0577;0;-367.6049;-397.8717;2.227968;-1.124908;-380.5139;-369.671;-0.1594861;-0.1628707;0;
-210.1965;0;-202.5683;-233.4294;-0.05144603;1.890455;-204.2824;-197.8232;0.3604129;0.2920643;0;
-156.2623;0;-149.6413;-177.7227;8.656143;2.022521;-149.9169;-145.1508;0.230116;-0.2279679;0;
391.9317;0;357.7541;365.2455;9.384379;3.560974;388.5881;393.9116;-0.2248866;-0.7474775;0;
721.4971;0;671.7991;709.4553;11.92055;-2.604912;715.5956;718.9772;-0.3545953;-0.2919551;0;
356.4552;0;344.2259;380.6573;14.11839;-4.008814;357.4937;360.1848;-0.02940229;0.1631097;0;
167.0046;0;167.7185;207.5492;9.147715;-10.50201;167.4174;174.4161;0.03559459;-0.03195626;0;
138.1012;0;137.2527;178.0429;9.405967;-13.70651;138.701;148.1289;0.1654935;-0.1618588;0;
-370.1571;0;-332.3992;-322.3221;7.320411;-13.82671;-359.563;-350.5818;0.4901639;-0.2916309;0;
-701.4935;0;-646.782;-670.3231;6.576121;-15.62135;-688.0989;-677.0028;0.2947694;-0.3563052;0;
-387.571;0;-367.5846;-395.5999;6.50314;-8.438606;-378.7501;-367.9775;-0.2252655;0.03385687;0;
-212.7693;0;-203.485;-232.4092;4.687945;-5.148085;-201.5209;-195.132;-0.1600718;-0.09611183;0;
-154.8969;0;-145.4971;-172.1433;13.72556;-5.879725;-143.3476;-138.5892;0.4247951;0.09888679;0;
389.4227;0;359.3329;369.0077;15.85523;-2.859707;391.7776;397.0309;0.3594009;0.4885915;0;
706.3094;0;663.1939;703.5311;10.74908;3.171509;706.7254;709.2873;0.03420306;0.3581659;0;
357.3997;0;349.1226;386.4207;11.07307;6.584452;362.8128;364.6225;-0.03079865;0.1629039;0;
175.3194;0;176.6083;216.1803;8.650072;9.591946;179.7276;185.8458;-0.2906371;0.03280555;0;
126.6052;0;129.4545;169.7988;8.039145;11.39085;132.8829;141.4313;-0.3553124;0.09773995;0;
-374.3328;0;-332.6934;-323.1866;5.887613;14.32653;-358.3787;-349.4642;-0.2250207;-0.03229296;0;
-694.7954;0;-638.0179;-659.6926;4.407828;15.85274;-674.4846;-664.2671;-0.4196966;-0.2271625;0;
-390.0626;0;-364.8264;-390.3522;8.020721;9.272606;-373.3329;-363.9378;-0.3543075;-0.0969996;0;
-210.6357;0;-195.2324;-224.2933;8.548526;7.2538;-192.7983;-188.1603;-0.02911482;-0.03193479;0;
-149.3297;0;-134.5041;-162.7237;9.410593;8.988069;-131.073;-128.5011;0.03588177;-0.2268047;0;
386.9883;0;364.1305;370.3594;10.60659;9.5149;397.0433;401.0494;-0.09408896;-0.2915442;0;
708.9999;0;672.5469;709.8789;11.735;0.2619392;717.0458;720.0484;-0.1589618;-0.1613165;0;
349.343;0;350.0329;388.6392;13.46452;-2.685573;363.0654;366.5647;-0.158802;0.1636823;0;
157.1508;0;169.8341;212.6495;11.10647;8.770963;169.9849;177.7911;-0.09367514;0.0335831;0;
134.4418;0;144.2387;188.0731;10.89424;10.16879;146.5134;156.4356;0.101321;-0.22632;0;
-367.3786;0;-320.6102;-308.7413;15.83979;14.37838;-346.8235;-337.1611;0.1661866;-0.1611253;0;
-705.277;0;-641.4391;-663.9399;17.16402;17.04325;-680.2447;-668.7805;-0.02888246;-0.09599602;0;
-389.1643;0;-356.6874;-383.3509;15.53918;17.22707;-366.9683;-356.0153;-0.2887228;0.1639698;0;
-212.6743;0;-189.2255;-217.1116;15.79101;20.15689;-188.8764;-182.682;-0.3534;0.2287724;0;
-165.1719;0;-142.7461;-168.4178;17.58381;10.55832;-142.2725;-137.771;-0.2880776;0.09860785;0;
379.283;0;359.6449;370.1683;18.63786;9.208051;392.7267;397.9732;-0.1578535;-0.1613606;0;
705.9875;0;669.9399;711.2497;15.33661;7.993105;717.606;720.1612;0.2321092;-0.2261658;0;
348.8947;0;348.6154;388.5719;14.45054;4.167169;365.4366;368.1766;0.1669086;0.09889815;0;
160.951;0;172.7283;216.2678;18.12069;18.02808;175.8521;184.0865;-0.1580958;0.1637661;0;
117.2486;0;130.2635;174.3215;18.23621;20.68929;133.5715;143.7967;-0.09296957;0.3585036;0;
-386.1787;0;-335.9456;-322.5415;18.6864;15.243;-360.9392;-350.9117;-0.2228108;0.4880781;0;
-706.1296;0;-641.3918;-661.3594;19.13711;17.10321;-678.7916;-666.9625;-0.612391;0.03281622;0;
-402.3225;0;-368.4467;-395.5157;15.23214;10.52182;-379.3847;-368.5045;-0.3519063;0.03278325;0;
-222.8208;0;-198.7866;-227.7024;13.00701;9.439517;-198.3443;-191.8479;0.03825133;0.2276523;0;
-155.8179;0;-132.4951;-159.2579;16.81136;11.03762;-130.6164;-126.0006;-0.09172179;0.09748892;0;
379.8195;0;365.6377;372.26;16.45967;9.351958;397.2495;402.4854;-0.156597;-0.03254374;0;
697.1531;0;669.7422;707.9045;8.807321;18.85389;712.7541;716.298;-0.09147228;0.09742366;0;
339.8819;0;348.6679;386.417;5.85171;21.71522;361.4017;364.6922;0.1035217;0.1622931;0;
152.4469;0;170.0321;211.2416;7.386072;15.866;172.4458;180.0434;0.168385;-0.1627067;0;
124.87;0;140.0638;183.6056;6.976509;15.85006;144.5365;154.2504;-0.02668623;0.03235883;0;
-376.441;0;-322.3446;-310.768;1.946633;16.70491;-347.424;-337.7824;-0.09162676;0.357163;0;
-713.7681;0;-642.1098;-663.7781;1.676257;15.81735;-680.22;-669.0263;-0.2864367;0.2918368;0;
-404.456;0;-363.292;-387.7495;0.2007042;16.4043;-373.6902;-363.8197;-0.5460182;0.2265762;0;
-219.8921;0;-188.4521;-216.071;-1.473461;16.11989;-187.2832;-182.2327;-0.2206329;0.09641389;0;
-163.8867;0;-132.978;-160.6942;10.71818;10.54423;-130.8733;-127.7019;0.2993275;-0.293487;0;
375.257;0;366.0298;373.6988;13.05194;8.39018;399.1793;403.6594;0.3639941;-0.3581595;0;
701.1534;0;674.9441;713.8396;14.91483;7.377005;721.491;725.0295;0.2336937;-0.03296291;0;
341.317;0;351.3032;390.6595;18.51619;4.623415;366.1943;370.2915;-0.02641053;-0.1628645;0;
146.8841;0;169.2915;213.106;6.106354;10.37918;170.5495;179.1403;-0.416188;-0.2926355;0;
114.5651;0;134.5138;179.3462;3.353552;11.44048;138.5191;148.4132;-0.1559005;-0.2273741;0;
-383.862;0;-326.827;-312.7742;4.288188;3.726066;-350.8116;-341.4898;0.2340602;-0.292113;0;
-714.3724;0;-640.0285;-658.8483;0.9349762;2.382664;-677.4198;-665.671;0.3637597;-0.1618848;0;
-405.7469;0;-363.2117;-386.1981;6.828535;2.246304;-372.7045;-360.4677;0.4283615;-0.2266895;0;
-224.0554;0;-191.4329;-216.9574;8.696708;0.7705442;-189.7967;-182.7572;0.1030944;-0.3563964;0;
-162.2986;0;-128.8969;-153.8335;-1.961951;2.17629;-127.3873;-122.9785;-0.6116499;-0.2910709;0;
379.4672;0;374.2922;384.4256;-3.165429;1.772205;405.4729;411.1891;-0.546068;-0.0309091;0;
698.5503;0;678.9503;719.2458;2.397457;2.373271;721.8438;726.1799;-0.1557153;-0.09584539;0;
342.6519;0;359.3034;398.559;2.595143;3.241664;372.5437;376.3757;-0.02562411;-0.09574908;0;
154.4021;0;182.4686;225.1205;7.348934;-0.5125152;183.0769;191.5278;0.1043363;-0.03068553;0;
113.1426;0;140.3688;183.3526;7.676342;-0.712949;140.9765;152.4174;0.3641008;-0.4854261;0;
-385.6579;0;-321.2278;-307.5849;15.17072;0.2255284;-348.1693;-337.2397;0.2987677;-0.6798403;0;
-707.296;0;-626.1266;-645.5433;19.17396;0.09133595;-666.5343;-654.1789;-0.02636926;-0.3543205;0;
-397.3033;0;-345.8255;-372.0943;3.883075;4.578979;-360.518;-348.6123;-0.1562774;-0.4838992;0;
-219.4933;0;-178.0622;-206.6784;2.004139;6.4499;-179.9339;-173.5998;0.2336836;-0.5483803;0;
-166.5492;0;-126.659;-153.4973;0.1261154;4.366948;-127.1545;-122.3885;0.0385468;0.1018441;0;
378.1569;0;378.7143;386.3232;-2.48598;4.563509;408.1417;413.715;-0.02645927;0.2316765;0;
706.0494;0;689.4899;728.7626;0.3969063;7.640016;733.318;735.8247;0.3633714;-0.2233277;0;
338.0871;0;355.9644;397.9463;-1.412154;8.235186;369.9509;373.3922;0.03816954;-0.2880706;0;
145.6564;0;176.6966;222.7593;8.904393;6.418494;176.6761;185.2363;0.1030985;-0.09287918;0;
117.3368;0;148.4082;193.3626;11.23997;5.60825;149.5747;158.7509;0.3628643;-0.2227205;0;
-385.2161;0;-317.5068;-302.9573;10.55812;4.731836;-344.14;-335.7851;0.2975323;-0.1575294;0;
-713.9761;0;-629.3434;-648.604;13.89641;3.722338;-670.0052;-659.6597;0.1672987;0.1024983;0;
-402.6023;0;-349.2265;-373.5902;1.558562;0.7714704;-362.7986;-352.6509;-0.2226734;-0.02753942;0;
-226.4111;0;-185.9575;-210.4841;-0.452736;-0.7699122;-185.0857;-179.6958;-0.2224497;-0.2873811;0;
-171.0863;0;-132.36;-155.9874;0.08358239;-2.309746;-129.3027;-125.4799;-0.0922915;-0.09219033;0;
373.0621;0;373.6437;383.8356;-3.131682;-3.780928;406.0582;410.6268;-0.2871008;-0.157065;0;
699.2731;0;684.6118;724.9658;5.17686;-1.968711;730.0496;731.6151;-0.416747;-0.02697254;0;
338.8138;0;359.9618;400.7749;4.569422;-1.765785;374.4319;376.3707;-0.5462629;0.1679566;0;
147.5069;0;181.3772;226.2097;11.12891;-3.438584;181.465;188.5242;-0.2208773;-0.2220162;0;
116.3118;0;149.8981;194.1235;15.53836;-4.104836;150.3607;159.4118;0.03921397;-0.1568258;0;
-379.2436;0;-308.5846;-294.3886;-2.160746;-2.694192;-336.4832;-327.816;-0.02579277;0.1681685;0;
-708.2595;0;-622.1793;-640.4812;-4.435751;-3.830072;-661.5441;-651.6362;0.2990699;-0.09186985;0;
-410.5096;0;-355.3754;-378.9063;-5.770464;-2.218755;-366.5898;-357.0667;0.1688347;0.2980265;0;
-235.1226;0;-189.6014;-214.2332;-10.78851;-2.350492;-189.8101;-183.4824;-0.1561717;0.3626944;0;
-173.6046;0;-129.5035;-153.111;3.087433;-8.644281;-128.5251;-123.828;-0.2209821;-0.2873435;0;
367.7353;0;374.1235;385.1473;4.691921;-9.975255;404.6486;408.9037;-0.1557927;-0.09215271;0;
697.0751;0;690.4634;732.1482;-0.2019371;-15.99357;732.0773;734.0167;-0.09066884;0.1678093;0;
338.5545;0;367.4316;409.1995;1.204785;-18.45587;378.644;381.9558;-0.1555451;0.1026733;0;
139.5642;0;181.5307;227.6294;-5.561579;-18.37034;178.9262;188.1068;-0.0254541;0.1675375;0;
112.6249;0;154.6117;201.1639;-6.561345;-20.89711;152.9469;163.8673;0.2994082;0.1024018;0;
-381.3025;0;-304.0632;-288.0424;-9.501513;-9.690211;-332.1506;-321.8658;0.1042053;0.1022989;0;
-719.1244;0;-625.1586;-643.7616;-13.24301;-6.867313;-666.5861;-655.1246;-0.1557688;0.1021961;0;
-413.1178;0;-349.4812;-373.8751;-3.584161;-9.003745;-365.1299;-353.93;-0.1556122;0.03712607;0;
-237.853;0;-184.7127;-211.0186;-4.183773;-5.712656;-189.2263;-181.4109;0.1693808;0.1020561;0;
-184.0785;0;-132.2408;-158.9576;-1.633973;-15.88808;-134.9384;-130.1917;0.1692106;0.03698622;0;
369.266;0;380.8842;389.5515;1.180708;-18.61841;409.6111;414.1655;-0.2207634;0.3617858;0;
697.9171;0;695.0933;735.6109;-15.69969;-8.217595;735.7853;738.7111;0.2342298;0.4913569;0;
332.8989;0;366.8096;407.5363;-18.49695;-6.735714;376.7886;379.399;0.6887658;-0.02887553;0;
142.0976;0;186.1566;232.4021;-20.08596;-9.877022;184.319;191.9243;0.1033677;-0.1587812;0;
107.9719;0;150.175;194.9373;-23.81682;-9.130285;149.5887;159.4352;0.1032638;0.1662151;0;
-391.8229;0;-311.9312;-300.9469;-12.07124;-10.39379;-341.065;-331.8531;0.4279968;-0.02885398;0;
-718.4523;0;-622.2116;-642.9724;-9.714587;-11.78998;-665.0593;-654.17;0.03776264;-0.09379233;0;
-418.7557;0;-354.0334;-379.8333;-11.11135;-4.879018;-369.5393;-359.8478;-0.1571773;0.03623659;0;
-240.4243;0;-187.1988;-216.9708;-9.492591;-4.07032;-189.3833;-184.5741;-0.2869541;0.03620018;0;
-170.1555;0;-118.4202;-146.5381;-6.603641;-6.678565;-118.666;-115.4858;-0.5465351;0.1011312;0;
371.8057;0;384.4461;392.8381;-5.256858;-5.533144;415.6223;418.9866;-0.09121456;0.03606219;0;
696.3312;0;693.4043;733.5844;-4.783062;-14.16814;737.9799;739.217;0.2986811;-0.3537781;0;
338.1238;0;371.2441;412.2585;-2.03159;-15.49356;384.0409;386.2137;0.1684463;-0.4183899;0;
140.7581;0;185.7767;231.4974;-15.55986;-14.2723;185.0049;193.0476;0.0383424;-0.1581002;0;
109.1325;0;153.5436;199.7806;-19.22792;-14.59287;154.4592;164.243;0.1032712;-0.3528433;0;
-389.4142;0;-307.0667;-292.8601;-6.884713;-9.018749;-334.2629;-325.8008;0.03820011;-0.5473908;0;
-720.4813;0;-623.6614;-642.7648;-5.671371;-8.473825;-662.137;-652.0593;-0.286675;-0.02710209;0;
-409.9131;0;-346.049;-369.0687;-4.125431;5.332808;-355.6255;-346.12;-0.481289;0.2977619;0;
-228.4672;0;-175.037;-199.9702;-2.513695;11.55674;-173.547;-168.4239;-0.5457727;-0.09234139;0;
-174.827;0;-121.9503;-146.1712;-0.3013425;0.6271546;-121.2113;-117.5302;-0.3503223;-0.352118;0;
365.015;0;377.9836;388.5195;0.5705925;0.7604902;409.6437;412.8839;0.1048011;0.03803989;0;
696.294;0;693.1951;734.9548;1.641746;1.76447;738.5041;738.9299;0.03972847;0.4927731;0;
338.0241;0;371.9097;413.6899;2.979267;1.025885;385.2517;386.4892;0.03968855;0.6222126;0;
141.0333;0;187.8159;231.3656;-7.472576;-3.128088;187.5263;194.2598;-0.02531867;0.2967507;0;
103.4729;0;149.5838;191.9653;-10.47918;-6.139054;151.0436;160.0192;-0.09026057;-0.0283842;0;
-396.4424;0;-313.6462;-300.73;-8.928407;-2.181015;-339.799;-331.2697;-0.02520253;0.101579;0;
-721.0681;0;-623.6126;-641.2565;-10.79447;-3.317411;-661.9829;-651.5881;0.03979013;0.2314116;0;
-415.122;0;-348.2491;-369.8108;-6.430342;-3.381061;-359.5944;-349.5849;0.4945215;0.2311791;0;
-239.2306;0;-181.7327;-206.2087;-4.748942;-3.377664;-181.2601;-176.4455;0.2341553;0.2959142;0;
-175.7095;0;-120.081;-144.6574;-9.232148;-6.790399;-118.1721;-115.4863;-0.3507861;-0.02921989;0;
366.1947;0;381.1628;390.9688;-10.2946;-6.917542;413.9918;417.6119;-0.1555316;-0.4189946;0;
691.1632;0;689.8744;731.5296;1.504741;-12.06816;735.6639;737.2189;-0.09040796;-0.2886389;0;
335.4597;0;370.5913;412.7669;5.254273;-14.19936;384.9131;386.5291;-0.2202518;-0.2233815;0;
135.473;0;184.0625;228.8194;-2.655236;-9.764341;184.5644;190.6139;-0.2849978;-0.09322239;0;
103.103;0;151.7687;197.2927;-1.982983;-10.08945;153.3945;162.1866;-0.2847115;0.2966754;0;
-392.0017;0;-305.3416;-290.7228;-5.933105;-6.261402;-332.9528;-323.1075;-0.08952336;0.2963772;0;
-730.8748;0;-627.81;-647.0015;-8.740183;-3.977691;-668.6993;-657.1148;-0.2193681;-0.02875727;0;
-418.2972;0;-348.7567;-371.2396;-3.171695;-7.724738;-360.2446;-349.6712;-0.1541803;-0.2236304;0;
-232.4701;0;-174.1188;-198.016;-4.909821;-6.645249;-172.7891;-167.099;0.04087662;-0.2883731;0;
-182.5739;0;-123.5317;-147.9046;-0.6853284;-7.844265;-122.828;-119.6423;-0.2840012;0.03675343;0;
361.4611;0;382.5256;391.8478;1.391465;-8.238159;411.7767;415.459;-0.4136505;-0.09321819;0;
692.5563;0;698.982;740.2787;-14.41742;-2.40261;740.6974;743.1891;-0.4132348;-0.4829285;0;
333.5406;0;375.1296;417.4467;-18.68984;-0.7256224;387.0056;390.1819;-0.2828849;-0.5474107;0;
140.9271;0;194.6557;239.4291;-14.58522;-0.7248933;193.089;200.5099;-0.02273133;-0.4169259;0;
103.1169;0;154.855;199.396;-17.38361;0.6824766;155.4138;164.7638;-0.1526432;0.03826438;0;
-394.1118;0;-307.3184;-293.3068;-15.6912;0.7487738;-332.9969;-323.7812;0.1073796;0.03822593;0;
-714.8044;0;-609.9823;-628.7183;-16.27864;1.350868;-650.1902;-639.4846;0.2372064;-0.02677982;0;
-411.051;0;-336.0068;-359.1593;-18.20467;2.354132;-350.4997;-340.5544;-0.08786869;0.1031818;0;
-236.6629;0;-174.3752;-199.0037;-17.3821;2.619699;-175.5478;-169.3606;0.1071216;0.1680454;0;
-170.9581;0;-112.6684;-135.2107;-23.86234;2.081203;-110.6539;-106.0347;0.1719813;0.1029093;0;
369.1299;0;387.9432;399.2816;-24.97646;1.476387;420.2529;425.1174;-0.4128976;-0.02712884;0;
690.0974;0;694.9614;736.6481;-21.33502;2.680475;739.1702;741.4686;-0.6073847;-0.02710159;0;
339.6423;0;379.7336;423.1276;-21.31358;2.610798;393.3509;396.0843;-0.2169703;-0.2869437;0;
139.7139;0;192.2586;239.2322;-16.4694;1.469587;191.6818;199.9721;-0.02185031;-0.2216881;0;
100.0309;0;152.3979;199.4492;-15.04633;2.338767;152.5713;162.7898;-0.151763;0.1033714;0;
-389.1363;0;-301.7145;-284.1333;-12.28454;-4.093701;-328.5903;-319.319;-0.0866432;-0.2215692;0;
-724.0768;0;-620.8134;-636.7329;-10.19609;-6.500973;-660.7805;-649.8943;-0.1515235;0.1034902;0;
-416.0662;0;-342.7665;-364.4796;-12.93154;1.610372;-357.0189;-346.456;0.04353079;0.3632556;0;
-229.1793;0;-166.3856;-190.7006;-11.51203;1.608754;-169.6291;-163.7621;0.1084544;0.1679885;0;
-181.223;0;-120.8037;-145.2817;-19.60576;4.353316;-121.108;-117.5582;-0.2164913;0.2327871;0;
360.2495;0;378.7541;390.0328;-22.26538;6.023515;411.4961;415.1673;-0.02137173;0.1026185;0;
698.5298;0;700.3367;744.4625;-12.73118;-1.14959;746.3516;747.3329;-0.2812196;0.03754803;0;
339.1956;0;377.3575;421.3765;-10.97708;-2.555076;391.0923;392.385;-0.5408064;-0.09242439;0;
139.8299;0;190.2597;238.3574;-11.90405;-5.231704;189.0507;195.9018;-0.2154263;0.03760317;0;
109.8918;0;159.4589;209.8821;-10.6193;-7.838781;159.9378;168.781;-0.1502425;0.2324674;0;
-388.2807;0;-300.7826;-282.9562;-7.795587;-5.687451;-327.7903;-320.018;0.1747452;-0.2225376;0;
-722.5349;0;-618.1956;-635.8693;-7.184541;-5.681736;-658.7944;-649.3432;0.1745696;-0.4821833;0;
-414.6508;0;-341.963;-363.1797;-1.149102;-11.63739;-355.5346;-346.0304;-0.4103119;-0.2867968;0;
-236.1986;0;-174.7033;-198.085;2.268304;-13.76902;-176.3922;-170.5832;-0.2149976;0.1682628;0;
-177.6156;0;-117.9937;-142.0391;-10.5947;-6.186362;-117.432;-113.8777;0.1100551;0.4279631;0;
360.6049;0;381.249;391.648;-13.46444;-5.041436;413.2943;416.1578;-0.3448268;0.1676637;0;
681.5186;0;687.3994;729.8342;-6.216267;-5.304302;731.5313;732.7054;-0.5393823;0.1025279;0;
333.196;0;374.4281;418.0697;-5.741506;-3.691382;387.094;389.9536;-0.2140037;0.0374575;0;
143.5814;0;196.0164;243.987;-8.950918;-6.634922;195.4887;203.0305;-0.1488213;0.1673546;0;
103.5822;0;154.7151;203.8244;-9.009273;-6.293341;155.5622;163.7836;-0.1486718;0.2321537;0;
-392.2103;0;-303.7725;-286.0718;-7.325281;-7.693659;-331.2869;-323.636;0.111347;-0.09291625;0;
-723.5244;0;-618.1841;-635.8584;-7.921133;-8.69055;-660.1011;-649.0222;0.1762024;0.1670465;0;
-416.0142;0;-344.4502;-366.2921;0.7279906;-2.92153;-357.2772;-345.7096;-0.1488113;0.231846;0;
-229.5022;0;-171.191;-193.1984;4.008813;-1.043072;-169.5749;-162.8915;-0.3435638;0.1666457;0;
-176.9229;0;-118.4204;-140.7181;-2.826742;-3.118373;-117.6805;-113.0028;-0.2782513;0.03654354;0;
358.7982;0;379.8857;392.343;-1.752175;-1.507771;409.7977;415.4702;-0.342939;-0.1583952;0;
691.6452;0;699.0933;743.8344;-8.248125;-0.8364267;742.0937;746.1363;-0.01775772;-0.2232034;0;
339.0646;0;382.737;427.6205;-12.1246;0.2361407;395.3344;398.311;0.3070968;-0.1580118;0;
141.7604;0;197.8826;246.1568;0.1450901;3.651911;196.3495;203.446;0.1118862;0.1669837;0;
110.3837;0;164.7004;213.3634;0.8818786;4.318071;163.9809;174.2562;-0.2130629;-0.1580208;0;
-384.1038;0;-296.9831;-279.2285;-0.9940416;9.940176;-323.5014;-313.7987;-0.3427835;-0.352764;0;
-720.1112;0;-617.3985;-633.7072;0.9493403;11.80571;-656.3839;-646.1287;-0.2125044;-0.2874422;0;
-419.1635;0;-345.7893;-366.7043;-7.692778;7.439958;-358.6237;-348.5037;0.1775132;-0.4820554;0;
-253.4505;0;-188.7706;-213.1003;-8.086214;6.561826;-191.0349;-185.5478;0.3072695;0.2980371;0;
-192.039;0;-129.4857;-154.2282;-9.418236;4.545744;-130.061;-127.0781;0.4368954;0.4276723;0;
371.6207;0;391.3202;403.0842;-11.01636;3.201518;422.9168;426.3964;0.2415544;-0.0924962;0;
698.083;0;701.7083;745.0071;-1.560822;-1.624348;746.0792;747.4314;0.04640969;0.1024988;0;
338.3121;0;376.9161;420.6712;-0.6885971;-3.498116;391.5074;393.233;0.2412651;0.1673631;0;
145.0066;0;195.3785;242.6503;7.015254;-5.102191;196.4618;202.9958;0.30599;-0.2226091;0;
102.0075;0;152.5786;199.1782;10.49083;-7.173535;153.411;161.4377;0.04581317;-0.1574181;0;
-395.3451;0;-307.5935;-291.1506;3.916205;-0.6691051;-335.0602;-327.2915;-0.01920021;0.03764211;0;
-717.7231;0;-614.505;-630.4374;3.91227;0.001396538;-654.7502;-644.1782;0.1757211;-0.02736305;0;
-409.0317;0;-339.3381;-359.1899;-3.59375;3.015505;-350.4324;-340.1834;0.04560986;-0.02733556;0;
-237.5192;0;-179.4523;-200.9084;-7.206485;5.088946;-177.7294;-172.8005;-0.08437065;-0.2222101;0;
-188.1178;0;-130.2966;-152.2934;-6.66338;0.3281664;-128.7629;-125.9628;-0.3441553;-0.2869542;0;
358.609;0;378.2663;390.2121;-8.465346;0.7297342;409.471;413.0179;-0.6686462;0.03817086;0;
694.767;0;698.9748;742.3303;-9.394845;-3.155887;743.3915;744.8109;-0.0832682;-0.3516715;0;
337.4981;0;377.6836;421.058;-8.91689;-4.090477;390.634;392.2393;0.3066195;-0.4162855;0;
139.5084;0;192.2721;241.2251;-10.58189;-3.215589;190.2795;197.3805;-0.01852529;0.03890416;0;
108.7586;0;158.2834;209.4361;-11.64299;-3.480289;159.4787;168.1967;-0.08347402;0.1038324;0;
-386.2894;0;-301.1448;-281.5901;2.233812;-1.132512;-325.6877;-318.6027;0.3064139;-0.09117395;0;
-719.1713;0;-617.2457;-632.7556;5.848889;-1.667237;-654.8199;-645.9929;0.4360407;-0.3509517;0;
-407.6673;0;-338.1404;-359.7567;5.106078;7.979736;-348.5656;-339.3101;0.1107659;-0.02576236;0;
-227.9728;0;-168.4483;-191.7295;8.717294;11.05293;-168.6181;-163.0576;-0.08424746;0.1691656;0;
-175.7699;0;-117.0548;-138.5634;-4.352283;4.946502;-116.4748;-113.1687;0.3706086;-0.4157105;0;
367.0715;0;387.0595;398.6183;-8.166303;5.410412;417.5614;420.6143;0.1103668;-0.09045608;0;
690.8522;0;697.1395;739.4838;-2.46467;-1.561127;738.4178;740.6555;-0.2145808;0.2994389;0;
338.5223;0;376.9746;422.3997;-5.006813;-4.707634;390.6628;393.3355;0.1104715;-0.09066607;0;
152.2131;0;199.9971;250.1867;-4.131126;-2.626555;202.3022;209.47;-0.2144762;0.1043271;0;
111.518;0;158.9417;208.5186;-4.931258;-3.963453;160.8697;171.2786;-0.4091627;0.5589936;0;
-388.093;0;-304.9849;-288.0039;-11.28932;-3.289641;-330.3576;-320.5213;0.1759545;0.1036606;0;
-718.8491;0;-618.3333;-636.0395;-14.22473;-2.080765;-657.2362;-646.1604;0.3706797;-0.2862477;0;
-414.4669;0;-343.7247;-365.7234;-12.60285;-5.561664;-356.1018;-345.2871;0.1754052;-0.2209927;0;
-233.1413;0;-173.8396;-197.9401;-13.72926;-6.158922;-173.4607;-167.4044;0.175229;-0.285738;0;
-176.8103;0;-118.3802;-141.5195;-19.27517;3.827479;-116.5024;-113.3258;0.1100856;-0.1555162;0;
365.0951;0;384.4236;397.4769;-21.53298;6.502951;416.5967;420.145;0.04500764;0.0395421;0;
697.4985;0;701.8151;745.7772;-16.28643;6.429433;745.1378;747.7455;-0.2798743;0.1044697;0;
341.1014;0;382.3951;426.0632;-12.31893;8.23139;394.0652;396.4828;-0.2146257;0.2342994;0;
142.7957;0;196.0418;243.8514;-20.81302;5.67789;194.3319;201.8696;0.3053287;0.2990313;0;
114.8537;0;166.0473;214.2462;-17.04106;5.33727;165.651;176.242;0.1750872;0.2987309;0;
-382.4493;0;-294.9504;-278.0343;-16.15328;-0.02660535;-322.7076;-312.8768;0.1749112;0.5583001;0;
-724.8927;0;-622.5517;-638.3861;-16.27077;-4.313365;-662.5248;-650.8924;0.3696375;0.3628371;0;
-412.0088;0;-342.0043;-361.1337;23.06371;1.45138;-353.9514;-342.643;0.1743641;-0.1572662;0;
-227.6247;0;-166.4987;-187.2331;37.17308;0.5791435;-166.7522;-160.3901;-0.02071314;0.0377938;0;
-180.2947;0;-119.1677;-139.5063;23.87383;-8.664839;-119.1085;-115.1266;-0.08565967;0.1027232;0;
362.1139;0;382.5125;397.3016;27.06503;-11.40243;412.8064;418.0336;-0.2804756;-0.1572494;0;
692.9586;0;697.0948;742.2288;34.74099;-14.53905;740.4767;744.137;-0.1502591;-0.2220588;0;
336.8159;0;376.5551;420.7068;35.50939;-17.27074;389.7835;392.5031;0.3046632;-0.2218356;0;
143.512;0;194.8304;243.9976;28.77591;-15.84675;194.6773;202.3291;0.1094551;0.1681913;0;
103.4504;0;153.4678;203.835;27.80899;-16.76859;154.1894;164.957;0.04437778;0.297957;0;
-394.7782;0;-309.2664;-292.1831;8.356237;-16.14889;-335.1571;-325.7747;0.3691699;0.1027556;0;
-719.1558;0;-618.0502;-634.967;-0.09127618;-16.53456;-655.909;-645.8488;-0.0210051;-0.2871517;0;
-412.8368;0;-342.3799;-362.4657;12.30005;-13.50372;-353.4641;-343.1017;0.1089507;-0.2868632;0;
-239.1965;0;-180.4297;-202.0569;10.88117;-12.28458;-179.7586;-172.9048;0.4336779;0.03826177;0;
-180.4856;0;-125.0261;-145.0699;15.89408;-17.29583;-122.0444;-117.134;0.2383401;-0.2866134;0;
365.2965;0;380.0332;395.3043;19.15966;-18.21609;415.1208;419.6514;0.1731333;-0.221358;0;
690.6407;0;689.9954;736.1106;18.53817;-17.92998;738.291;739.3188;0.04302467;-0.2211356;0;
339.1232;0;374.4603;421.4037;21.33258;-17.97894;391.0359;392.4999;-0.02198591;-0.2209134;0;
147.0663;0;195.2989;246.4431;22.31553;-19.76929;196.1782;203.9501;0.04300353;0.2990473;0;
109.125;0;156.4346;207.7772;23.9007;-19.01262;158.9372;168.263;-0.08697437;0.03887742;0;
-386.9853;0;-303.2416;-284.1219;24.41254;-20.33317;-326.7909;-319.2236;-0.1518543;-0.1560637;0;
-723.8644;0;-622.2764;-637.6586;24.92388;-20.58068;-659.795;-650.5486;-0.3466038;0.1039625;0;
-415.7916;0;-346.5394;-366.2164;23.82711;-9.709004;-355.847;-345.9227;-0.4761902;-0.2209786;0;
-228.7801;0;-170.4046;-192.0608;23.2673;-6.350224;-168.0836;-162.2298;-0.2158423;-0.4156586;0;
-179.2;0;-120.0711;-141.9554;23.64606;-3.53056;-119.0018;-116.2149;-0.2805928;-0.2853063;0;
363.6447;0;380.8604;393.9179;23.01909;0.8267562;413.9124;416.6966;-0.1503762;-0.1550849;0;
700.4849;0;701.3788;745.97;23.19703;-5.269399;747.8285;749.1106;0.3045463;-0.02499443;0;
337.0883;0;377.2742;421.0708;22.77158;-5.465054;390.2564;392.5992;0.239273;0.4947694;0;
137.1;0;189.989;237.1775;21.94539;-0.1680324;188.528;196.1783;0.3039999;0.819109;0;
109.4136;0;158.5014;207.0167;21.58855;0.7029145;160.4151;169.6819;0.5635638;0.4284819;0;
-386.8845;0;-302.7386;-283.8822;22.77231;-2.512973;-327.7508;-318.6183;0.3680955;0.1032147;0;
-722.5143;0;-622.2737;-634.9828;24.42437;-4.318865;-660.5665;-649.0069;-0.1520131;-0.02682375;0;
-414.4428;0;-347.0989;-363.6683;17.03146;2.718439;-356.6177;-345.4445;-0.1518604;0.03817054;0;
-233.5546;0;-176.0859;-196.5117;14.87089;4.457263;-174.8506;-168.3113;-0.1517078;0.1030995;0;
-181.0337;0;-123.4354;-143.4659;25.77429;-2.312369;-121.764;-118.1048;-0.3464574;-0.02693875;0;
356.5031;0;372.5019;389.0982;27.08756;-1.975131;406.7802;411.1229;-0.4760439;-0.1568464;0;
681.6688;0;682.2217;729.5983;28.40049;-7.063727;728.3972;732.0483;-0.08576153;0.168148;0;
328.2236;0;363.696;410.7127;30.44806;-9.869791;379.3403;383.3626;0.8238674;0.2979137;0;
136.4276;0;182.2341;233.4514;25.92948;1.459998;185.4939;194.1348;0.4332356;0.03774496;0;
100.1212;0;145.4444;197.3598;26.23822;3.53488;149.4506;160.5815;-0.4117752;0.1026744;0;
-394.7932;0;-311.4721;-290.0311;18.97819;0.7851498;-336.8927;-325.523;0.1083773;-0.1572982;0;
-725.5426;0;-623.6271;-636.0656;14.73956;1.387207;-664.5143;-651.2196;0.4331051;-0.4170095;0;
-413.2827;0;-343.1412;-360.5646;24.43667;1.251848;-355.5641;-343.4696;0.04286585;-0.1567211;0;
-227.648;0;-169.2586;-189.7255;24.7469;0.4467945;-168.863;-161.4033;-0.2170466;0.03833841;0;
-185.128;0;-125.6729;-146.6814;18.89489;0.5803114;-125.8399;-120.699;-0.2168285;0.1032672;0;
353.225;0;373.7025;388.3221;17.20096;-0.09010106;403.7079;408.9061;-0.1516433;0.1681308;0;
692.3869;0;696.0397;742.941;17.71955;-6.386284;739.6957;742.7023;-0.2814256;0.3628639;0;
332.2469;0;370.1288;417.4202;17.0995;-8.657165;384.3807;386.8845;-0.4110775;0.2325646;0;
133.3254;0;182.1637;232.531;10.18345;-11.59572;183.033;190.2194;-0.3456971;-0.09250579;0;
104.9556;0;153.495;203.312;7.426548;-14.33024;155.4878;164.2912;-0.4752844;-0.1573802;0;
-388.9017;0;-304.6165;-285.0844;10.70162;-8.823364;-328.1129;-320.9426;-0.2799048;0.03767998;0;
-719.2197;0;-620.7139;-633.935;11.22673;-7.20703;-656.2431;-647.4558;0.1101805;0.1675768;0;
-411.1515;0;-342.7921;-360.81;5.789461;-11.48657;-352.3611;-343.2703;0.1100698;0.2973431;0;
-234.1396;0;-174.3447;-194.0311;4.711917;-11.2071;-173.097;-168.1383;-0.08494287;0.232077;0;
-176.6207;0;-117.8228;-136.9272;6.515843;-5.636378;-116.7013;-113.4967;-0.2147922;-0.09299291;0;
363.4104;0;383.0439;397.5043;3.160394;-4.157091;413.7743;417.6629;0.240195;-0.1578668;0;
685.3832;0;687.8806;734.6227;12.33327;-1.74165;733.4477;735.7082;0.304921;0.1021612;0;
342.4291;0;376.4081;425.9768;9.708909;-0.4672241;394.8181;398.0133;-0.5399608;0.2319932;0;
156.8032;0;202.3672;253.9476;14.2535;0.1360917;207.078;215.205;-0.6043856;0.1667928;0;
109.7317;0;155.6872;206.6535;19.33037;1.207682;159.5812;169.949;-0.343909;0.03669048;0;
-389.0029;0;-306.6119;-285.6193;-29.58537;-3.81713;-329.8957;-320.0381;-0.278596;-0.02831372;0;
-720.0079;0;-620.0211;-634.032;-42.41637;-4.148209;-656.5248;-646.2399;-0.08341409;0.03668207;0;
-417.4362;0;-348.5968;-366.654;-28.17385;-6.689392;-358.6396;-348.3025;-0.01836294;-0.3531588;0;
-234.9833;0;-177.2699;-196.1836;-34.10641;-7.620431;-174.8714;-168.2303;-0.01834448;-0.352804;0;
-186.8962;0;-128.4912;-150.0096;-16.38963;-3.794747;-125.408;-122.4592;-0.01832605;-0.09258012;0;
351.5835;0;370.9494;383.4981;-10.41131;-3.322054;403.952;406.8353;0.111627;0.03744759;0;
693.1208;0;696.7252;742.8069;-12.74537;3.111402;742.3758;744.1318;0.2414496;0.2972793;0;
336.4783;0;376.061;423.5331;-7.441281;5.385695;390.0566;392.6229;0.436109;0.361948;0;
138.677;0;189.2143;240.7617;-4.888208;7.85853;189.5777;197.7012;0.2407687;0.1017149;0;
113.5502;0;162.2877;212.7838;-1.802814;10.06107;164.025;174.3891;-0.4091466;-0.223224;0;
-388.4366;0;-303.0791;-283.6806;-0.5282045;7.036851;-328.9546;-319.8503;-0.4737028;-0.02809768;0;
-731.4362;0;-628.236;-641.8404;0.7451239;7.632505;-668.2659;-657.3591;-0.1483901;-0.09303679;0;
-418.4832;0;-344.3721;-362.648;-3.542532;0.7258376;-358.8745;-347.7913;-0.08327369;-0.3528127;0;
-231.6564;0;-168.9265;-188.9957;-5.146563;-2.289124;-171.1082;-164.2215;-0.278092;0.2322479;0;
-177.7006;0;-119.0943;-140.0178;-5.609907;0.6604255;-117.9004;-112.8322;-0.1478779;0.4918839;0;
359.8953;0;376.0266;391.2934;-7.279209;-1.148777;409.3281;415.7031;-0.2126967;0.166553;0;
687.8062;0;688.1791;737.3511;-7.674037;4.277873;733.5662;738.4979;-0.3424177;0.2963203;0;
338.4778;0;375.3321;423.58;-9.206567;7.354789;389.5016;393.8037;-0.01723687;0.03615317;0;
145.1097;0;192.4217;245.1189;-3.101747;-2.900746;195.3951;203.7534;-0.08218689;-0.2887199;0;
104.4218;0;150.187;204.393;0.1165502;-3.969558;155.5312;165.6302;-0.212039;-0.09352773;0;
-392.8707;0;-307.9212;-286.6282;-9.73018;2.531531;-332.5048;-322.9157;0.1779781;-0.02846641;0;
-721.1857;0;-618.0808;-629.855;-10.38999;2.060229;-656.82;-644.7418;0.1128319;-0.2883072;0;
-416.3015;0;-344.5344;-359.6077;-2.140526;11.70346;-355.7485;-342.9329;-0.2121181;0.03681923;0;
-239.9716;0;-178.7714;-196.703;-0.129619;15.44262;-178.48;-170.1749;0.1129317;0.361619;0;
-185.7576;0;-124.9937;-142.7824;4.35849;5.312924;-124.8276;-118.7797;-0.0820838;-0.4183525;0;
357.2187;0;377.5044;395.2782;8.306225;4.302842;408.0301;415.3212;-0.5367727;-0.8727036;0;
691.6915;0;695.7774;745.3923;5.150047;5.571194;739.8281;745.2379;-0.2113966;-0.2871206;0;
336.9869;0;377.1131;426.5532;5.278594;5.230681;390.0727;394.7274;-0.1462169;-0.09193005;0;
139.7473;0;190.7027;243.9037;12.70803;1.608469;190.8432;200.5531;-0.2110373;-0.156805;0;
107.3106;0;157.2153;210.6752;13.63327;0.8030575;159.4171;171.9909;0.1140114;0.1681893;0;
-393.0458;0;-305.2728;-284.1004;12.07835;3.213514;-330.4969;-319.8098;0.4387336;-0.1568165;0;
-730.9808;0;-627.6788;-640.3232;11.93249;3.813132;-665.1215;-654.3826;0.2433907;-0.4165283;0;
-418.7154;0;-349.1878;-365.4427;6.428145;8.899881;-358.357;-347.5665;-0.08169055;-0.09127302;0;
-231.3261;0;-173.1752;-190.6631;5.216238;11.03439;-170.716;-164.0593;0.04832622;0.1037207;0;
-179.1198;0;-120.3402;-136.9984;-4.166126;15.77897;-118.3208;-113.5448;0.2431797;0.2335512;0;
356.541;0;377.7804;394.872;-9.11941;18.84421;409.2205;415.3035;-0.08190137;0.4282185;0;
686.3918;0;692.6798;740.3014;-1.206016;17.75355;736.9569;740.3477;-0.1467864;0.3628209;0;
337.4396;0;378.0791;426.9646;-2.946116;19.67821;392.8265;395.5267;0.1781978;0.4274237;0;
146.3839;0;197.4148;250.8739;1.812266;15.17071;199.4038;207.7235;-0.146818;0.2970595;0;
107.4438;0;156.4245;211.2041;3.284313;14.08374;159.3485;169.9711;-0.4715072;0.03689168;0;
-393.7872;0;-308.5616;-285.7584;-2.881904;15.54321;-333.0017;-323.3268;-0.08122934;0.2317567;0;
-725.5371;0;-624.7174;-637.9816;-2.677938;13.98698;-661.1895;-649.7751;0.243689;0.3614585;0;
-416.2757;0;-348.5407;-365.0399;-9.976265;19.33144;-355.8658;-344.9002;0.1784768;0.03625854;0;
-233.0743;0;-176.4643;-193.6965;-12.10969;20.45073;-171.4132;-164.8939;0.04836277;-0.4185493;0;
-179.4294;0;-122.564;-141.3406;-11.22687;15.80848;-118.58;-113.7539;-0.1465878;-0.4181287;0;
358.0433;0;376.3084;390.4092;-12.28732;14.92182;408.9616;414.4075;-0.01650588;-0.2877739;0;
688.4548;0;691.834;738.1544;-5.241396;13.56716;736.6357;739.9523;0.5032495;-0.4174194;0;
337.2517;0;375.2352;424.8198;-1.618807;11.27623;390.2568;393.8199;0.2428744;-0.417;0;
145.509;0;193.2619;247.7942;-3.694262;12.87237;196.3369;205.706;-0.2771084;-0.4815483;0;
112.3794;0;158.7725;213.6873;-1.814539;11.78783;162.4691;174.4524;-0.4067646;-0.2211951;0;
-387.6697;0;-304.5917;-281.2163;8.167619;6.75239;-328.6974;-318.1628;-0.4713232;0.1688312;0;
-724.4857;0;-625.4368;-637.8168;12.58004;5.071032;-661.6995;-649.6763;-0.01607826;-0.09120781;0;
-416.2873;0;-348.8221;-366.3121;9.485942;1.850878;-358.062;-346.4881;0.3087746;-0.4809202;0;
-232.8985;0;-177.2451;-196.3418;9.677482;0.5763421;-174.7316;-168.042;0.1135623;-0.3505023;0;
-183.6891;0;-128.6539;-147.1691;14.75797;-2.371486;-125.7056;-120.397;-0.01648647;-0.2202154;0;
353.9129;0;371.3492;387.8974;15.48008;-4.914332;403.3423;408.7081;-0.2763393;-0.1550268;0;
692.1371;0;695.9377;743.3288;8.431925;4.334006;738.5184;741.5674;-0.3410289;0.04003098;0;
341.6175;0;381.4586;430.4263;6.146277;5.736293;393.6992;397.8072;-0.01584957;-0.02497658;0;
142.9364;0;193.6071;248.8348;3.058642;3.185178;196.8399;205.8787;-0.08080098;0.04001586;0;
105.7489;0;155.8064;211.2286;0.4436007;3.650857;161.7846;172.1887;-0.01575245;0.3648124;0;
-390.358;0;-305.8681;-283.1103;-2.10244;0.1641987;-328.0693;-318.6752;-0.01573662;0.3644458;0;
-721.4867;0;-626.462;-637.585;-4.444852;-0.9746762;-660.8222;-649.1887;-0.08068816;0.2341449;0;
-416.1024;0;-355.9057;-370.953;-2.095862;-3.451943;-362.9326;-351.6856;0.2442296;0.03900762;0;
-233.8382;0;-184.0093;-200.1035;-3.098134;-4.72115;-181.0342;-174.4211;0.3739189;0.03896842;0;
-174.3205;0;-122.98;-138.6832;2.664779;-8.199397;-120.1328;-115.2755;0.3085758;0.4937007;0;
366.208;0;379.0788;396.6871;5.743561;-9.999698;412.9075;418.3221;0.04839643;0.2333352;0;
693.9876;0;691.2283;740.2406;-5.246923;-5.903813;736.7047;740.1773;-0.3414562;-0.286638;0;
344.2158;0;376.7539;426.904;-7.586176;-5.562966;390.8254;393.7324;0.0486909;0.03848675;0;
153.653;0;197.0905;250.501;0.3920498;-2.007403;197.7171;204.9314;0.3085113;0.1683828;0;
118.8286;0;159.3488;212.8306;1.194963;0.3390167;161.599;171.8046;-0.08160271;-0.2215905;0;
-377.6039;0;-301.9545;-280.3855;-0.07805938;-1.670812;-325.4437;-316.4977;-0.2114554;-0.4162698;0;
-717.1786;0;-624.114;-635.8624;2.400265;-1.066287;-660.5731;-650.6366;-0.4711123;-0.1559822;0;
-410.1744;0;-347.5631;-362.673;-6.711825;1.212204;-357.8736;-346.6353;-0.3407042;-0.09085814;0;
-219.5454;0;-168.1164;-185.8348;-9.049605;1.813833;-166.3601;-159.5683;0.5042136;-0.09076685;0;
-173.9726;0;-123.3449;-141.4203;6.900693;0.003471093;-120.5909;-117.4916;0.4387396;0.4290631;0;
357.3727;0;369.8437;386.2691;11.18067;-0.6663617;402.2675;405.6136;-0.2113747;0.5585667;0;
696.468;0;694.1214;742.889;5.342284;-1.335521;738.6316;740.7874;-0.08122762;0.1682014;0;
343.1954;0;375.5837;425.9265;5.404264;-2.405906;390.7514;392.905;0.1787234;0.2329997;0;
142.139;0;186.2388;238.8424;13.77158;-2.001591;188.6476;195.3593;-0.1462929;-0.09207115;0;
110.5745;0;151.9438;204.6195;15.02956;-1.597683;156.0369;165.3655;-0.01621124;-0.4168153;0;
-383.7257;0;-307.9153;-284.0281;12.73729;-5.949846;-329.6259;-321.6809;0.3736091;-0.09155981;0;
-719.4213;0;-626.7579;-636.3779;13.52877;-7.015594;-661.3777;-652.3163;0.04839699;-0.02650047;0;
-414.976;0;-353.7026;-368.4354;0.5207315;-5.06604;-361.9883;-352.1864;-0.3414557;-0.4162779;0;
-232.7754;0;-182.7455;-198.5879;-4.503633;-6.467591;-179.1538;-174.2968;0.2435935;-0.3508923;0;
-174.0709;0;-124.7159;-141.2296;-1.351277;2.38041;-119.4412;-117.9624;0.6981201;0.03926435;0;
364.8957;0;375.5955;392.8315;-4.966265;5.325268;411.2871;413.2017;0.04774521;0.1041923;0;
690.5526;0;685.9369;736.014;-1.076509;-3.38762;733.4617;734.6872;-0.2121721;0.1690549;0;
338.0356;0;368.5943;419.6207;-1.009054;-3.518182;385.899;387.4357;0.1778451;-0.026017;0;
145.1677;0;188.5018;241.7882;-6.500397;-6.394913;192.6082;198.0789;-0.01723561;-0.0909582;0;
109.4772;0;152.0806;204.6263;-7.163451;-8.196905;156.4328;164.8964;-0.342055;0.1040352;0;
-382.8229;0;-304.093;-281.7724;-9.299706;-4.169815;-328.1684;-318.5888;-0.08184194;-0.09097134;0;
-716.2704;0;-619.6912;-630.2515;-10.22837;-3.763727;-657.9852;-646.2289;0.243077;-0.2208146;0;
-415.514;0;-349.454;-364.8138;-9.079014;-1.415665;-360.7231;-349.6658;-0.08200394;-0.2205927;0;
-226.8161;0;-172.6291;-190.0349;-8.801472;1.198092;-171.0808;-164.9071;-0.1468889;-0.4152731;0;
-173.1776;0;-120.7316;-138.1824;-8.123042;-2.42019;-117.8106;-114.4542;0.1780954;-0.4798232;0;
359.5412;0;372.0171;389.1289;-7.177851;-2.752673;405.8571;409.6474;-0.08195291;-0.4143737;0;
701.8827;0;697.9167;746.4332;-6.366356;7.163445;745.5908;747.3159;-0.2767726;-0.34899;0;
347.4802;0;379.875;428.9673;-6.226237;9.299579;396.5167;398.4899;-0.08159246;-0.1537373;0;
144.2331;0;189.7137;244.1915;-1.464559;8.017559;191.3462;199.4394;0.04842421;-0.2835175;0;
119.1632;0;163.4112;219.8957;-0.3913601;9.349161;166.3539;176.5629;0.1133429;0.04160406;0;
-377.2696;0;-296.8342;-271.2035;-0.05519813;3.914272;-322.1927;-312.6187;0.1781964;0.4313663;0;
-720.7177;0;-622.9969;-633.3738;1.953613;2.57068;-663.3848;-651.6965;0.1780173;0.3009982;0;
-414.3347;0;-349.3206;-365.5592;-7.760265;2.367148;-360.5576;-350.5052;0.04790374;0.1707611;0;
-229.3236;0;-175.4943;-192.1539;-9.360058;1.896011;-173.9765;-168.6193;0.1128229;0.04065479;0;
-176.4321;0;-121.4076;-137.1758;-8.077855;-0.3163306;-121.5154;-116.7884;0.2426443;-0.08932074;0;
360.9751;0;376.7141;395.5693;-10.14682;-1.253774;407.9031;413.4375;-0.01746891;0.105671;0;
690.7589;0;691.6771;741.3728;1.050136;4.039016;736.203;739.7328;-0.4072554;0.3004669;0;
338.7415;0;373.829;423.5372;4.196913;4.436855;388.2628;391.6642;-0.3418789;-0.02467174;0;
148.559;0;193.981;246.9502;1.848171;9.790909;196.2815;203.49;-0.01669862;0.1052878;0;
106.8056;0;154.7433;206.4723;4.32456;11.85754;155.8545;165.0548;-0.2765512;0.494986;0;
-394.3623;0;-309.1166;-287.362;0.7702417;11.5777;-335.9925;-327.9883;-0.2762733;0.4944887;0;
-720.6768;0;-622.4609;-631.9;0.3673261;14.64716;-660.3666;-650.6214;0.04884098;0.2990898;0;
-417.8546;0;-351.2215;-365.2737;2.444038;2.240839;-362.6649;-352.1174;-0.2760448;-0.1559822;0;
-236.4632;0;-178.2678;-194.8672;1.168784;0.162239;-178.9552;-173.7905;-0.1458327;-0.0908581;0;
-182.3776;0;-124.3032;-140.761;4.650235;3.779032;-124.74;-122.2667;-0.01575153;-0.02579947;0;
355.3479;0;373.1967;391.9877;4.846632;1.56492;403.4949;407.34;-0.2756051;-0.02577355;0;
695.9445;0;696.8463;748.6644;0.9569967;15.96431;741.7942;743.3865;-0.1453935;0.1691544;0;
339.0493;0;374.3079;425.7616;0.7549644;20.36902;389.2881;390.754;-0.2102147;0.03904973;0;
137.872;0;184.527;238.865;-5.274014;14.05228;185.3118;192.2734;-0.0800688;-0.02595685;0;
115.4322;0;159.1043;215.1992;-7.211098;15.17687;161.6374;171.3406;0.2448484;-0.02593077;0;
-377.8734;0;-299.0129;-273.5215;-4.658257;15.76447;-323.2189;-314.2126;-0.01526703;-0.3507414;0;
-726.0685;0;-630.4207;-639.2501;-4.788274;15.94958;-668.4704;-658.2238;0.2446177;-0.4153563;0;
-422.1788;0;-358.9859;-373.0538;-1.500933;14.72786;-369.3862;-359.0874;0.3743066;0.1697671;0;
-231.4128;0;-180.2773;-195.4555;0.04081665;15.11496;-177.049;-171.0709;-0.1458083;0.2995312;0;
-181.3928;0;-130.8709;-146.5336;4.596103;9.33936;-127.396;-124.1725;0.04924026;0.03936085;0;
356.8315;0;368.0099;386.8456;7.805689;6.784746;401.3413;405.1862;-0.01577656;-0.02564604;0;
694.4906;0;688.6038;739.7793;3.578288;15.15055;735.5823;737.9866;-0.3405974;-0.09058762;0;
344.7182;0;374.5069;426.3181;2.301894;15.67119;392.2029;394.23;0.1145162;0.2993075;0;
150.9691;0;194.221;250.1031;8.596221;17.12907;197.7814;204.554;-0.08050088;0.3639741;0;
106.6521;0;149.1734;195.879;7.583206;17.78156;148.6697;158.0593;-0.4702241;0.103739;0;
-394.2034;0;-315.5555;-300.9432;6.101717;16.35718;-342.9201;-334.1647;-0.1449149;0.1686021;0;
-724.2037;0;-629.1431;-636.0348;6.028237;16.20678;-664.6636;-654.1055;0.1800675;-0.09143671;0;
-426.0005;0;-361.6451;-374.7142;-9.048369;8.487577;-370.7682;-360.6579;0.5047233;-0.3512142;0;
-244.2886;0;-190.3676;-208.9208;-13.25884;4.996058;-188.4871;-183.0721;0.3742814;-0.1559593;0;
-180.6375;0;-129.0196;-144.3683;-14.8531;3.852329;-125.0795;-121.544;0.2439706;-0.09083522;0;
359.1477;0;370.9213;390.3206;-17.85229;0.7673649;405.6545;409.3114;0.3086928;-0.285646;0;
693.5561;0;690.2004;742.5637;-10.33226;1.637372;737.9547;739.6089;-0.08142138;-0.4152936;0;
343.4723;0;375.1025;428.7249;-8.245776;1.836676;392.1366;394.6637;-0.2112743;-0.0250723;0;
154.1597;0;196.8775;253.6319;-5.424452;-3.18889;201.0884;208.673;0.04880741;0.3647569;0;
136.0763;0;176.1275;232.6375;-3.275548;-3.118703;182.4581;192.3464;0.3735951;0.1694884;0;
-372.2425;0;-295.1252;-269.4065;7.377664;-0.8381494;-318.3486;-307.9705;0.3082523;-0.02558392;0;
-734.811;0;-638.7183;-647.0709;12.86261;-0.7703242;-677.1606;-665.6061;0.3079426;-0.09052555;0;
-426.9771;0;-362.9023;-376.9311;3.338839;11.0192;-372.2582;-362.0895;0.6324698;0.1044674;0;
-234.9568;0;-184.877;-198.9542;2.664922;15.29492;-180.2929;-174.3824;0.1120957;0.03939512;0;
-189.7434;0;-140.8383;-154.8388;0.1839982;14.07385;-135.6966;-133.2902;-0.4077557;0.2342576;0;
352.1125;0;362.5503;383.5462;-4.102118;17.81063;397.7342;399.8883;0.04742539;0.1690549;0;
697.5849;0;691.5829;745.5412;1.661804;9.755031;739.2877;740.6899;0.3072471;-0.2858864;0;
343.5616;0;373.485;426.577;1.727483;8.070656;390.2824;391.9331;-0.147833;-0.3505665;0;
149.0639;0;191.6385;247.2383;-11.60349;14.69373;194.3635;201.135;-0.2126518;-0.2202796;0;
111.5579;0;151.6534;199.7636;-14.80701;14.61199;152.6891;161.7651;0.3722679;-0.02515621;0;
-388.1156;0;-313.0779;-297.8121;-12.58231;16.00395;-338.7174;-329.7755;0.6317632;-0.1550656;0;
-716.6852;0;-626.4182;-634.4685;-12.97083;17.05947;-660.4027;-648.7836;0.2413244;-0.2848445;0;
-421.8629;0;-364.1078;-374.149;-11.68598;13.35839;-369.635;-359.2144;0.04617989;0.04027843;0;
-241.1547;0;-194.7019;-207.794;-11.13837;12.27324;-189.1666;-183.1917;0.3709702;0.1052053;0;
-173.1339;0;-127.6649;-139.307;-5.366401;16.34687;-121.6354;-116.2912;0.1107281;0.170067;0;
366.7063;0;374.1487;396.3138;-4.958868;17.00015;409.7198;415.1211;-0.5390566;0.1698961;0;
699.3579;0;691.8629;744.4904;3.954723;12.56232;739.892;742.4142;-0.2786456;0.29966;0;
349.3932;0;376.3885;428.7756;7.031232;11.47809;394.2594;396.4668;-0.01849623;0.2993589;0;
155.6394;0;194.1642;250.1219;-6.371443;11.73449;198.8987;205.9765;-0.278347;0.1041561;0;
127.2472;0;163.4844;220.6977;-9.178081;10.24907;170.5255;179.845;-0.2131;0.0390841;0;
-371.7549;0;-298.8226;-270.8396;-12.18394;12.98495;-319.8369;-310.9641;-0.2778532;-0.3507592;0;
-719.269;0;-627.9193;-634.2596;-13.44352;13.84268;-663.9049;-653.9166;-0.08267199;-0.4153741;0;
-414.8239;0;-356.5494;-369.3177;-26.42446;8.00138;-363.6384;-354.6596;0.3721825;-0.0251527;0;
-224.0028;0;-178.5305;-192.3478;-31.28803;7.189545;-171.5569;-167.0848;0.04697179;0.1697746;0;
-176.8638;0;-131.687;-144.9283;-18.66429;8.655945;-125.0328;-122.3144;-0.5377815;0.364506;0;
356.9832;0;362.447;385.5757;-19.24777;8.848196;399.0794;403.3569;-0.6022084;0.1042704;0;
697.8904;0;687.919;742.2588;1.200755;11.11672;736.821;739.4699;-0.146832;-0.02576904;0;
343.367;0;369.2626;424.235;11.38095;12.64604;388.1305;390.5894;-0.08171708;-0.02574315;0;
144.3094;0;180.2364;240.3384;-8.591151;13.23618;188.903;195.4823;-0.1466023;-0.2206193;0;
112.6802;0;146.3223;196.3064;-8.247726;13.5578;153.4809;161.5528;-0.2114224;-0.3503323;0;
-381.747;0;-310.4077;-293.5197;-2.948153;18.8357;-333.9909;-325.8646;-0.4061119;-0.2200456;0;
-714.3835;0;-626.5618;-632.8665;-3.614776;19.75454;-659.8663;-650.124;-0.3407365;0.1699796;0;
-415.8779;0;-359.5661;-370.9245;0.6084147;19.60072;-364.9137;-355.9933;-0.08052479;0.3647108;0;
-236.9248;0;-189.9149;-204.5727;1.746879;20.8537;-184.7624;-179.6615;-0.01547654;0.1694423;0;
-175.8423;0;-129.192;-141.8361;-3.948303;10.71857;-122.7953;-120.1358;-0.1453957;0.1043047;0;
367.8737;0;374.7471;396.5359;-6.221512;8.162448;411.8719;414.2164;-0.01531489;0.1691672;0;
699.0873;0;691.2112;745.5244;0.01403042;6.814588;740.73;741.323;0.2445699;0.2339646;0;
340.6897;0;368.2412;421.6876;-0.2544034;3.257767;386.4134;387.6306;-0.08051259;-0.2210419;0;
147.8816;0;186.4624;242.5412;-0.4552186;11.76108;192.2476;197.9612;-0.3403011;-0.5456565;0;
121.7461;0;158.414;215.3736;1.3539;13.02194;166.7546;173.3371;0.1148123;-0.1553042;0;
-377.4379;0;-303.3256;-276.6581;-11.30711;8.789053;-324.1663;-317.5904;0.3745663;-0.09018078;0;
-719.449;0;-627.2328;-633.5756;-14.5773;8.780222;-663.5448;-653.6022;0.0493532;-0.1550575;0;
-412.1302;0;-353.9272;-365.386;-8.199645;8.905365;-361.4671;-351.7219;-0.08063108;0.169935;0;
-224.4977;0;-179.2217;-194.4171;-9.330482;8.427536;-172.3862;-167.5234;0.2442866;-0.02513778;0;
-181.4812;0;-133.8143;-150.0564;-5.636435;8.954931;-127.9852;-125.0014;0.3090085;-0.2200145;0;
355.8687;0;364.3823;385.1379;-5.899191;9.883695;401.065;404.2332;-0.08110601;-0.1548261;0;
701.837;0;692.601;746.2567;0.6708195;2.706712;743.5521;744.0311;-0.2109592;-0.3495726;0;
345.2482;0;371.2537;425.2304;4.755982;0.7616091;390.9819;391.7726;0.3739589;-0.2192867;0;
147.1257;0;183.7247;239.8336;-11.19;5.248578;190.2522;196.4145;0.5035177;-0.02416429;0;
116.6181;0;151.5562;198.6756;-12.719;4.573475;155.8282;163.8584;0.1132078;-0.2840094;0;
-379.3748;0;-306.5534;-291.1529;-15.72033;9.592478;-331.3335;-323.4988;0.3729634;-0.08882197;0;
-711.9512;0;-623.2735;-631.0643;-20.79572;11.05646;-656.587;-646.5737;0.437556;0.236104;0;
-413.573;0;-357.6554;-368.6243;-0.4120178;8.700952;-363.0744;-353.8834;0.3071817;-0.08896996;0;
-233.3728;0;-186.8817;-200.963;5.013403;8.96014;-182.3627;-177.5537;0.6317096;-0.4137173;0;
-174.2304;0;-127.6611;-141.8532;-9.392598;6.338925;-122.2721;-119.0921;0.3062382;-0.2833669;0;
359.4265;0;366.5938;384.6498;-10.05275;5.997641;401.8373;406.2011;-0.3437429;0.04175455;0;
689.2119;0;680.6924;731.5887;-2.339486;0.7670676;728.9565;731.3793;-0.1484955;0.10668;0;
338.6327;0;364.2921;416.5741;-1.265408;-1.511123;383.3973;384.8182;0.1764905;-0.08832928;0;
143.4529;0;180.8306;236.3084;-2.738005;3.714942;186.7982;192.4031;0.2412805;0.1066615;0;
112.6367;0;148.7274;204.4618;-2.065669;4.515005;156.1883;163.9115;0.3060054;0.1715217;0;
-378.0424;0;-306.0685;-280.9372;-6.350501;6.319007;-325.9763;-318.5108;-0.01913882;-0.3483894;0;
-714.4932;0;-623.7261;-631.4161;-8.352876;8.991853;-659.5435;-649.6492;0.04584775;-0.2181047;0;
-420.2978;0;-359.3569;-373.0363;-3.58906;6.705398;-368.8391;-359.5794;-0.01916566;0.04198385;0;
-237.2798;0;-188.7689;-204.1836;-3.384383;6.966592;-184.4984;-180.2455;-0.1490811;0.04194167;0;
-180.1949;0;-133.0447;-147.6942;-5.859229;16.33708;-128.6535;-125.217;-0.2138986;0.2368016;0;
355.342;0;363.3396;383.1249;-5.920691;19.20081;398.1485;402.9559;-0.7983898;0.4314657;0;
695.7512;0;685.3124;737.1243;-8.460337;15.29663;735.3288;737.8199;-0.5377182;0.3010974;0;
345.0405;0;367.9705;421.417;-9.724633;15.14729;388.8262;390.8776;0.1124955;0.1708602;0;
140.7338;0;177.259;233.8376;-6.700752;14.86414;182.539;189.0236;0.1773498;0.3655905;0;
107.5465;0;142.8481;191.5613;-6.492949;13.24161;145.0619;153.9762;-0.2775998;0.5601252;0;
-386.3758;0;-315.6276;-297.7603;-7.223359;10.14722;-340.4025;-331.9968;-0.2773208;0.6245297;0;
-728.1281;0;-639.46;-645.5362;-6.479167;7.055806;-674.205;-664.4959;0.3726313;0.03919613;0;
-422.3623;0;-366.267;-375.3355;-8.347691;6.512852;-372.3039;-362.4797;-0.01754722;-0.3506473;0;
-229.9719;0;-186.6765;-197.9848;-8.205581;5.166771;-178.652;-173.8976;-0.5372683;-0.09042561;0;
-178.2042;0;-134.7025;-146.6866;-7.326679;-2.273403;-126.686;-124.9973;-0.1469244;-0.02536741;0;
355.0819;0;358.3726;380.8207;-7.38569;-4.079536;396.3659;399.3647;-0.08180945;-0.2852113;0;
693.4298;0;679.7258;735.5096;-2.555498;-6.084925;732.7983;733.8577;0.2431094;-0.02505534;0;
345.2827;0;368.0116;423.9268;-0.8116181;-8.155282;390.4837;391.3546;0.3727999;0.03993718;0;
148.9718;0;185.1711;245.3404;-1.681459;2.302006;192.2533;198.1207;-0.2772481;-0.349907;0;
114.6518;0;150.6273;210.6112;-0.4743204;4.97901;156.8903;165.0632;-0.3419369;-0.2196207;0;
-382.2762;0;-310.8547;-283.1648;-2.148783;4.907024;-331.8967;-324.2943;0.04821073;0.04046931;0;
-720.6593;0;-632.9428;-638.1392;-2.347695;6.978443;-666.5823;-657.176;0.2430643;-0.02453869;0;
-421.3353;0;-363.5669;-372.6936;-2.345336;7.64126;-370.9358;-361.1016;0.6326241;0.170388;0;
-236.692;0;-190.9756;-202.9043;-3.481079;8.906258;-185.0938;-179.6423;0.3071518;0.4950535;0;
-175.9846;0;-132.688;-146.7286;0.4745338;5.146387;-125.1879;-121.9907;-0.2128956;0.6244907;0;
358.7361;0;361.8843;382.7153;1.344713;4.471386;399.924;403.0555;-0.3426164;0.1690919;0;
690.3337;0;676.4874;729.5937;-3.9489;3.663098;727.8572;728.7366;-0.5371741;-0.2208821;0;
346.6875;0;367.5876;423.2018;-5.284102;3.25752;388.8583;390.9239;-0.08186299;-0.4155622;0;
146.0648;0;179.2502;239.681;-4.408137;3.053298;187.0064;194.3796;0.04815395;-0.6100466;0;
106.7502;0;138.9028;190.7147;-5.408085;3.385144;143.7776;152.7677;-0.3416985;-0.1546623;0;
-378.0509;0;-310.511;-291.5471;-6.073213;4.855368;-333.0023;-325.3331;-0.01651844;0.2352972;0;
-713.7521;0;-629.9757;-635.7685;-6.669347;4.64954;-661.9396;-652.9664;-0.01650184;0.04015873;0;
-412.9358;0;-360.3529;-369.3882;-8.672378;13.08447;-366.1729;-356.8338;-0.341322;0.1050857;0;
-225.8647;0;-185.0163;-194.9171;-9.735391;14.87987;-178.0243;-173.1299;-0.2110443;0.1049801;0;
-180.6604;0;-140.5401;-149.5564;-9.056023;14.9319;-132.4932;-130.3523;-0.01593024;-0.1549947;0;
358.1254;0;358.4753;381.2646;-9.582787;16.99324;396.4991;399.1375;0.04905311;-0.08987164;0;
704.6537;0;689.2612;743.7616;-9.90795;7.397852;741.2397;742.6262;-0.2108655;-0.02481399;0;
350.1235;0;371.1656;426.3609;-10.09907;6.318692;391.9825;393.4926;0.0492157;-0.3496258;0;
147.2485;0;180.7632;239.0265;-13.90633;0.6190375;187.3163;193.9473;0.1791009;-0.4792091;0;
116.8658;0;149.2223;207.6769;-16.97382;-3.40056;156.2062;165.3292;0.04898629;0.0410111;0;
-375.1919;0;-306.4486;-278.0377;-8.986163;6.717035;-326.958;-318.8437;0.2438391;0.04096989;0;
-714.8315;0;-629.3533;-632.9548;-7.636987;6.442354;-662.7105;-652.1681;-0.08124263;-0.283908;0;
-415.7007;0;-360.8555;-370.388;-18.88245;12.12931;-368.0674;-358.0353;-0.08116099;-0.153688;0;
-232.0001;0;-189.9536;-201.2881;-20.33734;15.06437;-183.9774;-179.2652;0.2437573;-0.08856626;0;
-173.3589;0;-135.0403;-144.8641;-23.79953;8.552011;-126.3839;-123.4256;-0.08132438;-0.02350993;0;
365.4196;0;364.7817;388.2011;-26.05279;9.347213;403.3519;407.1818;-0.2761447;0.3013504;0;
697.8851;0;682.7552;736.6357;-21.00277;2.840598;733.6553;735.6699;-0.2758672;0.1711129;0;
350.2957;0;371.6002;427.1132;-20.11101;0.6944118;392.4018;394.3518;-0.08068799;0.0410063;0;
153.2301;0;187.7565;245.5251;-17.14404;2.770063;193.4823;199.7407;-0.1455743;-0.08896958;0;
120.1552;0;149.9618;200.9257;-14.98336;1.494604;154.8697;162.746;-0.145428;0.0410545;0;
-370.344;0;-307.6465;-285.5318;-9.141159;6.583683;-327.7933;-319.8;0.1145875;0.36585;0;
-714.9235;0;-633.7982;-637.0056;-4.375576;7.782761;-664.0448;-653.9356;-0.08042966;-0.0243217;0;
-413.6687;0;-363.9842;-372.9354;-10.73517;10.32029;-366.7766;-357.802;-0.08034884;-0.154232;0;
-224.2856;0;-186.8948;-197.3987;-10.65703;13.0561;-177.6905;-173.2226;-0.01530076;-0.02414229;0;
-183.3931;0;-143.7286;-154.7217;-5.689831;7.081622;-135.9078;-133.0686;-0.2751547;0.04084931;0;
351.8972;0;352.7913;374.2304;-6.688492;5.667987;390.5891;393.6754;-0.2099109;0.3006777;0;
707.1149;0;688.5804;744.4182;-1.123042;10.68589;742.1448;743.4163;-0.07976533;0.1704408;0;
358.3293;0;373.9838;431.1397;-0.4513521;10.00532;396.9472;399.2794;-0.2096199;-0.1545671;0;
150.7609;0;179.3931;240.677;-5.407392;7.985782;187.8408;194.6684;-0.2743766;0.2353922;0;
117.8134;0;145.1675;207.4518;-4.39758;6.973013;156.0429;164.3004;0.05073582;0.105221;0;
-372.8084;0;-309.5624;-279.4495;-17.32026;2.679221;-325.247;-317.8099;0.1806195;-0.2846888;0;
-711.9507;0;-632.0266;-635.6146;-20.31696;1.470837;-661.4386;-653.2593;-0.1443987;-0.154468;0;
-417.1331;0;-368.3987;-376.9181;-17.015;-2.750444;-371.2945;-363.6856;-0.2092209;-0.1543128;0;
-234.5555;0;-196.6772;-207.4369;-19.47614;-4.087339;-187.6385;-183.723;-0.1440434;-0.08919042;0;
-171.414;0;-132.8241;-143.8228;-3.715465;-0.8010684;-123.5446;-122.2567;-0.5337027;-0.1540681;0;
369.424;0;371.1811;394.3013;-0.2964558;0.5393952;409.749;411.0981;-0.6631011;-0.283848;0;
701.6981;0;688.6484;743.1046;3.253815;3.352014;738.4844;738.5203;-0.07772872;0.1712086;0;
354.1049;0;373.3646;430.2648;8.742903;5.626066;394.8522;395.013;0.2471861;0.4309059;0;
152.7876;0;181.2108;242.2392;-7.876674;14.86381;192.3071;196.778;0.5717744;0.3005383;0;
112.0295;0;139.4246;192.3333;-11.82087;20.14041;147.886;155.2261;0.2463632;0.1703016;0;
-377.9619;0;-313.5504;-293.6783;-6.249291;18.91448;-334.3327;-326.8127;-0.3385904;-0.1547062;0;
-721.0344;0;-637.9471;-644.9565;-9.257122;21.97657;-669.7031;-661.316;0.3763905;-0.2844855;0;
-417.3997;0;-366.1923;-376.8179;-10.72169;20.74891;-369.9305;-362.6138;0.4409797;-0.08929759;0;
-220.8289;0;-183.1662;-194.5931;-12.11743;19.99125;-173.22;-169.9086;-0.0142348;0.4305309;0;
-180.0649;0;-141.5655;-152.2313;-19.67372;27.33904;-132.129;-130.5701;0.3106162;0.6899676;0;
354.0977;0;354.1402;378.405;-22.80276;29.05313;392.5526;394.6097;-0.07949995;-0.0253664;0;
707.7514;0;690.6775;749.9003;-18.82773;21.58895;742.8569;743.2877;-0.1443874;-0.3501776;0;
354.3425;0;372.9554;431.8688;-18.5404;20.56264;394.2853;394.7782;-0.07927498;-0.2198911;0;
150.9635;0;180.4272;239.7812;-21.4695;18.53249;189.6168;195.2316;-0.4040321;-0.08973545;0;
125.5745;0;151.9476;210.3674;-21.649;15.90153;164.0016;172.9216;-0.01382201;0.2351914;0;
-365.8672;0;-302.4767;-273.8506;-15.6654;19.30168;-319.108;-310.3219;0.6358652;0.04005308;0;
-710.0764;0;-628.6962;-632.8948;-12.76927;17.40677;-659.8034;-649.7143;0.765161;-0.08992185;0;
-414.3861;0;-364.5719;-373.8888;-16.10632;20.13558;-367.662;-358.3951;0.1147188;0.3649399;0;
-229.375;0;-190.6053;-201.1622;-14.95106;20.18233;-181.386;-177.3133;-0.0802985;0.3645732;0;
-171.1112;0;-132.8177;-144.4885;-10.78285;12.12422;-123.5452;-121.9754;0.2446189;0.4291742;0;
366.0408;0;363.3789;385.9526;-9.098054;10.03569;404.1888;407.1313;-0.145431;0.623645;0;
703.0659;0;682.6031;737.7003;-6.074802;5.269938;736.4904;738.3055;-0.1452848;0.03831229;0;
361.1559;0;374.9465;432.0498;-3.791522;2.786274;399.2945;400.2332;0.5045346;-0.4814649;0;
162.0804;0;188.4133;249.5822;-4.859439;-0.02968706;200.0557;205.3663;0.04925623;-0.09117711;0;
117.6898;0;143.9338;195.7958;-4.183995;-2.508026;151.8788;159.4954;-0.08072794;0.2337512;0;
-373.4316;0;-310.3576;-290.2192;-2.974342;3.723785;-331.5934;-324.8589;0.3741246;-0.09132037;0;
-707.9506;0;-624.95;-629.1321;-3.306146;4.523839;-659.033;-649.3693;0.04891193;-0.4160653;0;
-409.7013;0;-358.0808;-367.0688;-1.42779;5.992795;-364.7058;-354.7395;-0.0810719;-0.2207452;0;
-223.9453;0;-187.9314;-197.7224;-1.426356;7.326433;-177.3709;-172.5994;0.04894425;0.1043133;0;
-176.8063;0;-141.1409;-149.1731;-1.625993;8.926661;-129.2792;-126.1993;-0.01607227;-0.2206282;0;
359.9766;0;358.0625;382.2098;-0.2842128;11.19499;397.7733;401.9122;0.04891122;-0.2853739;0;
710.501;0;691.9722;748.1416;-9.862121;3.681896;745.8859;747.6469;-0.2110073;-0.02521778;0;
355.3403;0;373.9364;430.0494;-12.59888;2.338538;396.2494;397.4462;-0.34073;-0.3500291;0;
144.7139;0;176.035;235.5898;-6.356927;3.876796;184.1451;190.4632;-0.08051822;-0.4796121;0;
120.5181;0;147.7472;209.1787;-7.824408;2.26531;159.2225;168.0955;-0.1454047;0.3004779;0;
-365.0465;0;-301.6754;-271.1026;0.6908962;7.085683;-318.1976;-310.8952;-0.2102259;0.6250127;0;
-708.9442;0;-627.4584;-630.8992;3.503241;7.748393;-658.8939;-650.4745;0.2447567;0.49445;0;
-409.3195;0;-359.7122;-367.3974;-4.538231;7.740607;-363.1927;-354.282;0.1145761;0.2340838;0;
-223.2516;0;-186.5001;-197.1137;-4.399949;9.809299;-177.1711;-172.6421;-0.2103757;-0.02602078;0;
-169.3667;0;-133.6517;-145.3166;-9.686813;2.163511;-124.4569;-121.869;-0.01526231;0.0389727;0;
368.0334;0;364.6697;389.7481;-12.0216;0.6207298;403.7776;407.6123;-0.1451817;0.1688682;0;
703.9321;0;682.3934;739.5554;-11.54101;5.911636;736.517;737.8491;-0.4698725;-0.1561382;0;
354.8374;0;367.3657;425.095;-14.14138;5.637764;393.8238;394.4049;-0.01462897;-0.09101393;0;
154.7687;0;180.0281;240.1981;-7.29467;11.12458;191.2797;196.4204;0.1802878;0.2339142;0;
116.9446;0;141.8038;194.4171;-6.416685;13.92668;150.0456;156.3681;-0.1447301;0.2986465;0;
-378.6113;0;-316.3585;-299.655;-9.424347;8.889091;-337.7975;-332.231;-0.2745194;0.2333791;0;
-720.309;0;-640.44;-660.6098;-9.012735;9.951886;-678.3492;-670.6644;-0.0793415;0.1032099;0;
-417.7994;0;-368.9326;-395.0791;-12.82207;7.262569;-379.7549;-373.3271;0.3105423;0.1680736;0;
-228.7869;0;-191.7758;-211.9615;-13.6125;5.379872;-185.6582;-183.7971;0.2452629;0.232872;0;
-181.768;0;-145.7936;-162.4608;-16.88135;14.8858;-138.0579;-137.7605;-0.2747223;0.03773601;0;
346.5867;0;343.2946;357.816;-19.14156;16.41133;380.1953;381.0547;-0.2094789;0.4275022;0;
696.3749;0;675.5325;726.5209;-15.23756;13.58168;728.9503;727.9973;-0.5990725;0.4270726;0;
358.3448;0;374.2548;433.188;-16.02654;14.30484;399.0084;397.6815;-0.7284052;-0.2879973;0;
151.1512;0;180.7883;237.7883;-9.78114;10.00368;187.7759;191.3229;-0.01303253;-0.09280589;0;
122.0763;0;146.6237;197.5069;-5.283333;8.787937;153.6043;160.2087;-0.3378561;0.2321241;0;
-364.5518;0;-304.4844;-277.203;-22.02351;9.917816;-320.9366;-314.2139;-0.3375167;0.1019562;0;
-713.385;0;-635.0746;-636.7436;-26.35467;10.1088;-662.6297;-654.3521;0.3124959;0.166821;0;
-411.8194;0;-366.5712;-374.2979;-6.903377;9.026916;-367.2995;-359.7798;0.1172799;0.2316208;0;
-222.0633;0;-187.1053;-195.6989;-3.346467;9.486726;-177.0883;-173.8241;-0.01277265;0.1664207;0;
-171.9902;0;-136.7551;-147.5888;-10.24296;11.35259;-127.2479;-126.2357;0.1171749;0.1012861;0;
361.3521;0;356.1971;380.7939;-8.222933;11.47515;396.7417;398.1276;-0.1428122;0.2311191;0;
701.4429;0;680.6135;738.4813;-11.89837;19.43447;733.7359;734.0585;-0.4675055;0.2308868;0;
358.3477;0;373.5836;430.6437;-12.89079;21.55827;396.6677;396.6776;-0.142199;0.03575278;0;
155.9017;0;184.8654;245.2414;-3.233269;21.33566;193.4336;197.9412;0.1827806;-0.09421783;0;
118.8886;0;146.6987;199.8927;-0.1485613;23.12276;151.2603;158.4496;0.1176296;0.03581152;0;
-368.9857;0;-307.5954;-284.065;-3.430942;14.99484;-328.6505;-321.8433;0.2474461;0.1007429;0;
-706.8824;0;-630.0616;-629.6057;-1.886277;13.17123;-660.4033;-651.0417;0.1172628;0.165609;0;
-405.8231;0;-361.0634;-365.8553;0.2590724;11.55041;-364.7006;-355.4733;0.0521776;0.03550791;0;
-216.4478;0;-183.2273;-192.0124;0.5936047;9.194521;-173.9298;-169.1471;0.2470272;-0.02949511;0;
-167.1925;0;-133.9429;-142.2194;7.692955;11.46258;-123.5928;-120.439;0.1168443;-0.02946547;0;
355.7752;0;350.5732;376.9751;10.16347;10.31235;390.4606;394.798;-0.07817513;0.03553148;0;
696.996;0;675.5574;734.229;3.521827;14.78985;728.773;731.6069;-0.4679006;0.3603325;0;
358.9028;0;373.0928;431.0807;1.978047;16.31547;395.2705;397.4143;-0.3374958;0.1650684;0;
153.5827;0;181.564;244.1164;3.985791;13.41893;189.4766;195.7412;0.1176147;-0.2249015;0;
121.5694;0;148.0234;211.8872;3.043781;13.94131;158.1143;166.4341;0.4423333;-0.1597082;0;
-364.0587;0;-301.8993;-269.3964;-1.447256;12.25273;-319.1797;-311.5554;0.6367908;-0.09458037;0;
-709.769;0;-631.1803;-632.8179;-3.320835;11.70456;-662.5612;-653.5078;0.2463469;-0.2893874;0;
-407.4574;0;-360.6817;-367.6276;-6.666401;9.415499;-364.3575;-355.5006;-0.07873733;-0.2241292;0;
-214.8321;0;-179.785;-188.3481;-10.1433;6.659738;-169.6516;-165.9885;0.1162438;0.2308674;0;
-168.5769;0;-135.7514;-145.6177;-6.382067;14.62389;-124.3788;-123.7179;0.1810943;0.1007007;0;
364.1373;0;357.3871;382.4507;-8.116966;16.4846;399.1706;400.6429;0.3108471;-0.09430252;0;
709.2228;0;686.5499;743.3848;-5.831635;5.014198;741.4722;740.9441;0.1156327;0.230629;0;
358.7485;0;372.1428;428.983;-3.5486;2.664879;395.9005;396.0601;-0.01441817;0.1654299;0;
154.4905;0;181.1771;241.7084;-16.27106;6.145192;189.9185;195.1379;-0.07937103;-0.09460573;0;
120.4773;0;143.7013;196.5506;-16.45578;5.469187;150.8723;157.3982;-0.209226;-0.02954332;0;
-371.3341;0;-313.5258;-293.2758;-18.5827;6.33447;-332.7238;-327.1415;-0.07908104;-0.09448098;0;
-707.8542;0;-632.8626;-636.4335;-20.23897;7.600781;-661.5991;-654.3356;-0.1439689;-0.2892881;0;
-406.1067;0;-363.0495;-369.6777;-3.740585;4.378085;-364.2084;-356.5775;-0.01388958;-0.1590627;0;
-222.8531;0;-191.3958;-201.3907;0.08059026;4.306703;-180.0598;-176.4346;0.4408958;-0.09393554;0;
-172.3419;0;-140.8538;-151.2759;8.788047;9.526922;-129.4043;-127.7817;0.4404528;-0.02887381;0;
363.6244;0;355.5383;376.6108;15.00851;10.58895;396.6489;398.5197;-0.2096632;0.03612254;0;
706.8988;0;682.2042;735.6768;11.04131;13.52556;737.2664;736.6367;-0.4693219;-0.09384844;0;
365.6722;0;375.1102;432.527;14.0453;15.25341;400.4445;400.565;0.1808231;0.03618054;0;
159.9705;0;181.6428;242.5627;4.452021;12.75983;193.7084;198.8887;0.3105761;-0.2237252;0;
120.0797;0;140.5434;201.402;0.7638521;12.61305;153.0966;160.7704;-0.1445074;-0.2235004;0;
-367.296;0;-311.9954;-279.3713;5.384785;11.86356;-325.8166;-318.7751;-0.07939485;0.1015609;0;
-713.5652;0;-640.3292;-642.2205;2.297915;11.31578;-668.3794;-660.4704;0.1805543;-0.02847582;0;
-412.0619;0;-368.8845;-377.2706;5.510787;9.228058;-372.0439;-363.9555;0.1154055;0.1014875;0;
-213.8098;0;-182.7322;-192.1094;5.304179;8.548956;-172.8325;-168.6253;0.2452242;0.4911896;0;
-171.8035;0;-142.1314;-150.6246;-1.532678;7.602605;-130.4301;-128.351;0.1800105;0.3607613;0;
358.2903;0;348.265;375.2;-2.803935;6.925137;391.4387;394.3278;0.1148623;0.1654968;0;
714.626;0;687.3069;746.0739;-6.886955;10.60212;744.8051;745.5673;0.2446816;0.1653305;0;
367.6444;0;375.7726;436.2921;-9.22456;11.19431;403.0406;403.3648;-0.08040101;-0.02973765;0;
155.8813;0;178.494;242.0136;-7.33928;14.73316;190.8046;196.0635;-0.4701243;-0.2246098;0;
124.6153;0;146.1433;199.1669;-8.470982;16.92867;155.0683;162.1335;-0.2747499;0.2953546;0;
-368.5121;0;-311.4611;-290.0374;-5.046218;13.62962;-330.5935;-324.41;0.3751996;0.4249926;0;
-719.4652;0;-643.9808;-645.4423;-3.969421;14.15179;-673.9636;-665.4749;0.6346919;0.03476145;0;
-415.7071;0;-371.7203;-378.4276;-6.042513;12.86489;-374.9988;-366.4562;0.1143155;-0.09520816;0;
-220.1375;0;-188.6261;-199.4496;-5.36588;12.04817;-179.4701;-175.5587;-0.2106361;0.03482219;0;
-168.4422;0;-137.0249;-146.5882;-7.43757;15.45207;-127.1909;-125.0327;-0.1454571;0.2946566;0;
364.2719;0;357.3643;381.4188;-7.96596;16.30732;396.9859;399.3919;-0.2102783;-0.03047621;0;
704.6096;0;682.0919;738.7307;-7.689536;14.41554;735.1044;735.5715;-0.404969;0.03452175;0;
364.3848;0;376.6222;435.3281;-8.820886;14.53502;399.8464;401.25;-0.2096601;0.4242911;0;
170.0536;0;194.9599;257.6673;-5.46312;15.72598;204.7925;210.6299;0.05041998;0.2939301;0;
131.4646;0;155.971;218.1781;-4.653347;15.77716;165.6063;172.9996;-0.1445327;0.09873275;0;
-365.6677;0;-304.7668;-274.4187;-9.002928;19.51236;-323.4394;-316.3658;-0.2093548;0.03366619;0;
-710.8766;0;-634.1698;-636.6482;-9.596118;21.50212;-664.6302;-656.3769;-0.2741118;0.2285344;0;
-410.438;0;-367.6662;-373.5154;-9.452754;16.25596;-367.8612;-360.3033;-0.4687384;-0.09653196;0;
-216.9351;0;-184.1388;-192.1061;-9.576978;15.63678;-172.5896;-168.8499;-0.01349602;-0.5512064;0;
-171.8647;0;-137.4772;-146.8108;-12.51509;17.63056;-128.2509;-126.3889;0.1164522;-0.4856851;0;
356.605;0;350.1035;375.6367;-14.84607;16.34017;390.9296;392.8521;-0.1435342;-0.3552625;0;
710.4436;0;685.8327;744.0739;-5.989889;20.67752;741.7353;742.1566;-0.07842259;0.4247026;0;
366.9645;0;377.7981;437.9172;-4.175209;21.25959;403.1598;404.3928;0.05159089;0.4242759;0;
157.5759;0;181.2046;245.7611;-8.726341;15.34385;193.3599;198.902;0.1814737;-0.4207259;0;
129.4941;0;149.3509;207.3458;-7.042634;13.78795;160.9319;168.3424;0.1163241;-0.2903685;0;
-361.3893;0;-306.4451;-280.5549;-14.73872;11.69762;-322.8618;-316.2707;0.1162072;0.09972737;0;
-711.9124;0;-637.5331;-637.4684;-16.46522;9.944311;-665.6149;-657.906;0.1810578;0.2295619;0;
-407.9744;0;-364.5294;-369.5872;-10.55418;6.920209;-365.8464;-357.4582;0.1159085;0.2293312;0;
-217.1602;0;-186.8148;-194.866;-10.87836;4.702819;-174.6997;-170.1305;0.05082467;0.2940681;0;
-170.5903;0;-141.2749;-148.0061;-1.825104;6.506633;-126.9231;-125.1695;0.1807083;0.2937726;0;
358.003;0;348.9957;375.2546;2.128845;5.964231;392.1311;394.0703;-0.2092773;-0.2262613;0;
700.4085;0;675.7931;733.5723;-2.696065;6.092205;730.7542;730.9423;-0.7937731;-0.09609929;0;
367.4967;0;376.0144;435.1723;-1.286837;6.0191;403.1842;402.7475;-0.2732368;0.423736;0;
168.7272;0;186.9814;250.3902;-3.361648;5.879086;202.8171;206.3163;-0.2079949;-0.0964285;0;
126.8286;0;144.3774;208.1597;-5.03321;5.538264;160.1971;166.1291;-0.3377206;-0.1612989;0;
-358.5549;0;-305.1043;-271.496;-1.745623;6.336494;-316.5368;-310.2984;0.4422268;0.1636999;0;
-698.2737;0;-630.0093;-629.4806;-3.619879;7.401855;-653.6741;-645.0682;0.5067498;-0.03136668;0;
-407.9052;0;-370.9437;-375.4754;-1.472788;1.901939;-367.7232;-359.0635;0.1814039;-0.2912045;0;
-219.1525;0;-193.6599;-198.437;-1.002793;1.766062;-177.3242;-173.4833;0.635993;-0.4858139;0;
-173.2677;0;-147.4884;-153.4476;-14.66582;0.2906627;-131.4815;-130.6429;0.5703866;-0.4853258;0;
353.5167;0;341.9763;368.8816;-18.87064;-1.585029;387.2649;388.1651;-0.2097946;-0.1600014;0;
710.4194;0;682.2115;741.8858;-17.64623;11.41089;740.6354;740.4728;-0.5993878;-0.41971;0;
363.8169;0;371.5569;432.6079;-20.24047;14.88241;398.3754;398.5253;-0.4688509;-0.4842556;0;
147.9347;0;169.285;232.4611;-18.41147;11.45145;181.5215;186.4812;-0.2734777;0.03596967;0;
124.7351;0;144.8146;199.8064;-18.12552;13.51641;153.9153;161.1815;-0.3381703;0.1009009;0;
-360.8962;0;-303.1683;-280.4031;-19.24541;12.63205;-323.8742;-317.1776;-0.1429285;0.03583214;0;
-714.7305;0;-639.1946;-641.6896;-18.95863;14.4279;-669.5624;-661.1234;0.2470192;-0.3540079;0;
-411.1021;0;-368.3756;-373.9916;-15.12119;7.514284;-370.1648;-362.109;0.3117383;-0.6784889;0;
-212.4137;0;-181.7241;-188.4589;-13.56575;4.492501;-171.2051;-167.7177;-0.07837895;-0.09310109;0;
-170.2838;0;-139.0004;-144.6664;-13.68584;16.20976;-128.1796;-126.1325;-0.3381696;-0.1579749;0;
353.7489;0;345.7707;373.2812;-12.39929;16.52838;385.6909;389.5476;-0.2078951;-0.09284881;0;
703.7798;0;677.5063;736.8481;-14.93243;17.51652;731.6918;733.733;0.1171505;0.4269832;0;
366.8042;0;374.6024;433.0101;-15.45329;18.03478;398.9359;399.9131;0.3119348;0.2316522;0;
169.3472;0;190.6933;253.3526;-13.7638;11.25151;200.697;205.7962;-0.14315;0.03651737;0;
132.6954;0;154.5198;217.9907;-13.61527;9.096869;165.4505;172.2312;-0.4028755;-0.4182907;0;
-364.0633;0;-306.4663;-274.9182;-14.94174;1.451796;-322.7205;-316.6962;-0.07763401;-0.7427071;0;
-702.777;0;-628.1216;-630.1508;-15.79738;-3.305329;-658.2899;-651.0223;0.1823134;-0.4171241;0;
-404.9702;0;-360.9994;-368.2739;-13.77177;-2.833127;-364.7756;-357.5778;0.3120649;0.1680011;0;
-217.9071;0;-185.7246;-194.3661;-14.56222;-4.571836;-177.1907;-173.5608;0.3117513;0.297767;0;
-166.8387;0;-134.3762;-143.4463;-13.67693;-8.385148;-125.3511;-124.4735;0.3764054;-0.0923363;0;
357.0032;0;351.3897;376.1242;-13.52849;-8.644654;390.703;392.2044;0.2460925;-0.1572109;0;
706.9059;0;683.7444;741.3126;-21.15071;-7.296309;737.3235;737.7614;-0.0789915;-0.1570529;0;
368.9276;0;380.3346;439.8438;-24.21091;-6.619148;404.562;404.3123;0.1809572;-0.09192775;0;
158.6;0;182.4267;243.8752;-19.76595;3.70263;192.4494;196.6977;0.2457428;0.2979687;0;
133.2658;0;154.195;207.086;-18.80809;7.985695;162.5835;169.0139;0.3104632;0.3626366;0;
-354.1857;0;-297.1082;-274.4427;-28.43473;11.12575;-316.0269;-310.4775;0.6349879;-0.02753182;0;
-714.0862;0;-638.7628;-639.2958;-30.21482;16.0042;-667.2202;-659.8647;0.2445458;0.03746318;0;
-413.7068;0;-371.38;-374.9735;-24.55741;9.624862;-370.9483;-363.5378;0.1143654;-0.09250914;0;
-211.6425;0;-181.4771;-189.0025;-25.00222;9.012466;-169.6766;-166.3964;0.2441852;-0.2223509;0;
-167.8892;0;-136.13;-145.1471;-12.78596;15.09861;-125.0909;-124.3753;-0.08089686;-0.3520621;0;
353.6424;0;346.0145;371.2393;-7.013317;15.15043;387.902;388.8668;-0.2107503;-0.2217737;0;
700.7374;0;674.1892;733.3091;-14.37366;14.93425;731.9016;730.7415;-0.2105385;0.1032859;0;
361.0162;0;368.1653;427.9129;-10.87659;15.45511;396.9592;394.7383;-0.1453596;0.2331168;0;
159.9419;0;179.2027;243.1381;-17.76454;10.41598;194.4119;196.1288;-0.1452135;0.3628172;0;
129.4214;0;148.9127;213.8459;-20.7608;9.735688;163.2946;166.6964;-0.1450676;0.42742;0;
-358.7758;0;-302.1353;-267.6271;-2.052068;7.314642;-316.0036;-312.9176;0.1799148;-0.1577156;0;
-703.242;0;-631.6659;-630.2383;0.9641044;4.895907;-657.8266;-651.9326;0.04979938;-0.2874918;0;
-406.0594;0;-367.2263;-371.8596;-1.716182;15.47405;-366.1244;-360.1114;-0.4050221;0.1026012;0;
-213.8728;0;-186.1981;-194.2625;0.2952747;17.86988;-172.4162;-171.1569;-0.2746804;-0.287306;0;
-165.1822;0;-137.0981;-146.1539;-6.939667;14.30183;-123.5175;-124.2584;-0.01453504;-0.2870173;0;
360.9069;0;350.732;376.3554;-9.076147;15.62712;393.4094;393.7936;-0.5342591;0.1680425;0;
709.7437;0;682.6501;740.7938;-10.13875;13.73602;738.9027;737.2876;-0.7286243;-0.1569631;0;
365.3283;0;373.8065;434.2657;-13.07533;13.52127;400.1427;398.0294;-0.1431862;-0.3517074;0;
155.1917;0;176.7173;241.1137;-13.59805;15.58403;188.9716;191.9204;-0.07807495;-0.09148463;0;
130.8604;0;151.115;207.888;-15.79519;16.43915;160.1086;165.928;-0.2728985;0.1035093;0;
-350.7166;0;-293.4384;-268.1442;-14.43918;14.48013;-313.7517;-307.3759;-0.07772229;0.1683727;0;
-699.2513;0;-624.7269;-623.2586;-13.35294;14.0638;-654.8273;-645.9592;0.3121599;-0.2216006;0;
-400.6984;0;-359.4197;-361.4511;-21.64492;18.33646;-360.317;-352.3949;0.6366829;-0.5462146;0;
-211.5157;0;-182.8346;-189.4867;-23.49918;19.12183;-170.1754;-167.8833;0.4411411;-0.2857964;0;
-169.3867;0;-140.2972;-148.0046;-14.76803;20.04025;-127.3384;-127.6723;0.1158612;-0.09060722;0;
360.3923;0;351.9714;378.692;-12.67709;20.68995;393.4029;394.5685;-0.07915727;-0.1554835;0;
711.541;0;685.7623;746.2515;-13.535;19.39648;740.8328;740.9353;-0.01411039;-0.2202946;0;
369.8099;0;377.3529;437.9063;-12.5834;19.17604;402.0708;401.6735;0.3107405;-0.350008;0;
166.6028;0;188.0062;251.4973;-7.413192;15.67378;197.4569;201.1205;-0.07937579;-0.2197216;0;
134.8887;0;155.7084;220.8223;-4.994845;13.84962;166.399;172.2453;-0.4691001;-0.08956613;0;
-356.4374;0;-299.7816;-265.4677;-6.797512;14.77334;-316.1507;-310.8725;-0.338694;0.04045855;0;
-703.2173;0;-629.3771;-629.0806;-4.312435;14.69151;-659.5353;-653.5128;-0.208419;0.1053853;0;
-407.3465;0;-365.4396;-370.5781;-9.867807;10.18902;-367.9563;-362.1897;0.05165974;-0.5443941;0;
-216.4705;0;-187.1618;-194.544;-9.857892;8.906101;-176.3702;-174.2326;-0.0133595;-0.4139124;0;
-165.1537;0;-136.9989;-143.9989;-6.365362;13.11708;-125.9682;-125.2071;-0.07831343;0.1062423;0;
366.4327;0;354.7667;383.5682;-7.028552;13.43881;396.3334;397.656;-0.2081694;-0.2187012;0;
713.8271;0;685.3064;746.9999;6.508819;15.36769;740.5744;739.6468;0.05190912;-0.08854676;0;
369.1578;0;376.2103;440.1532;9.851182;15.5532;401.2505;400.6361;0.3766937;-0.2183925;0;
162.5156;0;182.0547;248.6195;11.51622;17.34611;193.3891;198.46;0.1814131;-0.7379118;0;
128.6817;0;145.64;203.2673;16.19272;17.6636;154.7766;162.9658;0.1162635;-0.1524642;0;
-362.5757;0;-310.4022;-283.2549;0.3689695;11.14862;-328.9484;-321.2047;0.05117935;0.3674277;0;
-713.16;0;-643.2354;-639.8535;-2.711884;8.726036;-671.4455;-662.2728;-0.2737088;0.4320258;0;
-412.4067;0;-373.3494;-375.718;0.4386727;5.97109;-374.4198;-364.8815;-0.4033684;-0.02317965;0;
-212.4677;0;-184.6939;-190.121;-2.844298;4.089568;-173.9567;-168.6133;-0.4029631;-0.153091;0;
-168.9634;0;-139.6558;-143.9531;5.263861;-2.210692;-128.742;-126.0902;-0.4675256;0.4967362;0;
358.9411;0;349.9885;378.3665;6.798813;-5.222703;391.1886;393.2755;-0.07725175;0.04146569;0;
716.1507;0;688.404;750.2993;0.2278984;-0.662738;744.93;744.6411;0.3775972;-0.4783147;0;
370.417;0;376.3688;439.5761;-0.9104304;-0.8630208;401.9785;402.8767;0.5071526;-0.08803005;0;
162.2743;0;180.1516;247.4183;-0.3072792;3.089839;191.9924;198.6369;0.4416756;0.04199309;0;
138.9353;0;155.9826;225.3057;-3.052661;4.62722;169.873;177.8851;0.1813624;0.04195089;0;
-352.5822;0;-298.8831;-261.4261;0.7004748;5.024468;-312.6802;-306.2379;0.05124552;0.2368108;0;
-708.8612;0;-638.7243;-636.2874;0.4323273;5.890198;-666.7504;-658.2531;0.1811287;0.3015402;0;
-412.61;0;-373.7778;-376.4034;-8.94523;4.07574;-375.3515;-366.5504;-0.01395531;0.2362698;0;
-218.4803;0;-191.9935;-196.9277;-9.472105;3.73673;-180.0724;-175.528;-0.338778;0.2360324;0;
-163.9131;0;-138.5148;-144.3811;-23.32769;-1.089674;-126.106;-123.5651;-0.403405;0.04089323;0;
367.8594;0;354.2517;384.0609;-28.86395;-3.164928;396.8829;399.5461;-0.2080976;0.1058195;0;
711.7542;0;679.8569;743.2443;-12.22318;-4.36744;738.2499;738.4741;0.05198089;0.3006152;0;
370.4603;0;372.7029;437.9005;-9.465212;-5.501762;402.2391;402.0883;0.1818634;0.04044376;0;
170.126;0;185.9221;253.4905;-8.250253;-6.09908;201.1858;205.5329;-0.1431561;0.2353052;0;
135.9097;0;151.5025;210.9446;-5.093155;-6.226917;164.1271;170.5938;-0.01307757;0.4299707;0;
-354.5429;0;-301.9844;-273.7114;-1.069549;-2.469616;-318.4203;-312.3974;0.441707;0.104702;0;
-698.5135;0;-629.5787;-627.196;0.6728377;-0.9266495;-655.8056;-648.1021;-0.01350826;0.2345315;0;
-405.9584;0;-369.7638;-372.1937;5.227489;2.557394;-367.1039;-359.3457;-0.1434294;0.3642305;0;
-214.6465;0;-188.4832;-193.4719;8.637512;4.430224;-174.3942;-171.204;-0.2082526;-0.2858089;0;
-164.8932;0;-137.3819;-142.3031;-8.3841;7.440005;-123.9943;-123.1186;-0.4029454;-0.6103584;0;
358.9468;0;347.7623;375.3298;-12.99738;9.843793;390.2469;391.9338;-0.1426711;-0.1549737;0;
714.1573;0;686.43;747.2031;-7.157167;6.08298;742.615;742.4886;-0.2074951;0.2999534;0;
373.1108;0;380.5187;442.4176;-8.757565;6.679714;405.6628;405.9738;-0.467156;0.494554;0;
159.843;0;178.925;244.5098;-9.886866;3.190011;190.2383;195.1716;-0.2068172;0.3641224;0;
135.3821;0;150.5719;218.2772;-10.27907;1.713181;164.8098;171.9246;0.1182273;0.3637565;0;
-352.8211;0;-302.6642;-265.0118;-8.794876;6.065228;-315.427;-308.6317;0.2480432;0.2984237;0;
-709.0999;0;-640.2527;-637.1833;-9.188181;6.059134;-668.0577;-660.0198;0.05289194;-0.2865823;0;
-408.5381;0;-369.1204;-371.9886;-2.011652;7.861585;-371.7225;-363.4428;-0.4019326;-0.416229;0;
-214.225;0;-185.7789;-189.5813;0.4012664;7.920669;-176.8842;-172.4859;0.11821;-0.09097406;0;
-173.1553;0;-145.425;-149.5359;-4.622979;11.19475;-135.9145;-134.2693;0.5728626;0.1040194;0;
356.6899;0;343.6004;372.9144;-3.81405;12.79109;384.8354;387.4785;-0.1423538;0.03894752;0;
709.8413;0;678.649;739.7925;-13.79055;5.812138;734.0854;735.2266;-0.4670474;-0.415863;0;
364.4888;0;369.8096;432.8906;-19.06798;4.734571;394.2682;395.0335;-0.4665781;-0.4804125;0;
159.288;0;178.0967;243.4256;-7.260802;2.586482;188.7877;194.4247;-0.5310767;0.2996784;0;
125.7073;0;142.9353;200.6399;-6.717643;0.5074122;151.804;160.059;-0.140739;0.5592466;0;
-368.6706;0;-312.417;-284.3805;-14.14563;1.042766;-333.9794;-325.6702;-0.2055649;0.3637826;0;
-714.2513;0;-637.9393;-634.7935;-14.59993;-1.302685;-671.0992;-661.2991;-0.07542367;0.1035477;0;
-412.8097;0;-369.8702;-370.6006;-17.80044;7.138352;-373.9489;-364.7209;0.3144562;-0.09145835;0;
-216.4934;0;-187.6525;-189.569;-18.85428;10.14529;-179.6082;-174.5123;0.3791075;-0.2213011;0;
-169.6118;0;-142.1742;-144.5885;-15.28537;-0.5819301;-133.8881;-130.7964;0.1838246;-0.5459155;0;
358.8555;0;346.0358;374.6083;-13.79614;-0.5813454;385.9227;389.5735;0.05370519;-0.2205302;0;
717.1896;0;685.1425;746.2324;-13.51483;-2.590127;741.481;743.5665;-0.01131611;0.1694954;0;
369.456;0;371.3615;434.0142;-12.16111;-4.663996;398.2831;400.8037;-0.07627209;-0.220479;0;
154.5676;0;170.6515;237.9264;-5.451082;5.990733;181.8665;188.6949;0.2486413;-0.6100615;0;
140.3568;0;153.1138;222.445;-2.364146;8.262134;166.5039;174.2;0.4432935;-0.4145465;0;
-341.5421;0;-294.3153;-255.8507;-0.3530144;5.507531;-306.8631;-299.9868;0.1829787;-0.02432586;0;
-705.9531;0;-637.5969;-633.841;2.997219;5.501997;-666.0615;-656.9432;-0.2719766;0.3655027;0;
-410.6418;0;-372.1518;-373.3972;0.3812629;9.448339;-374.2261;-364.7422;-0.3366706;0.300168;0;
-210.5795;0;-184.6219;-187.8026;1.386234;10.51057;-173.8256;-168.2868;0.1834064;0.03999706;0;
-168.5764;0;-141.3331;-146.6345;1.049072;2.797219;-130.9849;-128.2627;0.3781241;-0.02501047;0;
355.3297;0;344.8146;373.3141;-0.5585962;0.9188859;384.9499;387.7319;-0.1419946;0.039982;0;
709.5444;0;680.9241;743.4402;8.082153;-2.698994;735.012;736.4793;0.05305014;0.2348439;0;
366.3786;0;371.645;436.5971;9.413203;-5.911462;397.5052;398.6587;0.3128662;0.1046732;0;
155.8036;0;175.0577;242.4433;4.313529;-3.092239;186.6491;192.1118;-0.07725222;-0.5451054;0;
121.6642;0;140.3366;199.9084;3.907054;-4.026894;148.668;156.3116;-0.0771746;-0.6744924;0;
-365.3383;0;-312.5143;-283.2997;-2.459885;-2.013359;-330.3657;-323.6667;0.2477397;-0.2840106;0;
-710.3602;0;-641.035;-635.9626;-6.409528;-0.06895316;-668.1762;-659.7974;-0.07734598;-0.4136599;0;
-417.5432;0;-379.4596;-379.5147;0.8979301;-4.355669;-379.2122;-371.0917;-0.4670723;-0.6731136;0;
-222.0342;0;-196.7949;-199.4112;2.705689;-3.681464;-183.1796;-180.4395;-0.07679895;-0.4775352;0;
-168.8377;0;-143.0616;-144.8006;-10.29147;0.80997;-129.8972;-129.034;0.4430169;-0.3471207;0;
355.0062;0;343.5876;374.209;-12.29087;2.818644;384.3499;386.774;0.2476698;-0.02193522;0;
705.2857;0;676.9496;740.1489;-6.45039;6.432768;732.1637;732.3365;0.1824536;0.3678909;0;
359.0008;0;366.1129;428.9987;-7.11447;9.038517;391.2865;390.3971;0.1173029;0.3025539;0;
146.0594;0;165.5331;232.1039;3.811018;11.9097;176.5635;179.8605;-0.07771698;0.1073479;0;
129.8582;0;145.5642;214.8792;7.022369;14.309;159.2697;165.0621;-0.01267155;-0.2825641;0;
-353.0921;0;-301.5449;-263.2215;7.417455;14.56255;-315.0894;-309.8651;-0.5323976;-0.1523455;0;
-713.431;0;-642.0706;-638.9555;11.42849;15.48568;-671.3436;-664.5004;-0.6617973;0.1726443;0;
-408.4921;0;-367.3132;-368.6365;-1.041575;15.939;-370.5699;-363.1713;-0.2713282;0.4323402;0;
-204.1216;0;-176.3524;-177.4245;-3.586124;16.12393;-165.2381;-162.0947;-0.5958923;0.3669385;0;
-167.185;0;-140.818;-143.1384;-2.175025;13.96428;-128.0906;-127.3867;-0.2704569;-0.0232343;0;
355.0331;0;341.7685;372.5588;-6.459747;12.54373;385.4051;386.7329;-0.1402504;-0.0881783;0;
710.5599;0;677.4437;740.6242;3.392381;13.13397;736.9034;736.5433;-0.4649462;0.04184499;0;
362.5206;0;364.6074;429.536;3.791114;11.78111;392.7106;392.7256;-0.07467498;0.04180294;0;
152.1993;0;169.339;237.4508;-0.4996033;11.36738;181.3595;186.1847;0.05533474;-0.02320641;0;
127.059;0;141.995;202.2298;1.845423;10.55216;153.1289;160.0106;-0.009688201;-0.08815043;0;
-353.5772;0;-302.9865;-272.4849;-14.70085;9.536815;-319.1626;-312.7251;0.2501909;-0.02309451;0;
-697.6113;0;-629.3929;-626.8453;-18.1687;9.92913;-658.0464;-649.304;0.1849722;0.04189603;0;
-413.8026;0;-375.8876;-383.7749;-9.376536;4.76159;-380.0871;-371.2285;0.119819;0.1068213;0;
-223.9196;0;-196.5373;-203.2298;-9.299766;3.819044;-186.9271;-182.8875;0.2496333;0.1716813;0;
-161.0386;0;-134.2461;-137.3711;0.6225649;6.561507;-121.9593;-120.5475;0.1194477;0.0415741;0;
365.1713;0;352.7691;380.7566;4.239262;5.885084;393.6541;394.7522;0.05436037;-0.2833044;0;
707.0074;0;677.7511;739.381;8.923076;14.31878;732.588;731.7484;0.3141751;0.1067843;0;
366.2179;0;372.1609;435.4155;12.39771;17.11767;397.5199;396.8062;0.2488921;0.1716444;0;
157.2673;0;176.6975;244.0115;9.504865;14.48814;187.6633;191.448;0.1187073;-0.6081362;0;
127.9989;0;146.41;215.2806;9.294243;16.28212;157.8646;164.3316;-0.01134664;-0.2826884;0;
-353.2629;0;-299.2007;-261.0714;4.596831;11.17518;-315.3687;-309.5954;-0.01133524;0.367269;0;
-707.6671;0;-635.5433;-632.5597;2.247687;9.82429;-666.1878;-658.8586;-0.07629119;0.171998;0;
-412.0417;0;-370.7874;-373.0542;-5.591452;13.09658;-375.0395;-366.843;-0.1411819;0.2367925;0;
-207.7302;0;-179.6358;-181.8378;-9.135807;13.21739;-170.9525;-166.5124;0.05386201;0.4314566;0;
-171.7895;0;-144.2855;-147.9845;-10.93529;12.53428;-135.6734;-133.8614;-0.2710288;0.3010884;0;
344.936;0;334.3065;362.7825;-12.73296;12.72263;372.645;375.2672;-0.4006912;0.1708512;0;
711.7798;0;682.5454;743.0392;-11.64844;13.84844;736.2126;737.0831;0.05448284;-0.02422254;0;
368.6743;0;372.5775;434.2599;-14.18233;13.63357;397.5802;397.2005;0.1193954;-0.08916555;0;
151.2879;0;168.3057;232.8621;6.462173;18.17471;177.9784;182.2842;-0.07562656;0.04085873;0;
132.2704;0;146.8972;206.7036;13.69032;19.76392;155.5608;162.9856;-0.2054853;-0.1540843;0;
-351.5569;0;-301.3376;-271.7012;-2.399335;15.52426;-319.0446;-312.002;0.05459059;-0.2838642;0;
-710.2107;0;-639.927;-638.7435;-1.592641;15.17375;-670.9219;-662.1373;0.4443398;-0.02370961;0;
-419.8302;0;-380.1643;-384.1669;-5.744226;13.28298;-384.9537;-376.1154;0.2489913;-0.08865312;0;
-222.7572;0;-197.6863;-202.6219;-8.752564;12.13104;-187.2911;-182.1473;0.3786758;-0.08856405;0;
-168.5605;0;-144.7642;-149.8198;-2.782899;13.19046;-133.4424;-129.3033;0.2483606;-0.02350772;0;
357.1572;0;344.1356;372.2559;-3.047546;13.51212;383.1821;387.6294;-0.336595;-0.1534188;0;
708.3716;0;681.1827;741.9459;-3.245555;10.41745;732.5588;734.253;-0.01142011;-0.02332994;0;
369.3299;0;377.2757;438.2276;-3.108572;9.335254;398.1779;400.2452;0.3783954;0.4314649;0;
161.2507;0;178.9961;244.8843;-0.6935747;16.42594;189.1327;196.1954;-0.01178885;0.4959987;0;
133.4776;0;148.0192;217.5268;1.048434;17.88306;162.2686;171.3232;-0.401581;0.430533;0;
-354.5363;0;-303.3402;-264.1372;-1.833007;17.4632;-317.1536;-309.4824;-0.3362102;0.4301004;0;
-708.1272;0;-637.6172;-634.1857;-1.362651;18.51725;-667.3462;-658.4333;0.05393168;0.2347662;0;
-407.5664;0;-366.9248;-369.1189;-3.370038;15.81945;-371.0742;-362.5451;0.3787142;0.1045956;0;
-209.2563;0;-181.0868;-184.8404;-5.844898;15.13373;-172.1137;-169.0904;-0.01147039;-0.2203462;0;
-169.5659;0;-142.6116;-148.2355;5.078339;12.70726;-132.5856;-132.6263;-0.5961649;-0.3500595;0;
355.3407;0;341.5384;370.7776;7.417761;10.35009;382.9761;383.6851;-0.2707292;-0.02487103;0;
715.5524;0;683.2733;746.7159;-3.038542;13.68871;739.7867;738.6834;-0.01058781;0.2999907;0;
372.8178;0;375.7409;439.3073;-4.643079;14.34479;401.5255;399.7361;-0.3354139;0.3646566;0;
157.9261;0;174.4019;239.2787;-7.451453;5.622835;185.2931;187.2536;-0.2051422;0.2993228;0;
133.717;0;148.4271;208.3037;-11.26236;3.205799;158.1205;162.7652;0.3148027;0.2340547;0;
-347.4256;0;-299.0597;-268.7909;-6.561993;7.958244;-315.4255;-311.4726;0.249519;-0.1559845;0;
-700.149;0;-634.6528;-631.3384;-7.02489;7.012609;-661.3095;-656.7984;-0.01060105;-0.3507298;0;
-404.094;0;-368.6485;-371.8342;-13.17977;12.02916;-369.2915;-365.597;-0.2704598;0.2343287;0;
-210.9723;0;-187.9937;-194.8618;-14.17091;14.09342;-176.0174;-177.2616;-0.2052207;0.1691259;0;
-166.3452;0;-143.4521;-149.5637;-16.36747;7.983936;-131.113;-134.1676;-0.07507977;-0.2858154;0;
359.4328;0;345.5088;372.012;-17.08796;7.908931;384.4472;382.77;-0.1399717;-0.3504956;0;
708.8333;0;677.3697;737.3293;-14.72626;6.293516;730.949;727.0871;0.1850057;-0.2851761;0;
368.4168;0;369.1561;433.1785;-13.50602;5.483397;396.3199;392.1495;0.0548851;0.1049145;0;
160.526;0;173.8832;241.152;-11.81751;7.688324;186.5269;187.7955;0.1847646;0.2997111;0;
131.1918;0;143.5361;210.3626;-10.66656;8.283323;156.8543;161.1201;0.2495463;-0.3502634;0;
-348.5739;0;-301.0722;-264.1729;-5.230834;7.940085;-313.6294;-309.9301;-0.1405085;-0.1550095;0;
-698.4226;0;-632.7278;-629.2238;-3.550638;7.865124;-659.5777;-654.6952;0.1195021;0.4948197;0;
-408.4912;0;-373.7219;-375.2189;-2.676415;12.81396;-373.9332;-369.1181;0.05441466;0.4293552;0;
-213.5536;0;-192.8121;-196.4316;-2.137862;13.67174;-178.1557;-177.156;-0.2055094;0.2989891;0;
-167.6744;0;-147.8284;-153.1933;-4.88238;14.32783;-132.687;-133.3749;-0.1403355;-0.02614806;0;
361.2283;0;343.011;371.9467;-5.212267;15.31818;387.6224;387.1225;-0.2701292;-0.2859912;0;
720.9343;0;685.9937;747.9463;-14.31671;9.609359;744.3034;742.1174;-0.2048904;-0.1557691;0;
369.2613;0;371.8995;434.6019;-17.78495;8.394011;398.1042;396.7325;-0.07474989;-0.1556126;0;
149.3132;0;164.6923;230.4551;-16.62898;4.969569;176.8152;180.6922;-0.2046095;-0.02552155;0;
132.2966;0;143.1625;205.2986;-18.8221;2.486329;155.5232;161.5202;-0.2693712;-0.0254959;0;
-346.4083;0;-299.1341;-268.2948;-12.97603;5.564923;-315.1466;-310.0301;0.2506382;-0.2853397;0;
-706.8163;0;-641.2864;-639.9633;-10.88689;4.956485;-668.9644;-662.104;0.4452884;-0.3500203;0;
-410.7546;0;-377.3993;-379.5758;-14.62602;5.487369;-376.9387;-369.8977;0.1200042;-0.02483187;0;
-214.1905;0;-192.9876;-196.0989;-14.74602;5.280906;-179.0967;-176.3732;0.05491631;0.2350625;0;
-175.7445;0;-154.8753;-158.7955;-5.085661;6.079395;-140.9359;-139.8392;0.1198285;0.1048916;0;
352.9789;0;334.7843;363.8514;-0.9947146;5.671389;377.008;379.0406;-0.1401613;0.1047862;0;
710.1945;0;674.0897;737.5478;-8.696875;4.861895;730.4513;730.7952;-0.01008578;0.494485;0;
365.0291;0;363.4431;428.1494;-7.883852;4.656061;389.9507;390.7314;0.0548917;0.3640534;0;
154.3305;0;166.1769;233.6292;-7.875931;-1.176011;178.0401;183.8176;-0.2050328;0.03885088;0;
128.251;0;138.7737;207.4075;-8.939744;-2.514488;151.9992;159.7699;-0.07489213;0.1687465;0;
-357.134;0;-309.3906;-271.6227;-2.232956;-5.593054;-324.664;-317.2759;0.2500198;0.558381;0;
-712.5338;0;-643.4741;-640.3518;-2.163363;-7.195024;-675.4113;-666.7188;-0.07506809;0.2979506;0;
-414.4673;0;-376.9612;-378.3398;1.321435;-3.637699;-381.6924;-373.321;-0.4647967;-0.2870549;0;
-214.0889;0;-191.363;-193.9896;2.525556;-3.232147;-181.4718;-177.3567;-0.139493;-0.2217991;0;
-166.71;0;-143.3823;-148.4424;-3.638924;3.402167;-133.1262;-131.389;0.1205166;-0.2865436;0;
362.0044;0;346.4532;375.5059;-4.103782;6.881861;387.7458;389.9185;-0.009539225;-0.2212883;0;
711.902;0;679.6249;741.507;-9.860435;6.807963;735.0565;734.7282;0.0554377;0.03880341;0;
362.9243;0;368.6605;431.5423;-10.8549;9.882215;392.1773;391.9744;0.3152514;0.03876442;0;
151.2908;0;171.514;239.2676;-15.19825;8.197713;180.0772;184.5596;0.2499673;0.1686602;0;
126.5886;0;143.6056;206.0438;-17.99602;8.792322;152.1602;157.2628;0.05481406;0.4283601;0;
-352.7352;0;-302.4396;-271.2984;-5.786802;13.7401;-319.3183;-315.1579;0.249661;-0.1567764;0;
-708.5767;0;-640.4656;-635.78;-4.843958;15.06596;-667.947;-661.7293;0.1844428;-0.2865536;0;
-415.6366;0;-379.0782;-379.832;5.274966;15.31875;-379.2332;-373.5215;-0.2055466;0.2984404;0;
-209.26;0;-188.5428;-190.9825;11.03044;16.24112;-173.5178;-172.3096;-0.1403727;0.1032385;0;
-167.1333;0;-146.8743;-149.7488;-1.10443;12.87565;-130.8024;-132.4064;-0.01029696;-0.2866693;0;
351.8988;0;336.0931;364.8931;-0.2990375;10.51843;379.5101;378.0326;0.05468072;-0.0914792;0;
715.1125;0;681.9564;745.2101;-7.599755;18.47859;739.4477;735.7853;-0.0753089;0.1684821;0;
371.4413;0;372.8012;436.8659;-11.7453;19.7327;400.7495;396.4037;0.05470145;0.1033455;0;
155.3015;0;170.2158;235.8403;-4.165041;10.20154;182.9561;183.4872;0.4444505;-0.09166042;0;
137.9042;0;151.1792;217.9872;-6.169612;8.516713;164.0942;167.4982;0.2491019;0.1033337;0;
-340.6189;0;-291.3128;-252.3081;1.137605;6.431807;-304.5852;-301.1846;0.1189169;0.1681972;0;
-696.66;0;-629.2876;-623.3055;4.284294;4.28189;-655.2277;-650.3937;0.1837648;0.03809353;0;
-405.9183;0;-370.2852;-371.1181;-7.039517;7.693595;-369.5876;-365.4456;-0.01132188;-0.02691209;0;
-216.5429;0;-193.1894;-195.8956;-7.836727;8.623626;-179.8739;-180.1714;0.2485589;0.1030497;0;
-169.5988;0;-145.9564;-149.0347;-10.57454;8.213063;-132.9042;-135.3878;0.3782438;0.1679135;0;
362.9915;0;348.4418;378.9122;-14.38231;10.01335;390.6537;388.7974;-0.01194031;0.03781003;0;
715.3244;0;683.7979;746.0343;-4.12008;11.142;740.1478;736.4193;-0.141863;0.03777204;0;
374.3392;0;375.5154;438.5014;-2.976865;12.13555;403.5729;399.7232;0.1181489;0.3625708;0;
166.255;0;178.1122;244.3456;-9.671679;18.8214;192.5233;193.8623;0.1180302;0.2322718;0;
135.4783;0;145.2621;206.1192;-9.93038;20.20913;157.285;161.4337;-0.2069251;-0.0927983;0;
-349.6016;0;-303.6583;-273.1596;-13.20196;23.26992;-319.2586;-315.9261;-0.01181517;-0.2226397;0;
-704.5717;0;-638.9344;-634.5159;-13.72455;24.92111;-666.763;-661.8096;0.2480661;-0.09248134;0;
-412.1354;0;-376.9238;-377.1324;-17.7966;16.45646;-378.4876;-373.4768;0.3777515;0.03754626;0;
-214.0706;0;-192.2627;-196.3441;-20.86018;14.49742;-179.3322;-179.074;0.4423393;-0.2223608;0;
-168.5658;0;-147.0297;-152.6062;-6.974115;7.717702;-132.8628;-134.6039;-0.2077786;-0.09220272;0;
358.8386;0;340.748;370.0345;-2.881271;2.686349;385.2604;384.0208;-0.3375045;0.2327266;0;
719.609;0;683.0458;747.2229;-12.32285;6.836592;742.9433;738.9563;0.05263866;-0.02737658;0;
376.0583;0;375.014;438.3145;-12.24312;5.289115;403.3046;398.8844;-0.01238157;-0.2222511;0;
158.602;0;170.4898;236.2254;-7.877534;2.671466;183.7595;183.779;0.05259821;-0.3519624;0;
137.7031;0;147.8923;216.1231;-7.400128;1.731143;163.1476;165.4784;-0.07738932;-0.2866414;0;
-343.0687;0;-297.0328;-258.1058;-5.249238;1.528455;-309.029;-306.3258;0.1825578;0.03848327;0;
-704.2922;0;-640.7489;-636.9059;-3.837445;1.058038;-667.2258;-663.1509;0.5721784;-0.1564574;0;
-409.6073;0;-377.4246;-379.7074;-8.589987;3.736171;-377.2633;-373.0676;0.05186476;-0.2862349;0;
-211.67;0;-192.1383;-194.6062;-10.05425;5.607938;-179.5459;-177.9781;-0.2730241;-0.09104527;0;
-165.1057;0;-146.2182;-149.0585;-6.963663;-0.1581066;-133.6385;-133.509;0.05208698;-0.2208885;0;
361.733;0;342.1208;372.2043;-8.028393;-0.6268283;384.6728;384.9896;0.05203464;-0.1556992;0;
711.9433;0;675.4843;737.1467;-6.680179;4.799297;731.8616;729.3669;-0.1429197;-0.09057539;0;
374.4597;0;372.7699;436.2444;-6.137603;6.73698;399.7303;397.3006;-0.2727107;-0.02551703;0;
167.2499;0;180.3668;246.0889;-13.29873;5.457535;191.5581;194.6281;-0.5972734;0.234378;0;
133.2239;0;145.7654;203.9877;-14.69189;5.920931;153.6346;158.1382;-0.5317059;0.03924044;0;
-347.1685;0;-301.9061;-272.2905;-14.34233;15.29235;-318.7824;-314.908;-0.01143295;-0.09073367;0;
-694.1451;0;-634.373;-629.2123;-14.46164;19.69773;-658.4787;-652.6091;0.05354588;-0.02567516;0;
-401.7193;0;-372.1795;-372.8336;-12.90687;14.45339;-370.7114;-364.9102;0.1184594;-0.2205514;0;
-206.9134;0;-186.0864;-190.4255;-11.62111;16.38138;-174.8746;-173.0148;0.1183404;-0.2852971;0;
-166.3507;0;-144.7951;-149.6921;-8.193176;16.03;-133.2822;-134.0479;-0.2715826;-0.1550758;0;
359.927;0;341.9808;370.7593;-6.376283;15.00915;383.2171;383.2018;-0.2063423;-0.02498526;0;
723.5698;0;687.2759;749.6961;-0.4753778;24.9073;743.5258;742.6984;-0.1411677;0.4298112;0;
373.331;0;372.6806;436.1625;2.069719;26.15495;398.889;397.0005;-0.2709605;0.2994447;0;
154.0659;0;166.9094;235.0127;1.866569;26.26263;178.6612;181.3348;0.1840831;-0.3505296;0;
146.04;0;154.6853;224.5941;2.668977;27.37496;169.6112;175.7178;0.2488655;-0.1552754;0;
