Fp1;Fp2;O1;O2;POLY3;POLY4;A1;A2;Video;Audio;event;
-298.2366;0;-257.9177;-267.0683;7.953752;-9.02407;-298.4056;-297.7899;0.1720335;0.2839073;0;12:43:12 Глаза закрыты;
-673.8729;0;-613.3548;-656.8538;1.582747;-2.785833;-669.6066;-667.0549;-0.02304136;0.1536873;0;
-399.8957;0;-369.4857;-416.0021;0.8442229;-1.77829;-399.4442;-396.4579;-0.08798555;0.08856557;0;
-187.4755;0;-170.9016;-217.5586;2.383616;-4.857596;-186.837;-188.0391;0.1070049;0.2184113;0;
-166.9223;0;-148.4911;-197.6624;0.1713942;-4.115903;-165.5349;-169.297;-0.02303732;0.1532245;0;
328.4965;0;311.0522;292.4774;10.82114;-2.906197;321.8865;319.1277;-0.1529489;0.0231358;0;
716.4712;0;678.9296;693.1695;12.88637;-2.099481;706.3072;702.2393;0.04210685;0.2829819;0;
390.2274;0;385.2072;400.5573;5.371337;0.7159115;384.6963;379.2582;-0.08787014;0.3476649;0;
164.7609;0;173.0516;190.8849;5.299567;1.85378;157.4238;156.1766;-0.02281451;0.2823482;0;
169.343;0;172.5654;192.5672;-3.815437;2.58873;160.2641;162.1416;0.3670125;0.4769666;0;
-289.1593;0;-253.3315;-262.7725;-7.629996;2.921043;-290.2955;-288.9822;0.236709;0.4764873;0;
-676.299;0;-621.017;-663.8692;-5.478876;3.052074;-673.0613;-670.1876;-0.02339821;0.2811065;0;
-398.8835;0;-374.3292;-420.2618;-7.616824;3.11599;-399.7095;-396.5888;-0.0233747;-0.04401266;0;
-192.024;0;-179.9256;-227.7486;-5.331019;0.5676296;-192.0371;-193.3548;-0.2832206;0.2808683;0;
-177.5258;0;-162.5035;-213.8391;-4.99087;0.2321446;-176.7892;-180.292;-0.4128707;0.4754881;0;
326.4619;0;304.0504;285.6873;-3.981477;-3.184218;318.6395;315.8899;-0.2825211;0.3450756;0;
720.4981;0;677.8693;694.5071;-1.967744;-4.453572;709.935;704.5645;-0.1523026;0.4096963;0;
398.6855;0;389.5202;406.5786;-4.979877;-1.836885;393.6927;387.2656;-0.0871822;0.4742519;0;
174.5849;0;178.2973;194.7764;-5.175944;-1.969005;167.6606;166.05;0.04284008;0.4088081;0;
164.8518;0;166.0617;184.2733;0.4553351;3.056571;156.5601;157.7622;0.3026664;-0.1763088;0;
-292.709;0;-256.5803;-265.8107;1.325534;5.397902;-293.1213;-292.545;0.4972643;-0.241099;0;
-665.04;0;-609.6448;-654.4106;1.4589;3.048076;-662.3285;-660.0662;0.4317973;0.1489473;0;
-399.2551;0;-372.4637;-423.1815;2.127019;3.446911;-400.6067;-398.4716;0.1065267;-0.1760391;0;
-196.2057;0;-182.4972;-233.1016;-3.568545;6.658506;-197.3686;-199.9833;-0.2833844;-0.3057969;0;
-165.5864;0;-152.204;-203.3822;-6.311626;7.991474;-167.8101;-172.8584;0.0417371;-0.5003916;0;
332.3298;0;308.5924;290.1992;-1.749957;5.304249;320.6131;316.0696;0.1716298;-0.5648562;0;
717.3022;0;671.912;688.3323;-0.8111692;5.834783;701.2869;694.8115;-0.02344463;-0.04454986;0;
389.9956;0;377.4471;395.6;-12.46465;2.144859;378.4942;372.2127;0.1065136;-0.2394071;0;
158.0326;0;162.5506;182.9342;-15.33252;-0.06761105;145.7932;144.7028;0.04143924;-0.6289706;0;
166.6194;0;166.885;191.2461;-7.681299;8.77396;152.893;154.4899;0.1713323;-0.4334366;0;
-286.133;0;-253.8213;-258.0329;-6.802925;9.836871;-291.6622;-291.1913;0.1061928;-0.1081644;0;
-678.4606;0;-624.6297;-665.631;-4.518914;8.018448;-679.4241;-677.5169;-0.2187506;0.1518137;0;
-399.4813;0;-375.502;-419.773;-1.901429;8.546254;-403.942;-401.0997;-0.3484655;0.3465632;0;
-183.4383;0;-172.4141;-214.7665;-2.904872;5.791488;-186.1454;-187.304;-0.283148;0.6060843;0;
-167.5119;0;-151.6886;-197.4343;-2.834605;5.718686;-169.5292;-172.748;-0.2178962;0.6704426;0;
328.3448;0;308.4825;294.1421;6.813786;1.493015;317.7089;315.118;-0.2826446;0.4098996;0;
711.3222;0;670.3655;690.2098;10.42329;0.01801254;697.2612;692.9238;0.04247614;0.1496184;0;
387.145;0;377.5887;397.4131;2.64328;1.826412;377.4085;372.6381;0.1074008;0.01953336;0;
170.2399;0;173.3743;194.8029;3.7797;0.7529715;158.1393;157.6841;-0.08760914;-0.2403556;0;
167.1953;0;167.328;191.7336;-1.984874;8.521991;154.0449;155.9014;-0.1524885;-0.1751468;0;
-294.3034;0;-259.1258;-262.9806;-4.327404;11.52766;-297.8203;-296.278;-0.2173026;0.01993123;0;
-676.253;0;-618.9969;-659.0172;2.977962;5.82265;-675.0189;-672.1662;-0.2170842;-0.1749908;0;
-405.5218;0;-377.4336;-424.0977;1.702172;5.950765;-408.1619;-405.6869;0.04300326;-0.2397823;0;
-193.4707;0;-179.6535;-226.833;11.41335;9.896657;-194.7963;-196.3843;-0.2169093;0.08529533;0;
-163.1664;0;-145.9898;-195.6207;14.14757;11.29335;-164.2408;-167.3265;-0.4765607;0.150177;0;
333.8103;0;315.3;297.9529;5.895312;9.138553;323.4916;321.1587;-0.1512452;-0.1748107;0;
717.4069;0;676.1767;693.1422;5.152454;10.13411;704.2875;699.1459;0.1087762;-0.2396024;0;
394.0982;0;385.0183;402.2166;-1.617877;9.454102;386.8016;381.5401;0.1736342;0.08547512;0;
163.7553;0;170.9888;190.6061;-4.898781;9.779517;154.8418;155.3328;0.1734597;-0.1744801;0;
169.6502;0;173.9404;196.5365;-7.974341;14.79329;159.059;162.0482;0.1732855;-0.3042395;0;
-278.7325;0;-241.1508;-247.8127;-11.04779;16.31903;-279.8802;-278.2683;0.04317665;0.2807723;0;
-675.0655;0;-616.0949;-657.9199;-10.03231;19.78563;-671.0897;-668.48;0.1081006;0.02062078;0;
-404.8976;0;-375.9713;-422.5643;-10.95926;20.63652;-404.8614;-402.0044;0.2379267;-0.4991387;0;
-190.4734;0;-175.6939;-221.678;-6.461243;24.96955;-189.1253;-190.0193;0.04278558;-0.3037351;0;
-175.6019;0;-157.8388;-206.0255;-3.976504;27.22176;-172.5685;-176.5225;-0.1521594;0.08637415;0;
326.4473;0;306.7738;290.4321;-4.843165;16.47751;320.8569;316.782;-0.4118759;0.2811894;0;
720.2961;0;676.9044;694.8743;-3.230708;13.71465;710.0887;704.6436;-0.21656;0.2159395;0;
397.7342;0;384.9956;404.0719;-1.084008;15.10751;391.9098;385.4081;-0.02144041;0.3456572;0;
174.0093;0;176.3385;197.582;-0.9491968;14.22155;167.4411;164.6316;-0.2163209;0.2803425;0;
169.8364;0;170.5391;193.0107;4.009226;9.384614;162.4628;162.5921;0.2386679;-0.1097432;0;
-285.1056;0;-251.5452;-257.1446;5.076924;7.499662;-284.6633;-284.3466;0.1084934;-0.1096329;0;
-671.4373;0;-619.045;-655.7482;-0.1530896;12.71667;-667.3098;-664.7446;-0.02155033;-0.2394575;0;
-407.9572;0;-384.9779;-426.3918;-0.2202848;12.50295;-407.7693;-405.5191;0.1733733;-0.1092822;0;
-193.9047;0;-185.0039;-227.5631;-9.328766;18.98761;-192.5301;-195.2171;-0.1516376;0.02076232;0;
-166.4111;0;-156.0824;-200.7853;-12.80299;20.91103;-163.5386;-169.159;0.04341682;-0.04422588;0;
327.8827;0;301.9692;287.3587;-8.971735;18.67958;322.6314;317.0167;0.3682099;0.2156879;0;
716.0455;0;667.1696;686.3693;-10.50394;19.59858;705.6146;698.881;0.3028726;0.02056918;0;
399.8596;0;381.3925;402.447;-4.063022;11.13928;392.7499;387.1476;0.2376009;-0.3692555;0;
173.3839;0;171.5521;194.8342;-1.781764;8.448768;165.2195;164.9951;0.04246014;-0.3039172;0;
174.2717;0;171.1923;197.512;-3.722357;5.761083;165.928;168.1402;0.1723522;-0.1736771;0;
-276.2396;0;-245.7077;-248.5873;-2.445819;2.00425;-275.7668;-274.1815;0.2371463;0.3462361;0;
-672.3878;0;-620.085;-658.2565;-1.907498;6.824885;-668.3547;-664.7721;0.236908;0.6707249;0;
-406.1581;0;-382.9559;-425.8365;-1.302369;7.085959;-407.0641;-403.1728;0.1717027;0.475149;0;
-189.1714;0;-180.0479;-223.5726;-1.368409;3.327917;-189.7017;-190.312;-0.1533066;0.01990015;0;
-174.551;0;-161.0014;-206.9812;-0.8311704;3.391556;-174.2063;-177.3147;-0.2181199;-0.3049566;0;
323.9989;0;302.365;288.4778;-4.581379;4.191944;315.6602;312.6798;0.106936;-0.1747154;0;
727.0331;0;682.6824;703.4167;-6.25074;3.986783;714.7047;709.9783;0.1717959;-0.1095726;0;
401.8406;0;389.0811;411.2315;-1.355315;7.800682;393.4602;388.3637;0.1066559;-0.1744298;0;
167.367;0;171.1121;194.3646;-1.085533;8.39569;156.8711;156.7147;0.1715161;0.2155495;0;
173.1958;0;174.6882;200.2912;-1.687655;7.918374;161.8359;165.1154;0.04140907;0.605137;0;
-281;0;-247.7126;-250.4961;-1.283817;8.44628;-283.478;-281.0763;0.1713022;0.2147249;0;
-677.4557;0;-623.5246;-662.2872;-2.421603;2.342469;-675.6833;-672.0972;-0.023772;-0.2402623;0;
-412.6578;0;-385.7673;-430.6129;-2.084377;0.1967834;-415.3224;-410.7404;-0.4785195;-0.3049882;0;
-196.4766;0;-184.1059;-229.4061;-4.962671;-0.138329;-198.6388;-198.7465;-0.08823464;-0.1097797;0;
-168.4182;0;-156.9969;-203.2512;-6.029411;-2.549576;-169.5788;-173.3095;-0.08814598;0.02026529;0;
325.253;0;300.3061;287.4565;-2.808172;-1.944167;316.0351;312.6205;-0.2829594;-0.2396244;0;
714.9177;0;671.3177;691.402;-2.871723;-3.817736;702.6481;697.8;-0.02280575;-0.109449;0;
402.2936;0;391.9082;411.66;-1.328597;-3.010105;395.5336;390.0033;0.1071519;0.08556303;0;
174.6286;0;177.0598;200.4773;-0.7240492;-3.141046;166.8759;165.1617;0.4318809;-0.04445764;0;
169.5181;0;167.3241;194.5912;-1.259185;-7.692607;161.2734;161.3726;0.1715776;-0.1093803;0;
-281.8005;0;-249.7594;-251.1928;-0.4546127;-7.416946;-281.2288;-281.6295;0.1064378;-0.3041724;0;
-671.5088;0;-617.8233;-653.488;-4.338922;-12.96896;-666.9396;-665.216;0.5611023;-0.5637361;0;
-410.7148;0;-386.4435;-427.2573;-4.803077;-14.09463;-409.9608;-408.114;-0.02416761;-0.6931044;0;
-197.5965;0;-187.9048;-229.4272;-4.262387;-8.521009;-195.469;-198.5591;-0.4789147;-0.5624732;0;
-176.5959;0;-164.3528;-208.8319;-4.392802;-7.842618;-173.3461;-179.8688;0.1062726;-0.1721041;0;
318.2079;0;295.2065;280.4446;0.5690808;2.346424;312.1466;305.8178;-0.02376889;-0.04199645;0;
724.5587;0;679.6539;699.6394;3.113128;7.300681;714.3806;706.3716;-0.2836144;0.0230131;0;
405.7406;0;392.7399;415.2665;1.904552;6.891448;400.945;391.882;-0.08842737;0.217892;0;
164.5164;0;166.8336;191.1492;3.041714;11.70717;158.8511;154.5449;0.1065635;-0.2370983;0;
175.3456;0;173.2877;201.077;6.11914;6.470862;168.3116;167.8203;0.4312931;-0.4317621;0;
-272.8554;0;-241.3656;-241.5901;5.443407;6.866258;-271.8238;-272.8769;0.3658924;0.02344311;0;
-679.0644;0;-624.1181;-659.887;14.61399;14.42831;-672.849;-672.5891;0.2355901;0.2183216;0;
-413.1404;0;-386.2977;-426.6533;17.54704;15.82045;-409.6174;-408.858;-0.02451599;0.02320018;0;
-188.8378;0;-175.5153;-216.3301;4.200172;18.55073;-184.1314;-187.9331;-0.3493281;-0.4315945;0;
-165.3473;0;-150.1641;-194.9984;2.387291;18.93399;-160.0209;-166.5674;0.04082699;-0.7559975;0;
324.6352;0;303.1965;290.0789;-3.911747;24.40744;321.2105;315.6077;0.1707207;-0.6253032;0;
717.0491;0;674.705;697.3325;-8.462169;26.99513;709.6923;703.2831;-0.08932026;0.02499847;0;
400.9871;0;389.2951;413.5866;-2.961309;13.77274;398.6353;391.8576;0.04070418;0.2198754;0;
166.6393;0;169.077;195.9053;-4.632297;9.740043;163.1029;161.1421;-0.2841734;-0.1701496;0;
163.7857;0;164.2844;194.7089;0.9310871;13.48118;158.4413;159.7308;-0.2838879;-0.2999133;0;
-279.9684;0;-247.1115;-245.2657;3.475747;11.19021;-277.8112;-277.2101;0.04123406;0.02522475;0;
-664.1813;0;-611.9297;-646.1301;-2.958107;7.96391;-659.2153;-656.2409;-0.2186767;0.3500361;0;
-399.3343;0;-377.8697;-417.3456;-2.552993;6.147368;-399.3082;-395.025;-0.02355498;0.02484768;0;
-187.2894;0;-182.463;-220.2751;-2.148286;5.404501;-186.2014;-186.6701;0.5611748;-0.1700793;0;
-172.1087;0;-164.9134;-204.5615;-2.146127;5.198122;-170.2097;-173.4266;0.4306762;0.1549283;0;
316.6936;0;290.461;281.2125;1.338653;1.575821;310.1574;307.7559;-0.02452793;0.21974;0;
718.0485;0;671.3525;696.9708;3.480762;-0.2341798;707.9582;704.3721;0.1054314;0.1545518;0;
400.4862;0;385.9461;413.7874;-0.6759212;6.397122;394.7789;391.0715;0.3651948;0.2193639;0;
162.1409;0;164.5444;194.1069;-1.478549;6.658626;154.5028;155.2344;0.03999117;-0.1056933;0;
171.0984;0;169.7513;200.4711;5.421813;8.929355;161.2191;165.6356;-0.2199184;0.08931499;0;
-277.7855;0;-247.647;-247.7552;4.94785;11.46561;-279.7213;-275.0594;0.3000413;0.2841273;0;
-683.2399;0;-631.0178;-666.4207;12.17655;1.004998;-679.864;-675.3317;0.1698052;-0.1059623;0;
-415.75;0;-392.8157;-432.056;15.31214;0.06634895;-416.4379;-412.5349;-0.2851368;0.1540136;0;
-193.8811;0;-186.7119;-224.9133;-1.314033;-2.144155;-194.6308;-195.0419;0.03998636;0.4786955;0;
-182.9417;0;-174.8427;-215.5669;-5.131106;-4.821195;-183.0659;-186.2253;-0.08998849;-0.1714589;0;
306.4962;0;277.2933;267.3446;-6.063955;5.364811;297.689;294.9701;-0.02493073;-0.236254;0;
715.1077;0;663.8828;688.6141;-10.54486;6.698957;702.0614;697.2213;0.04006166;0.2187548;0;
405.2946;0;386.9171;413.1853;-5.645125;9.036629;397.3838;392.0488;-0.41475;-0.171269;0;
171.3172;0;169.6998;197.8781;-5.237311;11.63976;163.1645;162.3951;0.1054055;-0.4959337;0;
173.1441;0;168.4673;199.3659;-14.81024;6.202569;164.0001;165.7302;0.4301363;-0.3005333;0;
-275.7419;0;-247.1182;-245.1736;-18.07789;5.325681;-276.6308;-275.5896;0.2348021;-0.1702967;0;
-674.5767;0;-622.0563;-655.5958;-4.796861;5.454296;-670.967;-667.8654;0.5594028;0.08974384;0;
-416.4658;0;-392.4213;-431.9866;-1.175695;3.97519;-417.0451;-413.5093;0.5588408;-0.2351831;0;
-198.0943;0;-191.0031;-230.591;-9.077767;1.157913;-198.6731;-200.0134;0.2334425;-0.5597835;0;
-173.4076;0;-164.5743;-206.8712;-6.657748;-0.7856334;-172.4241;-177.0114;-0.09162876;-0.364319;0;
314.7089;0;289.0506;276.5938;-11.27276;-1.38769;308.0078;303.3626;-0.3514061;-0.2340182;0;
713.4421;0;665.1959;687.2968;-12.66795;-1.721211;702.6873;695.9852;0.03875108;-0.1688157;0;
401.4442;0;384.9806;408.5585;-0.06291946;-4.733591;396.01;388.9399;0.1686468;-0.1036787;0;
163.9725;0;163.5798;189.0081;1.612083;-4.862801;157.6067;155.0415;-0.286294;-0.03860723;0;
173.8651;0;169.1001;198.0635;8.576688;-2.379668;165.9441;166.5673;-0.1560717;0.0263989;0;
-271.3359;0;-242.8004;-242.1643;13.05605;-2.042362;-270.5034;-269.8183;0.2988566;-0.2984643;0;
-681.0447;0;-629.7368;-663.584;3.664831;6.265329;-676.1525;-673.8439;0.3635236;-0.2981644;0;
-410.6209;0;-389.0372;-427.5356;3.661149;9.675163;-410.6688;-407.4254;0.03832162;0.02697187;0;
-181.011;0;-174.4415;-214.6503;0.1748458;6.718193;-179.9344;-181.1921;-0.2865536;0.09191213;0;
-173.8327;0;-163.5216;-207.5006;-2.370925;7.314289;-170.9455;-175.3878;-0.351233;0.1567871;0;
310.786;0;286.5416;274.4658;0.04333063;9.785308;305.8617;301.9236;-0.2859128;-0.03827246;0;
715.3952;0;666.8124;691.4802;-1.564303;10.84708;706.1655;700.2323;-0.02575609;0.09170069;0;
399.085;0;381.2856;407.6153;0.848166;4.004166;394.6746;388.6225;0.03923713;0.4814126;0;
164.7391;0;164.3863;190.752;0.5798701;2.258587;159.7085;159.3471;-0.1557043;0.2860268;0;
167.7594;0;163.8463;192.9341;4.530427;2.725198;161.4845;163.8096;-0.02561318;0.09083742;0;
-280.6213;0;-251.0474;-249.1001;8.210546;1.382801;-278.894;-277.1334;0.1043472;0.02577879;0;
-676.4528;0;-622.8581;-655.1456;-7.337745;3.725814;-670.4168;-666.5966;0.1692097;0.2206549;0;
-420.0891;0;-396.6581;-434.2231;-11.34886;3.655087;-418.3695;-414.4906;0.234007;0.3503679;0;
-203.7755;0;-196.6724;-234.1996;0.5179127;7.201388;-201.4954;-201.556;0.1038372;-0.2346902;0;
-178.7707;0;-168.3015;-207.4151;-0.8227544;9.20364;-175.3685;-177.428;-0.2211038;-0.1045197;0;
306.9774;0;282.5786;273.3018;6.680161;5.711279;301.5056;299.4482;-0.1559143;0.220422;0;
710.0911;0;662.2911;687.6938;10.69291;5.90649;700.1271;696.1353;0.2340464;-0.1696035;0;
403.5313;0;386.5764;416.014;-5.393735;9.115736;398.1376;393.9623;0.2338112;0.0254689;0;
161.4349;0;159.9892;190.4591;-6.928557;10.78103;155.047;155.5611;-0.02629306;0.2203453;0;
170.0183;0;165.2008;196.7645;-9.26612;6.014528;162.2625;166.3993;0.103668;-0.1696801;0;
-268.3073;0;-239.1996;-235.5285;-12.60571;4.93688;-267.9968;-263.2396;0.2984659;-0.1045423;0;
-680.4554;0;-628.5134;-660.3282;-3.885509;11.96488;-675.585;-669.8955;-0.02667071;0.2203995;0;
-422.0262;0;-400.2463;-437.339;-3.815232;13.29252;-421.596;-416.5369;-0.09161125;-0.169626;0;
-191.2805;0;-186.6388;-223.4443;3.088454;11.47062;-190.8507;-190.3569;-0.02655186;-0.1044883;0;
-180.4061;0;-171.9585;-212.3503;7.773424;11.59306;-178.6025;-181.295;-0.4163292;0.2204535;0;
300.4085;0;275.0522;266.435;-2.281095;11.6484;294.2769;292.0243;-0.2210089;-0.03963744;0;
715.8352;0;665.3919;692.4531;-1.207076;10.8329;705.3994;702.1495;0.1040499;-0.1695323;0;
404.647;0;385.0514;413.7095;-4.018902;9.348512;398.7194;395.223;-0.2208914;0.09050743;0;
159.5509;0;157.0289;188.3444;-6.895252;7.731527;152.6298;153.7595;0.1041673;0.1553838;0;
168.3236;0;161.9311;197.463;7.31157;4.642666;160.285;164.4745;0.4938667;0.02529301;0;
-275.1227;0;-247.6508;-240.0781;9.112885;2.159632;-274.72;-270.7845;0.1035664;-0.2995691;0;
-680.7672;0;-630.8967;-660.0631;7.295067;0.683838;-676.1171;-671.0611;0.03849499;-0.2343008;0;
-420.8385;0;-399.7536;-435.0752;8.694257;-0.5894029;-420.4409;-415.6399;-0.09147837;-0.2340653;0;
-197.84;0;-191.4565;-226.6176;2.388881;-3.937957;-196.3808;-196.1448;-0.3512558;-0.03892813;0;
-181.4619;0;-173.7104;-212.3344;1.985315;-4.268915;-178.6298;-181.7049;0.2338032;0.350915;0;
307.2874;0;280.1111;272.6353;-4.781834;-6.809855;301.6208;299.1111;0.4934376;-0.03924161;0;
719.5212;0;670.4458;697.6476;-7.322625;-7.941722;709.9874;706.1058;-0.09176424;-0.1041695;0;
409.0789;0;391.1622;419.586;-5.640328;0.7737947;404.9269;399.9873;-0.1566394;0.2857392;0;
168.1638;0;166.6943;197.9006;-8.313977;2.648539;163.2663;162.767;0.3632568;0.2204848;0;
171.5555;0;167.3389;200.7002;8.171446;4.253469;165.2262;167.2261;0.2329571;0.09032853;0;
-274.7051;0;-244.2475;-240.8421;14.39253;5.320921;-272.2825;-271.2216;0.232723;-0.03969693;0;
-678.1012;0;-623.5613;-656.2037;0.04444844;5.784334;-670.746;-668.3119;0.4273912;-0.2995264;0;
-419.362;0;-394.3621;-433.8433;-1.094672;6.381368;-416.1371;-413.643;0.102125;-0.3641928;0;
-194.0537;0;-185.6955;-224.8872;7.279172;-1.930684;-189.7076;-191.9012;-0.2228143;-0.2338922;0;
-179.4285;0;-168.0177;-208.2319;7.40558;-4.407113;-173.5875;-178.9647;-0.09265574;-0.1686898;0;
299.9485;0;276.7401;267.2384;5.724175;-8.823436;296.7881;292.0409;-0.4823667;-0.2334876;0;
714.8759;0;668.5775;693.443;5.517353;-12.23058;707.2209;700.6044;-0.6118167;-0.1033183;0;
409.873;0;395.1678;422.1323;-0.2489669;-10.6107;406.661;399.8013;-0.0914632;-0.03824719;0;
163.2099;0;163.8243;193.1355;-2.057378;-11.93969;159.5014;158.2083;-0.2862733;0.1566933;0;
172.6661;0;167.4702;200.1878;-2.456476;-8.109793;168.1492;169.9809;-0.2210183;-0.03836621;0;
-266.8491;0;-239.4935;-234.2951;-2.588706;-6.828968;-263.3029;-261.6605;0.2989425;-0.2332297;0;
-679.9981;0;-628.3698;-658.5963;-6.337149;-6.956072;-672.2701;-669.1926;-0.0261946;0.2867434;0;
-421.8818;0;-398.3537;-434.5468;-8.273165;-6.011322;-418.5344;-415.2101;-0.156103;0.09155327;0;
-191.0737;0;-183.3738;-218.9683;3.926286;-4.598639;-186.1679;-186.9074;0.03895591;-0.1034408;0;
-173.3905;0;-163.387;-200.8822;6.668031;-3.65638;-166.8654;-170.5402;0.1038841;0.09156521;0;
307.4796;0;281.8659;275.8301;7.800407;-5.996986;304.3155;302.3935;-0.1560896;-0.1034288;0;
713.5289;0;663.4532;693.218;11.27519;-5.856995;705.7452;703.7628;-0.09096546;0.2215118;0;
406.8408;0;386.9253;419.3463;2.89112;-9.200256;404.4997;401.3323;-0.02590672;0.09135456;0;
167.6145;0;162.8364;197.2863;1.481695;-10.53055;164.4012;164.5478;-0.4156847;-0.03867193;0;
172.2562;0;163.36;200.5238;4.494316;-7.706806;167.2345;169.6923;-0.220365;0.2212363;0;
-271.1316;0;-245.5362;-235.9584;3.418073;-7.63208;-267.8399;-266.0717;0.03972576;-0.3636921;0;
-681.6527;0;-631.0331;-656.947;4.754786;-4.409352;-673.3043;-669.7888;-0.02528149;-0.4932613;0;
-427.1579;0;-404.0753;-436.5849;5.620664;-2.261468;-422.8783;-418.8041;0.1696459;-0.1029616;0;
-196.4694;0;-189.7768;-221.629;0.5911745;-4.804425;-191.7569;-192.3094;0.2994102;0.09204385;0;
-179.5928;0;-171.9075;-206.2889;-0.4137974;-4.665631;-173.6982;-177.6235;0.429044;0.1569187;0;
299.4719;0;272.417;267.8051;3.806177;1.233311;297.3647;293.7556;0.2337109;-0.038141;0;
715.3368;0;664.6959;695.321;3.333838;3.375525;709.1712;704.5038;-0.156328;0.2217667;0;
404.0241;0;385.2932;417.6991;7.348976;1.027731;402.2375;397.45;0.1036984;0.7412826;0;
148.7463;0;148.4624;182.6473;7.743733;2.165408;145.7746;145.9268;0.3634636;0.4157011;0;
162.9646;0;157.8084;196.6441;6.931669;0.9575395;159.1213;162.2094;0.298131;0.09044664;0;
-264.1096;0;-237.7139;-225.8412;7.796337;1.090543;-260.5152;-258.3048;0.2328641;0.1553231;0;
-676.3243;0;-627.2167;-650.7131;-3.799423;4.438594;-669.4852;-665.9652;0.1026955;-0.1696697;0;
-423.3966;0;-404.0108;-433.1682;-7.010786;5.639827;-420.4374;-416.5461;0.03762494;-0.4943359;0;
-194.9607;0;-190.8368;-221.2768;-8.946124;8.380339;-191.3174;-191.9902;-0.02738021;-0.03906781;0;
-185.2072;0;-176.5271;-212.4962;-13.55884;10.64934;-179.7558;-183.6763;-0.0273527;0.1558735;0;
293.4884;0;267.2397;262.4162;-3.564877;8.160269;291.6879;287.6464;-0.3521619;-0.03918518;0;
708.6722;0;656.7753;690.3748;-2.757987;7.214308;702.1259;696.7766;-0.6116774;-0.2340478;0;
407.4861;0;385.0016;420.8162;-7.779058;14.10618;404.8819;399.0382;-0.02635674;-0.1688453;0;
167.7595;0;159.9777;196.3185;-7.771242;14.092;164.2833;161.8813;0.2335391;0.02622637;0;
171.7763;0;160.2542;199.557;-10.24168;13.0731;166.617;166.966;-0.09153226;-0.2986367;0;
-271.6735;0;-247.5769;-236.7368;-10.16404;13.52885;-268.3319;-268.0457;-0.02647295;-0.4932386;0;
-682.194;0;-634.446;-658.6617;-15.04395;-0.2828661;-673.9208;-671.6359;0.03852099;-0.03797165;0;
-428.948;0;-410.4208;-440.4843;-16.368;-5.105231;-424.8684;-421.5863;0.1034496;0.4818053;0;
-204.692;0;-200.5512;-231.9587;-12.39944;-4.430394;-200.0543;-200.7735;-0.026589;0.4163538;0;
-189.1815;0;-181.0469;-214.7967;-12.11954;-8.444797;-183.674;-187.0786;-0.2864316;0.09109873;0;
294.5156;0;267.847;263.6163;-7.016168;-4.015559;291.7717;288.1831;0.2335949;-0.2987969;0;
711.7598;0;662.0046;690.0744;-5.066735;-3.810575;705.6454;699.4367;0.2333602;-0.2984966;0;
408.1968;0;391.6;420.1414;-3.052888;-7.557669;407.3984;400.4464;0.103191;0.221542;0;
161.8478;0;161.447;190.3345;-1.44223;-6.947228;160.4879;157.291;0.1680547;-0.1684846;0;
178.864;0;171.842;204.3236;-3.919028;-7.543094;175.5065;174.7491;-0.02701622;-0.493152;0;
-252.7863;0;-228.0048;-221.7301;-4.317232;-6.463788;-249.3938;-249.4009;0.1029456;-0.3627218;0;
-678.6307;0;-630.6357;-659.4747;-7.460725;-4.113013;-670.6189;-668.3146;-0.02709252;-0.2324227;0;
-427.2623;0;-407.1765;-441.0465;-9.328262;-2.032409;-422.6318;-419.5178;-0.157;0.1576149;0;
-189.0775;0;-183.1923;-215.529;-11.46234;0.1130871;-183.5771;-184.0269;0.2329618;0.2873912;0;
-182.0784;0;-172.8883;-208.4409;-12.9247;1.988374;-174.772;-178.2198;0.4925971;0.1571678;0;
294.2402;0;268.0638;261.47;-15.7921;8.617564;293.6682;290.4113;-0.02763659;0.09204251;0;
716.9819;0;665.9069;694.9268;-17.51754;11.75698;710.9758;706.6601;-0.09257616;-0.297854;0;
411.9769;0;392.3125;424.2392;-11.80651;12.88388;410.537;405.4136;0.2323536;0.0922493;0;
165.874;0;163.658;196.6771;-10.18706;15.68421;164.7478;163.5026;-0.02774927;0.6118953;0;
172.0791;0;165.7424;202.2266;-10.0431;11.71646;170.0795;171.8341;0.1022133;-0.03839292;0;
-265.7488;0;-240.7823;-230.2594;-8.090626;11.50374;-260.3751;-258.6223;0.2970126;0.026613;0;
-672.5272;0;-625.6593;-650.4417;-7.21184;14.43943;-663.6606;-660.1605;0.1018122;0.351423;0;
-423.6012;0;-404.454;-436.2079;-6.065517;14.69285;-418.1793;-414.6827;0.2966119;-0.1037015;0;
-195.7274;0;-192.6539;-224.6258;-1.705166;14.94602;-189.4989;-190.6909;0.5561832;-0.1035973;0;
-174.104;0;-169.7842;-204.5975;0.9085155;14.73005;-167.5069;-171.1965;0.2307876;0.1563761;0;
301.7693;0;272.1019;268.5578;-3.044512;16.25574;299.9265;297.8648;-0.3541503;0.09125167;0;
712.447;0;660.633;692.2624;-2.639312;15.63668;706.7955;703.2991;-0.3537945;-0.2336767;0;
410.0703;0;390.4172;423.2017;-0.7616255;15.8218;409.7343;405.1794;0.03636507;-0.5582786;0;
163.0947;0;161.4523;195.828;-0.6935113;14.46636;162.3842;162.3941;-0.09360615;-0.1679136;0;
174.8623;0;167.1621;206.126;2.990881;12.10742;172.0911;175.4118;-0.2884141;0.09212446;0;
-256.1593;0;-233.3671;-220.8042;3.591088;10.62163;-251.3066;-248.1141;-0.3530917;0.1569992;0;
-677.0027;0;-629.9332;-653.3647;4.458136;1.903423;-667.8446;-662.9687;-0.2228022;0.2218088;0;
-428.4471;0;-411.5971;-441.7518;4.788449;-1.849411;-423.546;-418.9249;0.03729105;-0.03828343;0;
-194.1342;0;-194.48;-222.7928;4.247774;-2.718331;-188.301;-188.3071;-0.2875831;0.02672238;0;
-194.6887;0;-189.3495;-220.0077;5.181511;-4.725088;-187.8619;-189.3673;-0.2223268;0.09166288;0;
278.769;0;249.5577;247.0412;-2.594204;-5.858928;276.2187;275.5894;-0.09216875;-0.2982333;0;
720.017;0;664.1609;696.1921;-4.199187;-6.857785;712.6591;709.5942;-0.2869782;-0.2979336;0;
424.3792;0;399.5637;434.3114;-1.448302;-2.363159;421.5266;417.84;0.2330489;0.09216981;0;
167.2069;0;160.5947;196.3694;-2.050059;-1.021126;163.42;164.4223;0.2977821;0.3519466;0;
171.8489;0;161.3703;200.9821;5.454089;1.056249;167.0664;170.8787;-0.3521905;0.2866256;0;
-262.6054;0;-240.0276;-228.2542;8.462719;3.198641;-258.7625;-255.2663;-0.4817713;-0.03849914;0;
-671.9482;0;-626.2797;-651.562;6.378111;1.65482;-663.7988;-659.4316;-0.09148319;0.02650688;0;
-426.5835;0;-410.6335;-441.575;7.242358;2.724884;-423.3148;-418.7021;0.1684781;0.09144761;0;
-203.2669;0;-203.1999;-234.7975;12.52637;-0.2919641;-199.4393;-198.2045;0.1683088;-0.428383;0;
-182.3231;0;-179.2577;-215.1963;14.38979;-1.564347;-176.4379;-178.3903;0.233107;-0.4279526;0;
294.7454;0;262.9502;258.4695;10.02107;-0.1561331;293.4408;290.4284;-0.02699656;0.02724881;0;
707.9914;0;652.2402;684.2456;10.01101;-2.165464;702.4402;697.182;-0.1569041;-0.03774591;0;
413.3652;0;389.8414;423.8136;5.312873;1.453668;411.8801;405.94;-0.2217138;0.02725936;0;
167.3233;0;162.6887;197.2514;2.493519;1.385224;164.9651;163.6537;-0.3514257;0.1571667;0;
172.59;0;164.0244;200.614;9.055098;-4.175629;169.2347;170.923;-0.09120322;0.02707405;0;
-262.9896;0;-238.0009;-230.0587;9.917631;-5.176055;-257.6584;-256.2216;-0.09111158;0.0920142;0;
-685.8876;0;-634.1874;-663.4221;6.557787;-11.40014;-675.5018;-672.8171;0.03891465;-0.1679476;0;
-431.2011;0;-408.4759;-443.5532;7.020688;-13.80008;-424.8862;-421.8918;0.2337776;-0.2327462;0;
-188.8894;0;-183.3659;-218.408;7.482148;-13.92017;-182.3935;-182.7129;-0.1562614;-0.167545;0;
-189.4492;0;-179.2461;-218.3134;7.809423;-16.18349;-181.3981;-184.2785;-0.4809411;-0.1024093;0;
279.9427;0;254.0913;247.8592;10.48089;-9.13426;280.8019;277.5497;-0.1556211;0.547367;0;
714.8802;0;662.7554;693.3861;11.2073;-7.651458;711.1783;706.4301;0.169372;0.4168823;0;
415.1872;0;395.3486;426.9479;14.61229;-8.447565;416.424;411.1183;0.1042344;-0.1032753;0;
161.2724;0;159.757;193.0738;17.0085;-6.831486;163.3201;162.455;0.1041297;-0.03820419;0;
171.1678;0;165.1562;202.1251;12.97292;-9.637905;172.2764;174.5981;0.6237637;-0.1681005;0;
-264.4728;0;-238.8692;-229.2362;13.96427;-9.293306;-255.1819;-253.4248;0.7530717;-0.0379969;0;
-678.1865;0;-628.8081;-654.1672;13.54907;-9.216986;-664.9694;-661.1526;0.4274783;-0.03795872;0;
-430.8165;0;-409.6611;-441.3665;13.66918;-8.470912;-422.2354;-417.5479;0.03724475;-0.2328226;0;
-203.1228;0;-199.23;-231.4658;18.67928;-8.4624;-194.238;-194.1154;0.362044;0.1572154;0;
-185.2401;0;-179.1648;-214.5541;19.73127;-7.516136;-175.3023;-178.0533;0.2967129;0.2869921;0;
290.9567;0;263.6052;258.7362;24.26677;-5.967977;292.7012;290.8275;-0.4831933;0.2217364;0;
710.0161;0;658.5167;690.509;26.18477;-6.631809;707.0737;704.1398;-0.4827078;0.2215136;0;
415.5753;0;392.8008;429.3836;24.61822;5.699348;416.9462;413.4531;0.1674506;0.02638898;0;
167.2823;0;161.772;200.7544;24.59348;8.975785;168.4644;168.9104;0.4921191;-0.03860487;0;
169.5505;0;161.422;202.7391;20.48293;3.876185;168.67;172.8011;0.2317552;0.02640126;0;
-260.7786;0;-237.3523;-223.563;17.31354;5.412898;-254.7243;-249.7227;0.1015877;0.02637473;0;
-675.1832;0;-628.4171;-650.9984;17.0287;-5.242583;-664.6996;-658.2039;0.4263223;-0.1035865;0;
-433.1885;0;-414.7053;-444.7601;14.26492;-8.251548;-426.7135;-420.5991;0.2959593;-0.3633517;0;
-194.0608;0;-191.6505;-219.926;8.021299;-6.970581;-187.2174;-185.7318;-0.09414218;-0.03814993;0;
-184.4955;0;-178.0896;-207.836;5.066479;-9.040048;-176.2223;-177.2369;-0.09404758;0.4816271;0;
276.2084;0;246.4385;246.0823;0.3059655;-3.806417;275.9151;276.2134;-0.4187898;0.0263718;0;
707.2141;0;650.7375;684.3646;-2.441008;-3.06578;701.5488;700.41;-0.02856494;-0.4284261;0;
411.5892;0;387.778;422.4958;-1.902692;1.625984;409.7402;407.4156;0.4262352;-0.03819155;0;
152.4307;0;146.447;183.2538;-3.173578;4.638582;149.8964;151.6971;-0.09393186;0.3516509;0;
170.0186;0;157.0444;199.8737;-1.026935;2.959347;166.1126;170.66;-0.02887014;0.4812322;0;
-255.3759;0;-238.1023;-220.491;-2.09763;4.69793;-252.2816;-248.5508;-0.09380846;0.155912;0;
-681.9673;0;-640.6606;-659.3612;7.55002;2.080875;-674.066;-669.152;-0.2236489;-0.1041141;0;
-436.5301;0;-422.3763;-448.8666;11.96306;1.141024;-431.1355;-425.6642;0.0364452;-0.2339441;0;
-199.6478;0;-201.1254;-227.9639;-2.517271;5.962526;-194.3211;-192.416;-0.0935261;-0.2986764;0;
-191.0764;0;-188.6794;-217.9898;-2.915907;7.363176;-185.1303;-185.7884;0.03650256;-0.1034743;0;
281.3157;0;250.1022;250.6813;-8.13789;1.528385;280.1344;279.1022;0.1014332;0.1564991;0;
710.2548;0;654.7099;690.0209;-12.81876;0.8570198;704.3895;701.3593;-0.2884727;0.4162112;0;
416.3136;0;391.2466;430.3328;2.801507;3.870391;414.8894;411.4875;-0.02831353;0.02598892;0;
160.3362;0;152.2859;193.4568;4.673727;3.732536;159.3508;160.7623;0.1016496;-0.1689392;0;
161.6119;0;149.5092;192.5128;1.92334;7.479708;159.1907;163.5993;0.03658013;0.1560673;0;
-265.0237;0;-244.443;-228.5941;3.126856;8.142021;-259.8837;-255.9168;0.1015107;0.2208778;0;
-673.9267;0;-627.6297;-647.7161;0.1759773;9.473498;-663.607;-657.9575;-0.223428;0.1556885;0;
-429.9968;0;-412.232;-439.4821;0.2431494;10.46872;-423.3731;-418.0416;-0.09326881;0.09056472;0;
-202.304;0;-202.4855;-230.0831;-6.655971;6.372246;-195.1872;-195.6706;0.296629;0.02550636;0;
-193.5425;0;-188.9138;-221.3562;-9.730742;5.963945;-184.9961;-188.6649;0.1663962;0.09044809;0;
278.7272;0;248.8686;245.7566;-4.697123;-0.1372501;278.8317;275.0417;-0.4184771;0.1553245;0;
710.6049;0;654.4146;686.7253;-4.424959;-3.75419;704.8373;698.9896;-0.5479913;0.4150378;0;
416.226;0;392.5133;425.7287;-5.291169;2.009992;414.0873;408.8702;-0.2226039;0.3496535;0;
158.4996;0;153.239;187.9202;-3.409842;0.9362453;156.8004;156.0237;-0.09244556;0.02446542;0;
168.96;0;158.7697;197.7264;-6.286804;0.1316314;166.0131;167.6735;0.1025494;0.1543755;0;
-257.3705;0;-235.5043;-223.6356;-7.284865;-0.002466776;-252.5059;-251.5343;-0.09245571;0.08925308;0;
-680.1493;0;-635.379;-658.3173;4.845268;-4.222389;-671.2916;-668.4469;-0.5471342;-0.04077131;0;
-438.3371;0;-422.8471;-450.9472;6.850131;-5.02182;-433.986;-429.8948;-0.3516824;0.2841064;0;
-201.1407;0;-201.096;-230.2298;7.044319;-7.361176;-195.4196;-195.8927;0.1034423;0.3487883;0;
-190.4438;0;-185.839;-219.5662;8.644831;-8.157575;-182.6671;-186.3881;0.1033384;0.02360107;0;
276.7003;0;247.63;244.1089;-0.7409779;-7.546532;276.973;274.0678;-0.02670011;-0.4961614;0;
706.706;0;652.3026;684.8295;-2.817314;-7.538949;702.793;699.0162;-0.156608;-0.2357935;0;
418.4529;0;392.8398;428.7073;-9.177496;-5.186971;418.3545;415.1437;-0.2214179;0.2841822;0;
164.1601;0;155.7515;195.0188;-12.98569;-4.846845;163.562;165.2269;-0.2861628;0.2838967;0;
171.8037;0;160.2177;203.8183;-11.16496;-1.225018;170.2692;175.1184;-0.09097324;0.1536767;0;
-254.1549;0;-234.9323;-218.4868;-13.09612;-1.022838;-248.0667;-243.5347;0.1040202;-0.2362818;0;
-675.75;0;-632.1839;-651.3621;-8.594985;2.662129;-665.2327;-659.2684;-0.02601901;-0.171077;0;
-434.4419;0;-416.6567;-442.0625;-8.452627;4.936873;-427.6833;-421.1629;-0.02599286;0.1539316;0;
-199.9356;0;-198.9722;-223.1031;-4.42467;-8.665379;-192.8089;-189.8557;0.03900059;0.2187443;0;
-188.053;0;-185.9038;-212.1968;-2.879982;-11.6038;-180.4338;-179.1702;0.03896141;-0.1712796;0;
282.3371;0;249.1269;251.4084;-8.436794;-12.99878;281.2031;283.5273;-0.09101243;-0.1061401;0;
710.4006;0;652.861;689.373;-9.834836;-16.46871;705.0823;705.905;-0.02595364;0.4786726;0;
420.1448;0;394.2722;433.4337;-10.42719;-9.95494;420.3291;419.6517;0.2989092;0.2183223;0;
164.2261;0;156.4329;197.4291;-9.814477;-9.342213;163.5981;166.8569;0.4285435;-0.3016359;0;
175.2429;0;162.2102;208.5375;-23.20023;-9.466791;173.2413;179.4328;0.2332109;-0.1064307;0;
-250.0945;0;-231.4425;-211.8358;-26.92796;-8.184603;-243.4734;-237.9753;0.1030419;0.2185129;0;
-682.2508;0;-637.6931;-655.8997;-20.47152;-9.114141;-671.3885;-664.584;0.232873;0.348228;0;
-438.2501;0;-421.7231;-446.3456;-22.99557;-9.305931;-431.5841;-424.4117;0.1676717;-0.1068933;0;
-193.4326;0;-193.3514;-218.0117;-6.22697;-5.478553;-186.5234;-183.2937;0.0375685;-0.2367205;0;
-190.4896;0;-185.8483;-213.8571;-1.398918;-4.133512;-182.4005;-181.6103;-0.09240393;0.1533214;0;
277.8415;0;247.5582;249.6874;-5.683444;-9.95663;278.5512;279.2781;-0.1572784;-0.1067021;0;
714.2178;0;658.6027;695.2125;-0.4537964;-10.28154;710.4915;709.7809;-0.09215305;-0.4963989;0;
419.5854;0;396.5723;435.0818;-18.27056;-13.62036;420.3606;419.2135;-0.4168972;-0.1710634;0;
164.7917;0;159.7926;199.6378;-21.66747;-15.75;164.8165;167.606;-0.5464129;0.02401051;0;
175.9329;0;164.1298;208.3702;-11.86644;-6.289826;174.0836;179.619;-0.1560599;-0.1059483;0;
-252.2787;0;-233.3979;-216.8756;-13.12731;-2.934482;-246.9423;-242.0996;0.1689337;-0.0408745;0;
-676.2495;0;-630.7135;-651.5016;-3.66965;-6.146592;-666.1083;-659.9587;0.3636659;0.08910127;0;
-437.752;0;-418.7485;-444.5756;-2.058373;-3.126306;-430.3072;-423.7265;-0.09147087;0.1539791;0;
-203.1174;0;-201.874;-227.8626;1.42632;-3.726011;-195.805;-193.2289;-0.481183;-0.04107767;0;
-193.418;0;-187.116;-219.5752;4.171553;-4.124165;-184.9261;-185.9133;0.1689739;-0.1709711;0;
272.9795;0;248.3532;245.2869;-0.7227586;10.81693;274.279;272.8555;0.1688041;0.08907009;0;
706.0499;0;654.2745;689.9418;2.694219;14.15509;701.9133;699.4918;-0.4810389;0.2189153;0;
423.9818;0;400.057;438.9368;-13.45076;12.86819;424.0973;420.8036;-0.4805556;0.2186953;0;
169.0587;0;165.5852;203.239;-14.57633;15.40061;169.4864;170.194;-0.2202033;0.2834429;0;
175.1982;0;167.6677;208.9693;-13.08781;4.132245;173.9388;178.3314;0.169822;0.08825608;0;
-251.451;0;-229.1764;-212.7787;-17.36157;1.515758;-245.8376;-241.4494;0.104684;-0.3016367;0;
-685.9173;0;-636.054;-656.0295;19.96427;-0.9640114;-675.437;-670.0537;-0.02535587;-0.3663009;0;
-447.2852;0;-424.3335;-451.7852;28.92017;-4.446155;-439.8763;-434.8109;0.1046043;0.02387119;0;
-202.0838;0;-198.208;-225.882;30.83349;-1.76237;-194.3076;-193.8699;0.2344339;0.1537819;0;
-201.5059;0;-195.6975;-226.0924;41.6535;-3.971036;-193.3627;-195.3617;0.1042636;0.2185947;0;
264.8372;0;234.2206;235.0906;13.61303;2.999057;263.4771;262.7919;-0.2206779;0.3483098;0;
713.9078;0;657.1475;695.1855;9.714583;4.804583;707.9263;705.5552;-0.09052143;0.2829924;0;
423.3361;0;397.9297;438.803;12.78628;-1.496519;422.4206;419.3022;0.1044716;0.1527734;0;
157.2318;0;150.2167;191.2363;6.811586;-1.963896;155.5676;156.9501;-0.3504048;0.02268519;0;
171.4416;0;159.6859;204.5998;18.25895;-3.50253;168.2798;172.5345;-0.3500527;-0.04230494;0;
-251.7056;0;-231.9653;-213.7081;17.36994;-4.034874;-246.6808;-242.3055;0.1050704;-0.1721971;0;
-680.6119;0;-636.029;-654.709;21.23726;-9.389332;-669.8451;-664.4122;0.1049648;-0.1070568;0;
-442.0476;0;-424.8082;-450.8409;24.76589;-11.85814;-435.1647;-429.175;0.1698267;0.2828549;0;
-206.3467;0;-204.8042;-230.8732;11.14335;-9.702775;-199.3457;-196.4855;0.2995907;-0.1072334;0;
-193.833;0;-189.2937;-217.5853;9.659258;-12.03743;-185.2774;-185.606;0.1043877;-0.366995;0;
278.187;0;247.5521;249.0864;8.108335;-4.657333;279.0504;278.5348;0.1042828;0.02317779;0;
706.7545;0;651.5377;687.4906;4.617563;-3.246134;702.9943;701.4172;-0.02575667;0.3479912;0;
413.6913;0;389.7018;429.5541;16.20085;-9.137248;413.9329;412.6073;-0.1556655;0.2826742;0;
162.839;0;156.3648;198.1136;19.46612;-8.592203;162.4557;165.5042;-0.09054171;-0.04244653;0;
174.9817;0;163.0792;207.8471;9.734649;-17.693;173.6617;178.7686;-0.0254834;-0.3672406;0;
-258.0391;0;-238.1955;-218.4601;9.322725;-20.8233;-251.4242;-246.4473;0.1694442;-0.1070022;0;
-687.8137;0;-643.1276;-659.7686;13.26547;-18.86;-677.2699;-670.1741;0.03933929;-0.2368294;0;
-441.5585;0;-426.8397;-451.5226;11.912;-22.12309;-436.0228;-428.6842;-0.1556023;-0.6263955;0;
-197.6746;0;-199.9622;-222.5587;16.05321;-13.05841;-191.4574;-187.6245;-0.3503479;-0.1060273;0;
-198.2256;0;-195.5134;-220.3986;13.89363;-11.83959;-189.6408;-189.1226;-0.4149632;0.4138179;0;
263.1792;0;230.2816;233.4074;11.13398;-15.57862;263.572;263.0278;-0.2196443;0.4134021;0;
711.2519;0;651.9007;689.1312;6.567464;-14.15644;707.0841;705.1661;-0.2843909;0.6078888;0;
422.4945;0;394.7496;433.8792;2.809821;-23.78752;422.5788;420.8501;-0.3490725;0.2824413;0;
152.6429;0;143.1667;183.8812;2.605927;-25.50505;151.9775;154.4984;0.2359843;0.2171901;0;
170.6054;0;155.9539;201.2501;-34.83881;-24.54178;168.5039;172.8339;0.6255512;0.4118739;0;
-247.6059;0;-230.5087;-212.6817;-47.66452;-25.45476;-243.2086;-239.695;0.300086;0.1515907;0;
-681.7637;0;-640.071;-658.4313;-29.39727;-19.93671;-673.3104;-668.551;-0.1549869;0.2813731;0;
-443.0733;0;-429.4085;-453.4974;-32.58292;-18.51016;-438.7514;-433.2472;-0.2197985;0.411025;0;
-200.6872;0;-201.2789;-226.9678;-20.56109;-11.99433;-195.6825;-193.3697;-0.02467565;-0.04415939;0;
-190.4281;0;-185.9593;-217.6194;-15.31551;-8.633258;-182.305;-182.9305;-0.2195529;-0.239017;0;
272.843;0;241.5128;239.6196;-18.31423;-8.155703;273.3992;273.1491;-0.4142343;-0.3037442;0;
701.9155;0;644.5049;679.8449;-14.94693;-5.669139;697.4113;695.787;-0.1539487;-0.2384717;0;
416.6033;0;390.4847;429.3499;-15.80257;-10.48609;416.9136;413.4795;0.23601;-0.3031994;0;
161.9999;0;154.3358;193.974;-15.18348;-11.68125;161.5604;161.5654;0.2357729;-0.3678621;0;
168.6462;0;156.0548;199.0265;-17.64647;-11.40158;166.5829;169.7114;0.04063396;0.08727895;0;
-252.8115;0;-233.4063;-217.1519;-18.76781;-13.33263;-246.5644;-244.6884;0.1705278;0.2820933;0;
-676.2195;0;-630.4096;-650.2784;-25.58146;-11.57767;-664.9187;-662.1076;0.3652585;0.1518752;0;
-443.844;0;-425.9411;-452.0993;-29.70796;-10.89621;-436.5526;-431.9951;0.04005477;0.08675521;0;
-203.3936;0;-202.9375;-228.4447;-22.9803;-15.64093;-195.7347;-194.8675;-0.2198548;-0.1732014;0;
-195.3807;0;-189.8026;-220.4066;-21.61707;-14.55349;-186.7924;-189.0496;-0.02473191;-0.4328967;0;
262.2107;0;233.8003;231.3379;-29.83437;-17.28516;262.0447;260.3521;-0.2845764;0.02230969;0;
711.7212;0;653.3543;689.6875;-30.60868;-18.33952;706.8702;702.5556;-0.3492578;0.4120913;0;
428.2107;0;399.1378;441.369;-22.94113;-2.714437;429.7364;424.3017;0.1058645;0.1518079;0;
151.5443;0;144.4271;187.0531;-21.1104;1.240161;153.7556;153.8236;0.1707255;0.3465574;0;
170.3824;0;158.3998;204.7311;-18.00773;2.980471;169.718;172.7844;-0.2842175;0.4111765;0;
-243.3309;0;-224.8168;-204.1441;-16.58311;6.058691;-236.8108;-233.9973;-0.4138666;0.08592664;0;
-684.3021;0;-638.3829;-654.65;-10.67195;1.832679;-673.2284;-668.1064;-0.1535814;0.2807423;0;
-446.8585;0;-428.9089;-452.6559;-7.378698;1.227991;-440.606;-435.1768;-0.153427;-0.04437649;0;
-200.9704;0;-201.592;-224.3781;-18.4907;-2.725114;-193.9745;-192.4238;-0.3481749;-0.2392339;0;
-193.647;0;-190.2075;-216.6564;-20.81664;-5.066657;-184.5343;-186.0461;-0.152923;-0.1740262;0;
270.252;0;240.767;243.1428;-17.58054;-10.62103;270.7974;268.7873;0.1720674;-0.108884;0;
703.9498;0;648.7574;686.8004;-17.49553;-14.16033;699.2473;695.9899;0.04195977;0.2810295;0;
421.7589;0;395.2951;436.4857;-25.04739;-13.20846;421.309;418.0549;-0.08801707;0.2807471;0;
166.6507;0;158.2669;201.9148;-27.63419;-14.60171;165.3267;167.4481;-0.08792863;0.08556298;0;
173.1673;0;160.1068;207.0218;-17.15757;-12.51069;169.8457;175.2758;0.04209441;0.1504443;0;
-247.0455;0;-230.3578;-210.5389;-15.26432;-11.89527;-242.1805;-237.8178;0.3668888;0.08532584;0;
-677.6432;0;-634.798;-649.4816;-14.78047;-7.99843;-667.4108;-661.1784;0.4314875;-0.0446946;0;
-447.3902;0;-431.8868;-453.1774;-13.42547;-4.775212;-441.5408;-434.3777;0.0412499;-0.1745844;0;
-203.1882;0;-207.1906;-228.3973;-12.27388;-7.382749;-197.5946;-194.4366;-0.3485956;-0.1744089;0;
-196.1125;0;-197.1748;-222.858;-11.85941;-5.499808;-189.7124;-188.9314;-0.2183107;-0.1092664;0;
263.6036;0;228.8093;231.5751;-14.25936;-6.097128;261.0018;262.0943;-0.348026;-0.3690259;0;
709.6769;0;649.3054;689.1748;-14.71355;-6.96178;702.1426;701.485;-0.4126436;-0.1087858;0;
419.1719;0;390.4078;433.6729;-19.65526;3.628274;418.0171;416.3606;-0.08739228;0.08622558;0;
142.0148;0;132.5824;176.1789;-19.70286;6.16998;141.4234;143.8915;-0.2172392;-0.4335998;0;
168.1714;0;152.8139;200.4271;-21.08958;0.8052679;164.4571;169.9212;0.0428485;-0.1083274;0;
-233.4208;0;-218.2157;-195.9502;-18.32172;0.8044587;-229.6351;-224.8012;0.1727401;0.2166182;0;
-675.2765;0;-633.8499;-648.2758;-20.58049;-1.607735;-665.8724;-659.6691;-0.2822048;-0.2383709;0;
-442.0274;0;-428.9407;-451.5355;-20.62716;-2.476898;-437.1305;-429.9964;-0.3468886;-0.1731641;0;
-191.9587;0;-197.5632;-219.0109;6.587906;-6.694212;-186.692;-183.2506;-0.151638;0.1518467;0;
-195.389;0;-197.5521;-222.9763;13.8823;-9.232715;-187.5039;-187.5018;0.04341635;0.2166614;0;
260.7032;0;225.8087;228.2711;24.4519;-4.936652;260.2096;260.2117;-0.3464313;-0.108393;0;
706.0297;0;646.3702;685.7491;34.60776;-5.534538;700.3517;698.2299;-0.6059526;-0.3681535;0;
420.0887;0;389.9743;431.8124;14.61232;-4.859148;419.3514;415.8574;-0.02063765;-0.2378488;0;
155.3619;0;144.5182;182.9409;12.78995;-5.122197;154.3131;155.7576;0.2392524;-0.04270782;0;
167.1373;0;153.3684;194.3137;12.6424;-4.581187;165.9021;170.5311;0.239012;0.08726979;0;
-249.6962;0;-232.7792;-214.8634;8.543862;-4.308651;-242.0596;-237.6227;0.3037392;-0.1077199;0;
-682.8524;0;-638.5911;-656.4879;8.937419;-8.993006;-669.7263;-663.1699;-0.02140268;-0.1076117;0;
-450.9075;0;-431.6157;-458.7399;5.981678;-9.251901;-440.7306;-433.9309;-0.02138117;0.2823005;0;
-200.0803;0;-199.7359;-225.1461;9.726711;-15.13698;-189.1015;-187.7435;0.108575;0.1520821;0;
-190.509;0;-189.1029;-216.6116;10.85504;-17.13126;-178.4793;-181.5578;-0.02146878;0.02199464;0;
268.8891;0;235.0615;235.7538;6.624572;-12.2914;271.0992;268.5859;-0.4112512;0.5417113;0;
712.4583;0;652.2405;689.8511;6.283123;-12.01111;707.9196;705.8461;-0.410838;0.736069;0;
422.5753;0;392.9026;434.9107;10.56372;-7.176396;423.3509;420.2801;0.1093135;0.5404274;0;
153.4108;0;144.0078;186.4109;10.4184;-5.427629;154.7478;155.0534;0.3041057;0.2150476;0;
175.3081;0;161.9165;208.5873;13.02088;-3.747602;174.145;178.2608;0.4987022;-0.4348419;0;
-235.1619;0;-218.9923;-196.6062;13.0078;-3.275078;-229.0149;-225.2156;0.6281357;-0.4993723;0;
-676.6411;0;-634.8132;-648.1815;10.11434;-0.7264357;-665.5027;-660.2704;0.2377005;-0.04409913;0;
-448.0757;0;-431.902;-453.0655;10.17153;1.216799;-440.9466;-435.1573;0.04255967;-0.1739895;0;
-198.5632;0;-199.4596;-219.9772;-2.297277;-12.78361;-191.7536;-190.5303;0.1724516;-0.1088473;0;
-191.6795;0;-189.7015;-214.2589;-6.113362;-16.05281;-184.3145;-186.1535;0.04234362;-0.04377062;0;
264.8462;0;234.2761;238.1666;-2.489897;-17.84522;264.1454;262.2458;0.1072684;-0.2386287;0;
709.1066;0;653.3924;694.2604;-2.688466;-22.24804;704.2211;701.0115;-0.02277405;-0.04348686;0;
431.221;0;404.5481;449.2481;-0.9444522;-12.31245;431.5877;428.3189;-0.1526859;-0.04344317;0;
167.9823;0;160.0143;205.8563;0.5967383;-11.63025;168.2237;169.2061;-0.3474345;-0.3032689;0;
180.0573;0;167.5372;217.1437;8.835161;-12.02046;178.1745;182.4043;-0.02224864;-0.2379968;0;
-237.2264;0;-218.9994;-194.9925;12.64468;-10.19985;-232.0484;-227.7604;0.7573817;-0.04285565;0;
-676.0798;0;-631.5719;-642.8838;17.92326;-15.14621;-665.6596;-659.9392;0.3018494;0.02215475;0;
-447.765;0;-429.8509;-449.3973;21.52257;-15.26496;-440.3537;-434.4516;-0.3481273;0.1520672;0;
-201.626;0;-199.4096;-219.8734;23.24226;-16.85721;-193.9723;-191.9492;0.04202653;0.2818491;0;
-195.6763;0;-189.9014;-214.2177;26.83525;-18.04597;-187.0308;-187.7584;0.1069516;0.02169649;0;
258.2297;0;226.7676;232.0234;13.01053;-16.95611;258.8706;257.5191;-0.2179925;-0.1732273;0;
702.4968;0;641.831;685.2498;8.978971;-17.94381;698.1395;695.9149;-0.1528061;-0.2380206;0;
430.6772;0;398.8704;446.9307;18.88293;-12.76822;430.4472;428.9119;-0.2825873;-0.1078468;0;
167.9388;0;154.967;203.9161;18.99768;-10.344;166.897;168.9239;-0.3472707;-0.1077384;0;
179.0769;0;161.9327;214.3933;17.43835;-17.03178;175.9746;180.4983;-0.02208504;-0.2375648;0;
-234.3953;0;-221.6623;-195.4912;18.62628;-17.14863;-230.9353;-225.604;0.4327086;0.0875106;0;
-676.3125;0;-637.7303;-648.7543;14.85652;-13.71527;-667.6711;-661.2833;0.3023391;0.2173574;0;
-449.4966;0;-436.9401;-455.012;12.296;-13.23273;-443.6749;-437.2935;-0.1527361;-0.1726651;0;
-199.9202;0;-206.2418;-222.7963;26.01502;-10.6071;-193.8545;-190.9153;-0.0876153;-0.1075243;0;
-198.2201;0;-201.162;-222.3226;28.80192;-9.79265;-190.2239;-189.9113;0.04240742;0.08748581;0;
256.6256;0;221.4528;229.6113;17.31975;-7.371547;256.6177;256.6176;-0.02260253;-0.2374388;0;
708.328;0;645.2671;691.8981;14.6894;-5.957498;702.5731;700.8864;-0.08754716;0.08763648;0;
431.755;0;397.6179;448.2;16.68438;-6.286427;431.5655;428.756;-0.2173939;0.1525158;0;
161.5193;0;146.8442;199.4994;16.80133;-3.868725;160.7677;162.209;-0.2171754;-0.1724742;0;
172.8512;0;152.9435;207.9821;2.651907;-12.23758;169.6642;174.3523;0.1728468;-0.1723009;0;
-240.8646;0;-231.6419;-207.0809;-1.034453;-13.83275;-235.7401;-231.9313;0.4975099;-0.3020625;0;
-681.526;0;-646.6379;-660.0825;3.989453;-5.111317;-672.1588;-666.8545;0.1721733;-0.4316936;0;
-455.5794;0;-446.1512;-467.2658;2.311481;-4.16842;-450.6569;-444.4834;-0.1528365;-0.3662925;0;
-209.9949;0;-217.4426;-238.2861;14.63304;2.332868;-204.5151;-202.6581;-0.0227482;-0.2359898;0;
-201.6005;0;-205.7299;-229.4885;17.90087;5.813637;-194.1272;-195.7078;-0.08769269;-0.1707853;0;
259.8078;0;222.6366;227.3251;18.28502;3.731324;260.402;258.5731;-0.2825066;-0.4304831;0;
705.3851;0;643.4513;683.9295;20.87862;5.469131;701.3561;697.9672;-0.4121574;0.02472086;0;
431.0014;0;399.0523;442.6757;17.17394;3.521131;430.9119;426.5895;-0.1518739;0.2195981;0;
170.1367;0;157.3976;201.2271;18.02734;2.914747;170.1098;169.9771;0.2380827;-0.1054593;0;
174.401;0;159.8631;207.3342;10.57449;4.050528;174.3742;177.8023;0.3028108;0.2194834;0;
-241.94;0;-223.9797;-202.918;9.558511;3.577577;-232.7215;-230.7336;0.3025066;0.2842302;0;
-673.5424;0;-630.0504;-645.679;5.261999;0.7608211;-659.2731;-656.1628;0.4321373;-0.2357942;0;
-447.2914;0;-431.3294;-454.1262;2.10888;-1.182448;-437.4719;-432.1782;0.4317031;-0.04065521;0;
-196.7802;0;-199.6372;-221.8489;14.36427;2.234747;-187.4078;-186.8046;0.2363673;0.414157;0;
-191.9598;0;-191.8155;-218.3776;14.75198;2.165519;-181.6597;-185.1176;-0.1536742;0.3487735;0;
253.0095;0;221.3572;222.8077;27.06202;-1.38663;256.3652;253.9103;-0.3484219;-0.04138096;0;
707.0894;0;650.1066;689.2242;33.59891;-2.055067;705.8815;702.3671;-0.2831044;-0.1712741;0;
436.4521;0;407.9498;451.8382;20.36963;-7.54548;438.6812;434.5456;-0.2178526;-0.171102;0;
158.1532;0;147.6705;192.9516;22.2242;-12.02563;159.6929;160.2467;-0.2176337;-0.2358974;0;
178.2966;0;162.3272;213.4348;6.126939;-3.707788;178.5229;182.0121;-0.6721864;0.02420901;0;
-222.4937;0;-206.9004;-181.2064;-4.127972;-4.10596;-214.3341;-211.0983;-0.4116417;0.4139887;0;
-674.4178;0;-628.9178;-640.9806;20.0564;-11.40285;-660.5818;-655.9749;0.173478;0.2836381;0;
-452.7887;0;-434.3208;-453.8678;17.08949;-12.06122;-443.152;-437.9875;-0.02159829;-0.106451;0;
-201.2725;0;-204.6247;-221.7157;14.12556;-23.50294;-192.52;-191.1088;-0.02157659;-0.301246;0;
-200.3206;0;-199.7339;-219.9312;13.30708;-27.49818;-189.5779;-190.9793;-0.2164569;0.02389336;0;
257.1508;0;227.9394;234.9363;-11.5561;-22.84885;260.9487;259.4863;-0.4111415;0.3487061;0;
706.8538;0;651.9971;694.7189;-17.50634;-23.69655;705.1506;702.1904;-0.0209243;0.1534537;0;
427.2837;0;399.8434;446.8326;-38.72124;-18.85009;430.4548;426.623;0.1739988;-0.1715372;0;
164.986;0;154.4398;204.2554;-50.53868;-16.88876;168.2164;168.6363;0.04388924;-0.3662669;0;
177.6887;0;164.0297;217.9806;-33.20654;-12.45104;178.1673;181.7102;-0.2160242;-0.1709969;0;
-236.4692;0;-218.1931;-191.9075;-32.83838;-8.419555;-229.5569;-226.3299;-0.2807745;0.1540117;0;
-669.8262;0;-627.8928;-638.5526;-30.52724;-10.28662;-657.7984;-653.2003;0.2392463;0.4137263;0;
-448.2642;0;-434.7336;-451.692;-27.48245;-7.731051;-439.4344;-434.8409;0.1740386;0.3483433;0;
-201.8748;0;-204.7247;-220.729;-12.45164;-8.459973;-193.4912;-192.2132;-0.150973;0.1530912;0;
-193.3012;0;-191.588;-213.3858;-3.530518;-7.915731;-183.0519;-184.5238;0.04408075;0.02300268;0;
250.3576;0;220.2101;225.4831;-11.96609;-3.687853;253.5376;251.8174;0.1090038;-0.2368898;0;
697.881;0;641.3395;684.2758;-8.873582;-3.215267;695.623;693.4047;0.1738616;-0.1716844;0;
424.9416;0;397.0051;443.7713;-12.61571;3.084115;427.3086;425.4049;-0.02121511;-0.2364793;0;
150.7147;0;143.296;189.8278;-15.41607;6.564129;152.8295;155.5504;-0.2160958;-0.496111;0;
175.988;0;161.7677;213.3752;-4.147449;-0.4755527;175.1646;180.8188;-0.02097666;-0.1707758;0;
-224.0503;0;-210.5828;-183.0151;-1.932479;-0.006194355;-218.1263;-213.2899;-0.2158576;0.02429781;0;
-683.2193;0;-641.6544;-650.8459;-12.9826;1.869334;-671.5541;-664.9734;-0.1506734;-0.1706286;0;
-465.3295;0;-451.4174;-468.4708;-14.91194;2.336214;-457.1118;-449.3508;0.2392821;0.02444484;0;
-203.9306;0;-209.2104;-225.6844;-11.41433;3.673525;-195.8461;-193.2153;0.304009;0.154355;0;
-214.2204;0;-213.8727;-234.9529;-12.67566;2.66509;-204.9571;-206.1396;0.1737688;-0.1706368;0;
230.8338;0;196.7609;202.8133;-7.571731;13.17849;231.1547;231.5976;-0.02130779;-0.1704654;0;
701.9899;0;638.5285;679.7446;-6.157603;15.77758;697.0007;696.4436;-0.08625372;-0.04035942;0;
429.796;0;395.009;439.6195;-9.90246;7.723898;429.0597;427.2538;-0.1511344;0.1545832;0;
155.2519;0;136.9291;182.4318;-9.959859;6.3766;152.3924;154.274;-0.2809172;0.6741666;0;
171.0879;0;144.2878;193.9301;-10.28464;2.016303;164.4207;168.4867;-0.02076559;0.6734892;0;
-233.2559;0;-231.6059;-206.626;-10.07324;-1.535697;-233.2323;-229.5451;0.4340267;0.6078451;0;
-669.0523;0;-639.7303;-651.9444;-12.67509;-3.074761;-662.7194;-657.4117;0.3686232;0.4772997;0;
-452.0513;0;-444.7477;-466.5072;-13.33291;-4.67914;-446.9741;-440.8597;-0.02155123;-0.107886;0;
-203.9716;0;-213.0421;-233.7802;-10.43913;-12.1764;-197.4002;-195.4773;0.2383398;0.2170591;0;
-198.5817;0;-204.02;-228.1105;-9.490631;-14.77638;-190.3928;-192.0325;0.4979697;0.2818083;0;
247.3313;0;208.9151;212.4598;-8.208298;-9.068108;247.2037;245.3781;-0.2821388;-0.4980829;0;
702.4164;0;635.5531;676.7629;-7.195672;-8.45615;696.9791;693.7811;-0.5417247;-0.5625498;0;
424.8498;0;389.7253;434.017;-3.437397;-2.285467;424.9151;421.0957;-0.08640894;-0.1721805;0;
146.2502;0;132.1504;175.9604;-1.960075;0.9320101;146.0656;147.185;0.04361257;0.02289454;0;
178.462;0;156.6302;205.4562;-1.958105;2.203627;175.9663;180.2704;-0.0213986;0.2177736;0;
-223.7028;0;-213.5911;-190.3639;-1.420274;4.88073;-217.4504;-214.15;-0.08634444;0.4124568;0;
-687.8071;0;-647.096;-660.3738;-4.634028;2.732372;-675.1267;-670.7678;-0.2811597;0.2821077;0;
-462.7288;0;-449.4823;-469.3684;-6.571755;2.79661;-453.8093;-449.8919;-0.1509425;0.2168569;0;
-197.3345;0;-203.8414;-222.7705;-4.690117;2.190953;-188.6738;-188.8833;0.1090785;0.1516716;0;
-202.0712;0;-203.8864;-227.8565;-4.484334;1.117147;-191.6077;-194.3157;-0.02096576;-0.1083502;0;
243.0332;0;208.9235;212.9635;-11.98192;0.580161;246.5522;243.7219;-0.2808141;-0.04327396;0;
702.5579;0;641.496;684.2625;-12.90788;-0.2242171;701.5132;696.6868;-0.4104666;0.1516716;0;
427.0526;0;396.3494;444.5076;-13.63087;-1.965548;430.1943;424.9979;-0.3450868;0.08655182;0;
153.1984;0;141.9538;192.375;-15.02467;-2.566419;156.2745;156.0808;-0.2148054;0.1514322;0;
168.6616;0;151.5563;206.487;-2.550992;-3.702429;170.2979;173.1653;-0.08465485;0.4761167;0;
-238.4283;0;-223.3452;-195.0188;1.471036;-4.904401;-228.5479;-226.3704;0.04536489;0.3457037;0;
-675.0317;0;-631.2281;-638.7247;-2.014043;3.741081;-659.9763;-655.7395;-0.2795174;-0.1743824;0;
-455.5883;0;-439.0026;-453.3008;-1.609878;7.957125;-445.5455;-439.7514;-0.4091712;-0.3691092;0;
-208.4421;0;-210.6761;-223.8979;6.161272;-0.6914248;-198.0345;-196.3067;-0.08392338;-0.1738364;0;
-199.1122;0;-196.5339;-213.9278;8.433233;0.4479797;-185.8416;-188.4258;-0.2137737;-0.043727;0;
246.6764;0;216.8934;227.253;-0.9533393;4.131469;252.6248;249.4186;-0.2785263;0.2161863;0;
697.077;0;640.3375;687.4807;-2.090481;4.529215;698.8341;694.0693;-0.2132791;0.2159691;0;
427.1994;0;399.8147;450.6586;-8.586091;16.84928;433.39;428.2552;0.306674;-0.174052;0;
149.472;0;139.9808;192.4604;-12.19381;21.2531;153.9697;153.2129;0.5012679;-0.3687791;0;
168.4372;0;151.7717;209.4458;-6.288036;17.14591;170.5566;173.3613;-0.01897456;-0.04357185;0;
-227.9704;0;-214.4468;-182.5677;-5.276363;18.06632;-218.0445;-214.5555;0.3058812;0.151374;0;
-677.89;0;-637.706;-643.5274;-6.611208;18.18213;-662.9767;-658.4292;0.3055739;-0.1736149;0;
-461.1925;0;-448.6599;-463.9707;-5.599211;17.15924;-450.9792;-446.249;-0.2144719;-0.1734404;0;
-202.8587;0;-209.5791;-223.7501;2.377018;14.46268;-193.1555;-191.9906;0.04561295;-0.04333145;0;
-204.7163;0;-206.245;-224.5247;5.053946;11.83594;-193.3362;-195.3584;0.1105345;-0.04328791;0;
237.0799;0;203.7562;212.7312;10.34015;9.21171;240.7025;238.5573;-0.4742827;0.08669028;0;
704.6691;0;639.3325;687.7786;14.28188;6.657225;702.3535;698.9611;-0.4088388;0.1515705;0;
439.344;0;399.8726;454.267;7.233955;1.492972;441.0287;437.2025;-0.1485586;0.2813529;0;
155.4825;0;137.7898;191.8797;6.62445;-1.723709;157.228;157.8409;-0.4082787;0.4110049;0;
170.2563;0;148.5209;206.1796;6.349373;0.6224256;170.0011;174.1115;-0.1479991;0.0857552;0;
-231.0257;0;-222.9417;-191.1404;4.601682;0.5548173;-223.8469;-219.8655;0.2419537;0.2156037;0;
-680.8173;0;-646.6921;-652.7787;4.463336;-2.058074;-669.0856;-663.9212;0.1117759;0.2803544;0;
-467.3652;0;-459.636;-474.8369;3.520846;-1.855058;-459.9555;-454.484;-0.08323847;0.02020333;0;
-215.3345;0;-224.9169;-239.9152;2.981445;-0.5135352;-207.4326;-206.9016;0.04677985;-0.174719;0;
-206.1227;0;-212.2596;-231.928;3.313242;-0.7809509;-196.1672;-199.8222;0.1117002;-0.3044781;0;
243.1087;0;203.5573;211.5822;2.908747;5.984988;244.8708;240.8447;0.3714573;-0.04430281;0;
698.5104;0;632.0123;678.2599;4.043924;7.854374;694.7111;689.5021;0.5659861;-0.1092256;0;
433.4414;0;396.7451;447.1318;4.910517;6.506946;434.5184;429.4396;0.4354827;0.08578616;0;
161.0176;0;143.3486;192.935;4.771861;8.777705;162.2809;161.705;0.3700778;0.08569995;0;
171.6004;0;147.8898;201.2994;14.41261;-0.4745155;170.6136;173.3491;0.1748039;-0.3041902;0;
-239.3655;0;-232.7551;-204.8863;17.21117;-1.679731;-232.4178;-230.4347;0.304563;0.1508868;0;
-690.7105;0;-658.4946;-668.5723;13.30911;-2.950719;-678.7098;-675.9166;0.3692243;0.08576788;0;
-470.4393;0;-465.9919;-484.3677;13.63053;-7.033591;-462.6361;-458.8463;0.1089839;-0.239155;0;
-205.9743;0;-221.084;-236.8802;10.20058;10.18772;-197.9291;-197.7037;0.1738417;0.4107587;0;
-202.4565;0;-213.1158;-233.7686;8.716459;13.25858;-192.233;-195.1313;0.1086997;0.2804113;0;
236.7137;0;196.2677;200.748;4.488142;6.681174;239.7431;237.7223;-0.2162462;-0.1096745;0;
703.1163;0;636.0369;677.8688;2.005386;7.947015;700.8953;697.3148;-0.4758983;-0.1745317;0;
442.6029;0;404.8262;452.9254;1.60123;-1.438337;445.5066;440.368;-0.4104528;-0.499193;0;
163.4858;0;147.1112;197.7234;-0.2090404;-4.250053;167.7608;166.6878;-0.345073;-0.4986914;0;
175.5654;0;156.1463;210.893;4.145426;-4.848629;178.6492;180.9506;-0.2147916;-0.3032883;0;
-230.7194;0;-219.8842;-190.5547;5.748851;-7.322125;-220.0175;-217.9059;0.500065;-0.1080815;0;
-683.0726;0;-647.0734;-652.506;5.340933;-5.506229;-667.1965;-663.7127;0.6294972;-0.1729403;0;
-471.7421;0;-460.2668;-473.5649;7.948511;-6.103543;-458.943;-454.9629;0.1740933;-0.2377338;0;
-218.5202;0;-223.9853;-235.521;6.734099;-4.020939;-205.2966;-205.5059;-0.08595099;-0.1725276;0;
-210.5545;0;-213.2655;-226.4763;8.000131;-3.681984;-195.4702;-198.178;-0.2807667;-0.04241958;0;
237.3695;0;203.4269;217.7781;14.42245;-0.9321061;244.6926;242.9245;-0.4104192;0.2174924;0;
699.1488;0;637.6916;689.8843;16.81886;0.1405574;699.6554;696.14;-0.1501375;0.7370126;0;
438.452;0;403.9805;461.3057;20.15184;-1.869072;442.2065;437.3203;0.04491542;0.54137;0;
161.4629;0;147.6407;203.5965;22.54249;-1.197364;166.4005;165.2049;-0.2149991;-0.238782;0;
171.4831;0;154.1765;214.0116;21.98397;-8.698006;175.2288;177.1578;-0.3447177;-0.1735748;0;
-229.3628;0;-217.0419;-181.6922;22.5651;-11.10065;-218.6868;-216.9472;-0.1494693;-0.04346568;0;
-675.658;0;-637.4874;-640.2166;23.61415;-10.55363;-661.1821;-658.0074;-0.1493191;-0.238324;0;
-462.9606;0;-451.8773;-463.5992;24.79587;-13.55714;-453.2469;-448.1389;0.04573292;-0.04318254;0;
-210.4971;0;-217.9156;-227.1895;15.86235;-5.237878;-198.7942;-197.6268;0.1756216;0.08679555;0;
-211.5974;0;-214.5732;-227.6484;12.09536;-3.491059;-197.345;-199.8645;-0.1493915;-0.173161;0;
228.7065;0;192.7503;207.3618;23.00155;-10.92253;233.6367;231.9319;-0.2791761;-0.1080197;0;
696.0541;0;631.9607;683.8514;24.31761;-11.71535;695.2948;691.9675;0.04594113;0.4118276;0;
433.2365;0;397.8806;452.4677;18.59975;-12.10548;436.8507;433.027;-0.08403972;0.4114138;0;
150.5681;0;135.3001;190.2071;18.44734;-12.76315;154.5534;155.5437;-0.21389;-0.04377102;0;
172.5931;0;152.2805;212.3798;17.28972;-14.6927;175.4501;178.8756;-0.1487077;0.346077;0;
-227.1295;0;-218.9985;-184.2594;15.79946;-15.6157;-217.4038;-214.1692;0.1113111;0.475664;0;
-684.6711;0;-649.9367;-652.9011;18.52927;-13.65751;-670.2701;-665.2272;0.3710686;0.4102187;0;
-464.2811;0;-456.6305;-467.4004;17.84107;-13.50982;-453.5802;-448.6048;-0.2140103;0.5397412;0;
-204.5074;0;-217.9164;-226.864;15.81341;-12.35765;-194.2546;-193.7819;-0.538632;0.08442744;0;
-208.2375;0;-217.7599;-232.2582;14.79315;-11.87636;-196.6831;-198.897;-0.1482867;-0.1105594;0;
232.0006;0;192.2529;203.5063;12.16631;-9.25209;236.0471;234.71;-0.01820303;0.01948634;0;
693.6603;0;628.3405;675.6893;11.75195;-7.501359;692.9551;690.3075;-0.08315209;-0.04550058;0;
429.5957;0;394.5138;446.2504;3.300044;-11.24474;433.1391;429.6821;-0.08306853;-0.1753895;0;
152.6155;0;136.1845;188.1815;-0.7217596;-10.96551;155.0934;155.1381;0.111917;-0.1752133;0;
167.767;0;144.1686;198.862;11.13433;-12.22717;167.7437;170.287;0.1767718;0.1497995;0;
-237.0107;0;-231.2876;-200.9495;13.66874;-13.35347;-229.2879;-226.7471;0.04665954;0.08468161;0;
-689.3575;0;-656.5288;-662.6404;6.35399;-6.441057;-676.2078;-671.8579;-0.08332203;-0.2402402;0;
-473.4606;0;-465.9646;-481.5653;6.481328;-4.291131;-464.0096;-459.2269;-0.01827096;-0.1750315;0;
-215.6767;0;-227.4286;-242.4513;11.56601;-4.956649;-206.0478;-205.7051;0.6314207;0.2799158;0;
-208.5259;0;-218.0796;-237.7724;13.22835;-1.870575;-197.345;-200.6884;0.5008517;0.1496999;0;
233.2116;0;193.058;200.3714;14.88999;-6.088499;237.1349;233.2952;0.1105444;-0.2402546;0;
691.5593;0;625.2716;669.6215;17.15221;-5.680483;690.856;686.1456;0.240368;0.1497909;0;
425.3104;0;387.0128;436.5031;12.78072;2.697847;427.9186;423.7752;-0.01974291;0.279575;0;
137.465;0;118.821;169.8233;10.82549;4.704624;139.321;139.0548;0.1102116;0.08439209;0;
164.001;0;138.8165;194.4527;22.87203;11.666;164.2934;166.0264;0.7597742;0.4741113;0;
-219.2213;0;-215.6449;-184.3024;26.1306;15.74012;-211.4329;-209.6392;0.4341742;0.5386023;0;
-685.7664;0;-652.2086;-658.7537;14.91856;10.7007;-672.4886;-669.1974;-0.1509682;0.08328971;0;
-473.3087;0;-465.3344;-480.2437;14.30036;10.35503;-463.7924;-460.6295;-0.2807512;0.01823866;0;
-196.9718;0;-209.6201;-221.6408;14.01855;12.22003;-186.653;-187.7411;0.1743023;0.08318769;0;
-203.2706;0;-209.0972;-226.6655;13.13381;10.46632;-189.339;-193.2996;0.4339965;-0.04683059;0;
227.0924;0;191.5992;199.5356;17.27282;10.58977;233.9511;230.9315;-0.3460476;0.0181838;0;
695.5037;0;631.6853;677.5947;18.05975;9.775331;697.1081;692.4673;-0.4756346;0.3430023;0;
431.9994;0;397.0432;449.2783;22.26116;0.6560731;437.2879;431.4649;0.1745167;0.1477556;0;
152.2682;0;137.7119;192.3933;24.44959;-1.889938;156.6768;156.4194;0.1743414;-0.3071643;0;
171.1057;0;151.1292;210.1284;22.88381;-5.973876;173.8232;177.0643;0.1091988;-0.1119536;0;
-228.8028;0;-219.5863;-185.259;22.32495;-9.517846;-217.9671;-215.9786;0.2390238;0.2779629;0;
-679.971;0;-643.9648;-643.405;27.39371;-1.001694;-663.1492;-659.601;0.04388161;0.2776836;0;
-467.7691;0;-457.5986;-464.3482;28.16949;0.1380221;-454.7748;-449.7934;-0.3459665;0.4723066;0;
-209.3038;0;-218.3838;-226.6259;21.10859;0.2048663;-196.8848;-196.0313;-0.4755536;0.4068647;0;
-202.8466;0;-208.6691;-222.9624;20.48417;1.34337;-189.503;-192.0237;-0.2152064;-0.2432175;0;
234.0127;0;198.9608;210.169;7.871281;3.083455;239.9091;237.5784;-0.2149901;-0.2429731;0;
692.2346;0;630.5438;680.9711;1.030868;4.620964;694.2521;690.5494;0.1100626;0.08210772;0;
429.9206;0;394.1537;451.5893;17.10574;1.066347;435.3093;431.6728;0.499756;-0.04790948;0;
149.192;0;134.3256;189.8294;18.69614;1.802088;152.7637;153.816;0.1094498;-0.2427634;0;
171.8431;0;152.5564;212.4397;10.77312;-2.888528;173.912;178.399;-0.2154968;-0.3074868;0;
-219.8827;0;-211.539;-174.1421;10.96337;-3.95723;-209.5701;-205.5249;-0.02037828;-0.3721451;0;
-680.805;0;-644.1713;-645.1677;8.474106;-0.8721613;-665.1304;-660.1522;0.4993809;0.01803283;0;
-469.0395;0;-458.3047;-468.6703;6.322137;-2.009995;-457.6285;-451.8433;0.4339118;0.1479494;0;
-198.454;0;-208.4695;-217.9502;15.96133;8.441118;-187.117;-185.7728;-0.1512303;-0.3069707;0;
-204.0017;0;-208.5724;-224.0405;19.29419;10.97799;-190.0524;-192.3327;-0.281013;-0.3716296;0;
222.9887;0;187.1259;199.0345;6.682502;9.091435;229.053;227.1498;-0.2157633;-0.2413215;0;
698.2132;0;633.1511;682.4664;5.068197;10.89084;698.3994;695.1237;-0.02064446;-0.3710137;0;
441.4529;0;406.2536;459.1426;9.081592;3.310947;447.1985;443.0516;0.304213;-0.3056735;0;
149.7807;0;137.1055;190.0663;8.135438;2.101927;155.8953;156.0005;0.04403795;0.2143724;0;
168.5581;0;150.5234;207.8038;15.09349;-2.722834;172.1055;174.9591;-0.1509083;0.5389937;0;
-219.8536;0;-209.7593;-176.0247;17.55657;-5.935157;-208.9385;-206.4626;-0.1507567;-0.046254;0;
-676.5905;0;-638.9577;-641.0515;12.78253;-1.106544;-659.627;-655.6542;-0.08563787;-0.1111749;0;
-475.5114;0;-463.0912;-474.9905;12.63596;-2.244142;-461.6883;-457.7196;0.3692196;0.2137736;0;
-218.8498;0;-225.9949;-238.3819;14.96779;4.054387;-205.4155;-206.1983;0.6936853;-0.111278;0;
-210.6964;0;-214.8983;-230.8336;14.8854;6.595664;-195.9012;-199.5569;0.1732495;0.2136706;0;
228.0448;0;192.8003;203.5551;14.66938;1.230524;235.0166;232.9263;-0.476598;0.6682273;0;
691.5201;0;629.1996;677.05;15.3252;1.095322;693.2375;689.7126;-0.281217;0.1478171;0;
438.5146;0;405.1172;458.2293;9.549022;0.6923237;444.1033;439.4575;0.1738369;0.08270124;0;
161.5255;0;148.7763;200.7106;8.132907;-0.5140647;166.2965;166.0906;0.1086949;0.3424875;0;
178.6045;0;157.9347;213.44;11.94313;0.02231524;181.7466;184.7892;-0.1512837;0.01730664;0;
-220.1871;0;-213.5999;-180.8264;12.19857;-0.04469011;-209.3646;-206.5748;-0.216099;0.01728925;0;
-686.8561;0;-650.1656;-654.3441;14.73191;-4.398414;-670.6722;-666.6984;0.3688242;0.2121739;0;
-473.9601;0;-463.0436;-474.9015;15.78883;-4.795892;-461.3532;-456.8836;1.018127;0.01705869;0;
-200.6835;0;-212.0168;-222.3011;18.11652;-6.398664;-188.4641;-188.1219;0.6272999;0.1469762;0;
-206.6038;0;-212.8033;-231.6979;19.7059;-7.932841;-192.3976;-195.8039;-0.2179058;0.1468286;0;
224.0124;0;187.3345;194.2585;17.00776;1.385635;230.7706;227.6176;-0.6074909;-0.3730577;0;
697.6741;0;630.4235;676.9456;16.58853;3.125677;698.366;693.9044;-0.4769458;-0.04784616;0;
442.2886;0;401.9671;454.8141;19.51863;4.060297;446.2907;440.8965;0.1082395;0.147104;0;
160.7355;0;139.6323;193.3009;21.57609;6.199672;163.6716;162.1559;0.2380654;-0.1129132;0;
177.9403;0;150.1117;207.4744;10.435;-0.03584862;179.2492;180.3587;0.04292418;0.2120369;0;
-217.6647;0;-215.0432;-182.7255;7.276686;-1.442454;-208.0488;-207.0029;0.2377831;0.3417586;0;
-674.5287;0;-641.8;-647.1209;18.8573;-0.1683291;-658.6132;-655.6318;0.4974135;-0.04838889;0;
-472.952;0;-464.1815;-476.681;19.64166;-0.1681599;-459.801;-456.2604;0.3020117;-0.5031117;0;
-219.4789;0;-230.2075;-240.0707;22.76975;-7.000128;-206.5286;-206.6147;0.1068062;-0.4376388;0;
-211.2624;0;-218.7943;-234.5197;25.29247;-9.270392;-197.2006;-199.7854;-0.2181378;0.01757234;0;
231.2275;0;193.0311;202.5589;19.50628;-1.826216;237.7165;235.4466;-0.3478533;0.4073587;0;
698.1979;0;633.803;680.4901;18.4823;-0.484722;700.8073;696.6656;0.04230025;0.4719168;0;
446.7473;0;411.7774;465.2266;19.13332;1.257321;454.6639;450.2141;0.1721924;0.2765405;0;
163.628;0;148.6832;204.7024;17.84129;3.265424;171.5367;171.9014;0.04208473;0.34123;0;
174.6455;0;152.8442;213.7421;14.74288;3.66404;180.6721;183.7227;-0.08789224;0.2109525;0;
-220.3315;0;-212.9381;-176.3392;12.98676;4.062256;-207.4394;-204.8292;0.1070981;0.01583848;0;
-680.3788;0;-643.1328;-643.6146;11.23142;6.737492;-662.1273;-658.3953;0.4318272;0.3406593;0;
-473.2364;0;-461.1403;-469.8049;10.14841;7.333447;-458.6265;-454.4609;0.1065566;0.145415;0;
-204.2709;0;-212.5516;-218.7088;9.803418;2.570411;-189.2383;-189.0125;-0.2183872;-0.3095025;0;
-206.8767;0;-211.0262;-222.6745;10.06199;1.496224;-189.2356;-192.9455;-0.1532004;-0.2442242;0;
219.2421;0;181.801;195.7141;12.12798;-3.193963;227.4327;224.4137;-0.4129159;0.1458252;0;
700.4048;0;632.5792;685.2088;13.79074;-5.468173;702.153;698.8871;-0.5424356;0.4705154;0;
452.0131;0;414.053;471.0651;17.66164;-5.328713;458.8194;454.6198;0.2377175;-0.0496961;0;
154.0209;0;139.5248;195.2926;20.65801;-7.198881;161.1328;160.6855;0.5623153;0.01532117;0;
172.4818;0;153.3775;214.7115;20.97204;-1.297271;178.1497;181.0137;0.3668483;0.4051099;0;
-208.8749;0;-199.5992;-161.6901;21.75525;0.1106739;-196.7784;-193.6049;0.5613818;0.01489872;0;
-675.0556;0;-636.6164;-636.5389;27.96171;-1.764959;-657.9113;-653.929;0.1710136;0.4046878;0;
-473.1035;0;-458.8782;-469.1706;29.07269;-0.9593908;-458.725;-454.4343;-0.0890276;0.4692485;0;
-206.3244;0;-211.6662;-221.0736;29.24455;-2.499034;-191.4607;-190.6725;0.2358986;-0.1808964;0;
-208.6159;0;-210.3915;-223.2878;31.02382;-3.300196;-191.2683;-193.6669;-0.2840772;-0.05077996;0;
224.876;0;190.8683;205.0964;17.46234;-0.9525996;234.0852;232.3762;-0.2188244;0.01423841;0;
696.9751;0;636.1401;687.2728;13.49268;-0.3487961;700.1781;697.034;0.5610036;0.0142241;0;
444.089;0;411.6134;467.1925;17.89975;-5.037129;452.911;447.9585;0.5604399;0.2091118;0;
160.9724;0;146.9577;203.9801;15.87301;-5.433965;170.7225;169.2732;0.23504;0.1439344;0;
174.7411;0;156.1178;219.0175;18.93754;-5.026608;182.7323;184.7828;-0.1550002;0.07882242;0;
-214.6763;0;-203.171;-165.6343;19.05224;-4.552676;-198.947;-196.7112;-0.4147138;-0.05119148;0;
-668.3574;0;-628.3156;-629.3597;19.90473;-3.476375;-647.1467;-643.7888;-0.02449306;-0.1161074;0;
-468.8483;0;-453.6467;-462.8107;20.48696;-3.539865;-451.532;-447.5527;0.3653356;0.01394397;0;
-209.6947;0;-214.3734;-221.9665;20.06424;5.774076;-192.958;-192.356;0.2350338;-0.05103739;0;
-205.9858;0;-206.5993;-219.682;20.84836;8.983333;-187.2669;-189.664;0.104863;-0.3758228;0;
224.38;0;192.2829;206.1373;14.53077;5.223384;235.7088;232.5644;-0.2200791;0.1442936;0;
693.9184;0;633.118;684.5646;12.57379;5.419085;698.7391;693.7863;-0.5446947;0.2740833;0;
439.2863;0;406.283;459.552;12.15901;4.341912;447.4129;441.778;-0.2193107;-0.5058002;0;
148.6158;0;135.823;188.7261;9.06631;2.595993;156.6093;155.4153;-0.0891556;-0.2454227;0;
172.2045;0;152.8654;211.9622;16.0898;1.186865;177.6913;179.9967;-0.283968;0.144628;0;
-209.964;0;-202.4222;-167.81;17.21271;-0.4219176;-198.1734;-196.4325;-0.34865;0.07951535;0;
-678.33;0;-643.7469;-647.2128;12.64008;-6.78475;-662.4908;-659.3774;0.1064717;-0.05049925;0;
-477.0618;0;-469.1874;-480.6459;14.77084;-9.390145;-466.111;-462.2511;0.171332;-0.4402526;0;
-205.906;0;-217.7172;-225.7283;3.302768;-11.85908;-194.8413;-195.483;-0.02374216;-0.3748429;0;
-213.9449;0;-220.1221;-233.2476;-0.3178735;-14.92826;-200.2677;-204.0946;0.3660857;0.2752072;0;
210.8691;0;172.5893;185.6513;12.27475;-8.483016;216.6616;214.1503;-0.02408615;0.5348001;0;
693.2897;0;625.3132;678.2171;11.86125;-8.005733;693.0793;689.5711;-0.7387027;-0.0504434;0;
446.7791;0;407.3567;463.5807;21.82967;-9.806107;451.2541;446.5;-0.3481564;-0.3752294;0;
154.4144;0;136.2709;190.9391;26.49581;-9.595304;159.5096;158.9457;-0.02296986;-0.3098851;0;
167.0028;0;143.1929;204.4279;14.34539;-11.3942;170.9685;173.3412;0.1069879;-0.6344104;0;
-216.7846;0;-211.023;-172.713;14.80047;-11.71767;-204.0774;-202.3318;0.4317171;-0.4388709;0;
-677.2728;0;-641.282;-639.5547;7.349883;-13.78224;-658.7062;-655.1508;0.1714139;-0.1135932;0;
-479.6912;0;-468.974;-474.6197;3.792524;-13.70141;-464.7665;-460.2776;-0.153595;-0.1784464;0;
-210.9066;0;-222.1266;-226.3298;9.415768;-18.57728;-196.1218;-195.5729;0.04146136;0.211537;0;
-208.2584;0;-216.0314;-227.4767;7.129131;-20.5681;-191.1771;-194.7517;-0.283417;0.3412591;0;
223.0467;0;185.484;197.9131;16.70016;-12.24179;232.677;229.0436;-0.6729363;0.2759489;0;
700.6449;0;635.8837;686.0938;19.49642;-10.68888;704.3935;700.2015;-0.1525214;0.2107042;0;
445.5688;0;410.4827;465.6398;13.04647;-9.941331;454.4985;449.4361;0.1724686;-0.3742136;0;
149.4572;0;136.5202;192.0592;14.23881;-8.591683;158.9401;157.3186;-0.2175088;-0.3738376;0;
173.3574;0;153.8118;216.5414;8.062558;-7.913342;179.8948;181.8981;0.1075465;-0.04862522;0;
-205.5014;0;-198.4783;-159.4873;6.313145;-7.302545;-191.6618;-190.2852;0.4972425;-0.3084457;0;
-682.9923;0;-646.8033;-646.5822;8.382906;-7.161242;-662.42;-660.9198;0.1069388;-0.2431685;0;
-485.2176;0;-473.8651;-482.5146;6.967964;-5.613438;-468.3516;-465.3537;-0.02310333;0.0819126;0;
-200.0607;0;-210.7085;-218.0375;13.32397;-16.12387;-184.2735;-184.6519;0.3667239;-0.04810441;0;
-208.2304;0;-213.1829;-225.1272;15.32032;-19.4567;-190.1478;-193.7742;0.4313228;-0.3079254;0;
208.4569;0;174.649;189.0784;12.62561;-10.05978;219.8997;217.1515;0.3659221;0.01722068;0;
692.5665;0;628.8076;679.9541;13.68465;-9.580792;698.1258;694.006;0.1706523;0.3420401;0;
439.3101;0;403.7886;459.8187;14.9437;-7.829731;448.5494;443.7466;-0.2842905;0.2767291;0;
148.3272;0;134.2681;191.2414;17.00479;-6.013325;156.9325;156.9447;-0.4139395;0.4063857;0;
176.9762;0;157.8713;218.348;13.37038;-6.610129;183.9487;185.9598;-0.2186216;0.34101;0;
-206.9462;0;-195.9221;-159.9313;13.0895;-5.196846;-191.9223;-190.9752;-0.2184019;0.01583065;0;
-675.2528;0;-635.4417;-634.9068;19.17192;-7.669992;-654.4344;-651.4267;-0.4130845;-0.0491526;0;
-481.5463;0;-466.5753;-474.9739;19.68851;-8.198027;-463.7473;-460.0555;-0.2827348;0.01586413;0;
-222.1926;0;-226.1021;-233.7427;24.89267;-6.247406;-203.6618;-204.1592;0.3672228;0.01584819;0;
-225.2177;0;-224.4381;-237.3184;26.27417;-6.776992;-205.1438;-208.7016;0.4967885;-0.1790698;0;
212.6012;0;181.0212;194.3282;26.1814;-6.167336;224.409;220.8548;-0.08841679;0.01601219;0;
700.0799;0;638.4843;690.5709;28.29855;-6.63002;706.5035;701.8285;-0.4131646;0.4058002;0;
453.1877;0;420.5145;477.6087;14.40501;-7.092238;464.5399;459.3698;-0.02294545;0.08055571;0;
157.8181;0;148.4785;204.8282;10.10363;-7.018129;169.034;167.9295;0.04204495;-0.1793946;0;
171.2152;0;156.7;218.303;16.32277;-11.76674;179.1714;181.7537;-0.02296464;-0.114247;0;
-208.641;0;-198.4665;-158.7894;14.69878;-12.96049;-194.1336;-191.6788;-0.1528762;0.1457372;0;
-675.3217;0;-639.4203;-638.0764;15.82211;-12.07681;-655.0817;-652.3795;-0.0877553;0.08062338;0;
-483.2393;0;-471.4244;-482.2632;15.73984;-12.19864;-466.7053;-463.756;0.2371696;0.01557501;0;
-210.8279;0;-219.2647;-228.0312;14.3175;-10.37785;-195.5599;-195.7995;0.1069966;0.2104614;0;
-218.4872;0;-222.2303;-234.9859;13.43246;-9.094744;-201.3604;-205.3478;-0.0230456;-0.1145868;0;
199.0226;0;165.8605;178.7298;14.75813;-6.808307;208.8233;204.1528;-0.02302244;-0.2444063;0;
692.6994;0;629.8356;680.2356;14.60958;-4.457064;695.8061;690.4531;-0.347836;0.275578;0;
454.1854;0;416.8094;471.7191;11.04493;-4.050687;460.8497;455.0023;-0.6073559;0.01543171;0;
150.5689;0;133.0331;188.3248;11.2349;-3.443771;157.1016;155.1331;-0.4768109;-0.04955114;0;
168.8459;0;145.5805;207.0011;1.510722;5.736107;173.373;175.1546;0.1733416;0.01546599;0;
-205.3233;0;-201.8912;-163.2709;-2.308213;10.08411;-193.4294;-191.0874;0.4980041;-0.6342229;0;
-674.6934;0;-642.7791;-642.241;5.732058;0.0267836;-656.4398;-652.9131;0.3026017;-0.7635204;0;
-485.4228;0;-476.4665;-486.3612;4.587222;-0.8440214;-469.7487;-466.2256;-0.08750639;-0.8926879;0;
-216.7574;0;-227.2378;-236.3105;13.29015;3.376629;-201.5362;-202.2646;0.04251622;-0.4370195;0;
-214.0408;0;-220.4502;-233.4494;18.03222;2.837373;-197.3982;-201.6865;0.3673102;0.08315837;0;
210.6484;0;172.8862;187.1364;3.680484;6.317635;220.6526;216.2436;-0.02286292;-0.5016313;0;
685.3231;0;619.113;670.2055;2.069196;7.516857;691.1943;685.4154;-0.412644;-0.7609966;0;
440.882;0;404.7859;459.7;7.090958;4.964075;452.1196;445.9717;-0.02242532;-0.3704279;0;
157.7061;0;142.9481;197.8695;6.212201;5.093053;167.8704;166.7887;0.3674013;0.08471571;0;
174.3517;0;152.9868;214.3498;7.747177;3.949225;181.1325;183.2378;0.3020647;0.2145653;0;
-213.0039;0;-206.049;-166.6742;7.203528;2.538616;-198.4213;-197.3177;0.4316959;0.01944763;0;
-680.3674;0;-642.5599;-642.0177;8.60281;5.550297;-659.1153;-657.2006;0.2363601;-0.1754739;0;
-487.093;0;-474.8733;-484.4514;9.3311;4.941874;-469.1731;-466.3858;-0.1536814;-0.435167;0;
-209.243;0;-220.1489;-227.7185;3.96309;2.659488;-191.1537;-192.2423;-0.02359232;-0.2398277;0;
-210.532;0;-215.3675;-227.6146;3.289522;1.518228;-190.0871;-194.2355;-0.1535033;0.08525001;0;
204.596;0;169.3431;184.2822;-0.1973836;-3.104998;216.0249;213.1924;-0.3482511;0.1501317;0;
696.3306;0;629.9413;683.3461;-3.010224;-5.714212;701.751;697.7346;0.2368049;-0.1098885;0;
454.0648;0;416.4154;474.0768;3.825303;-7.583992;465.7892;459.6528;0.1715996;0.02015655;0;
148.8868;0;133.7639;192.2419;4.022531;-9.719704;161.7238;159.5291;-0.4782462;0.150071;0;
172.7251;0;152.9323;218.9102;4.889145;-10.91563;183.1754;185.0434;-0.2828636;-0.3048512;0;
-203.2595;0;-192.8602;-150.5617;7.29513;-11.97639;-184.8238;-183.5199;0.2371593;-0.1096429;0;
-678.9411;0;-639.8167;-637.0408;-1.419738;-9.485987;-655.4639;-653.1619;0.3668557;0.02040199;0;
-489.104;0;-476.8803;-483.1027;-2.490038;-6.462345;-470.2106;-466.8488;0.4964218;-0.1095532;0;
-217.124;0;-225.09;-229.0573;2.134164;-15.16339;-198.1871;-198.1396;0.1710863;-0.1744104;0;
-214.2197;0;-216.2431;-225.079;2.466812;-16.48781;-193.3028;-196.004;-0.1539224;-0.2392025;0;
206.7841;0;174.3404;192.6873;5.880585;-1.132519;220.4335;217.2354;-0.08880036;0.02090717;0;
687.2722;0;626.188;683.0596;7.013752;1.681902;695.6606;691.2787;0.3010929;0.1508209;0;
453.3239;0;420.1621;481.974;10.55668;6.435878;465.3895;460.3873;0.5606598;0.02073462;0;
162.6392;0;151.1249;211.5004;12.55483;10.04637;174.6927;173.0689;0.105325;-0.1092209;0;
177.5932;0;160.9681;223.4068;8.992238;3.204136;187.7605;189.2617;0.04025183;-0.2390458;0;
-200.0205;0;-189.2677;-149.8177;8.447339;2.59807;-182.4921;-181.0549;0.3000807;0.1509984;0;
-667.2096;0;-628.5441;-623.9912;6.496469;-2.361155;-644.1391;-641.7038;0.4297139;0.08587936;0;
-479.0085;0;-464.3073;-469.1917;4.145416;-5.372893;-459.9591;-457.3389;0.4942495;-0.2390437;0;
-209.2875;0;-214.2162;-218.6585;6.485775;-6.707153;-190.5072;-191.7001;0.1689161;-0.04390144;0;
-214.8243;0;-215.5627;-225.935;6.8814;-8.307881;-194.2513;-197.6919;0.03881173;0.02111001;0;
201.9322;0;170.0851;185.7102;-1.364537;-11.1798;214.1762;211.4262;-0.2210966;-0.1738132;0;
695.2937;0;634.0559;688.8956;-2.233822;-12.91;701.9033;697.6567;-0.2858418;-0.1736386;0;
456.09;0;421.7127;481.3698;-2.633719;-4.256474;467.4405;461.6365;0.03928211;-0.2384314;0;
150.5975;0;136.1823;194.8424;-4.037592;-1.907917;161.3744;159.8866;-0.09069205;-0.3031592;0;
175.0588;0;154.2863;218.6971;6.281592;-0.0304777;182.2017;185.1507;-0.2855029;0.08694947;0;
-196.368;0;-189.1961;-147.7761;7.749149;2.983663;-182.7355;-180.5391;0.03962064;0.2817641;0;
-674.5552;0;-638.78;-635.8821;12.56413;1.507162;-655.2518;-652.7453;0.1695155;0.08657899;0;
-485.9719;0;-476.5318;-483.0073;15.16348;2.778202;-470.2486;-466.87;0.03941049;0.02152463;0;
-212.4333;0;-224.1796;-228.3997;9.723234;3.378257;-197.1006;-197.7859;0.1693056;0.02150301;0;
-215.9055;0;-221.2682;-229.9818;10.3157;4.781504;-198.152;-202.4597;-0.1557012;-0.1734206;0;
198.2908;0;162.8861;180.2932;-0.8804488;-1.18466;209.0301;205.2264;-0.3504468;0.02165565;0;
675.9139;0;609.8727;664.1188;-4.563259;-4.063613;680.8953;675.5961;-0.09022532;0.1515686;0;
446.5372;0;407.1115;465.6134;-5.094538;6.992409;455.8864;449.4056;0.03980001;-0.04348575;0;
159.5451;0;140.5862;199.4666;-8.840463;7.521247;168.7599;165.9713;0.3645967;0.2813947;0;
169.4422;0;144.7553;209.1362;1.61727;8.049431;175.5243;176.0494;0.299263;0.670916;0;
-208.4757;0;-205.1519;-161.8875;3.692725;9.983848;-195.3407;-194.3789;-0.02587437;0.4753398;0;
-674.9066;0;-641.4138;-634.4872;2.348868;-2.082868;-655.1632;-652.3283;0.03911898;0.2149928;0;
-488.0096;0;-478.8507;-484.7372;4.557311;-5.094885;-471.0346;-467.5154;-0.02588768;0.1498094;0;
-215.7184;0;-229.1199;-235.1878;2.007136;-4.28597;-199.0103;-200.0548;-0.2207637;0.2146263;0;
-215.8139;0;-224.5793;-235.1389;1.937771;-6.760032;-197.2487;-201.7903;-0.2855092;0.08447593;0;
200.5063;0;162.0146;176.7655;3.074899;-4.810735;212.3063;208.2689;-0.220255;0.01942369;0;
689.6838;0;620.3714;673.0883;2.067432;-5.341764;696.8493;691.1293;-0.3499683;0.3442409;0;
449.1114;0;407.4797;466.0157;4.07411;-3.393892;460.7049;453.6164;-0.3496167;0.148993;0;
142.0642;0;122.9006;181.7526;4.740578;-1.916979;152.0219;149.6257;0.04053864;-0.5657975;0;
173.2182;0;146.7026;211.2426;-3.838001;-4.460282;179.7302;180.5847;0.1054652;-0.5002616;0;
-192.2097;0;-189.9632;-148.4765;-6.11132;-4.254852;-178.0207;-177.3544;-0.08954275;0.01997975;0;
-679.2717;0;-645.1059;-641.5793;-3.828004;-3.64773;-657.9755;-655.5607;0.2353839;0.4747311;0;
-493.8695;0;-483.9134;-489.6357;-4.963233;-4.849758;-475.1559;-471.869;0.3650821;0.3443194;0;
-209.7658;0;-220.3094;-223.9021;1.069974;0.5806109;-191.6957;-191.4731;0.1048459;0.01913669;0;
-215.1147;0;-221.2749;-231.0484;4.686221;1.78572;-195.626;-198.4021;0.2346752;-0.1108172;0;
193.7085;0;157.5071;171.2941;-3.222718;-4.177433;205.494;202.7207;0.03953741;-0.04573853;0;
681.8934;0;614.9938;667.9348;-3.084781;-3.637372;687.8575;684.025;-0.285339;-0.1756273;0;
448.4502;0;407.6048;467.9888;4.68785;-12.14043;458.3438;453.1408;-0.1551176;-0.2404181;0;
151.2738;0;133.1455;193.8437;5.822216;-15.20932;160.5952;159.2081;-0.2199291;-0.1102419;0;
167.8009;0;145.1306;211.5149;12.91631;-5.280809;175.3014;178.101;-0.2197081;0.08477094;0;
-206.6171;0;-200.7165;-157.2624;15.78372;-4.203776;-191.503;-188.7686;0.1053493;-0.240151;0;
-676.4857;0;-640.6685;-634.302;11.54733;0.8240457;-656.0145;-652.4083;0.1702108;-0.1749423;0;
-491.4611;0;-478.7933;-481.9284;11.26828;4.976038;-474.5087;-470.0941;0.04010512;-0.04483185;0;
-216.1679;0;-225.0645;-228.5713;8.510292;-0.521441;-199.5449;-199.1327;0.1699995;-0.2396888;0;
-215.451;0;-220.4656;-230.2157;6.827778;-0.3869511;-196.0335;-199.6198;0.1048613;-0.04454596;0;
196.496;0;163.1257;179.6223;2.466661;5.239882;209.7721;206.002;0.03978864;-0.0445012;0;
682.1169;0;618.4828;674.1306;0.3880775;5.636515;689.6949;684.8668;0.104716;-0.2393585;0;
450.5476;0;412.9644;474.9905;-1.689393;6.836544;462.6157;456.6055;0.1695781;0.2156534;0;
156.8672;0;141.3108;203.2121;-3.094215;7.901279;169.548;166.9795;0.03947305;0.3453714;0;
179.4482;0;158.5351;225.2467;-0.478162;0.4584785;190.1797;190.5498;-0.3503707;-0.0447797;0;
-191.3583;0;-183.9521;-140.296;-0.5450305;-0.9486238;-173.3288;-173.5213;-0.2850513;0.02023264;0;
-671.8619;0;-634.5407;-627.6599;6.0196;-4.095747;-647.916;-646.4841;0.04007186;0.08517966;0;
-494.5881;0;-482.1669;-483.6013;8.425426;-7.574743;-473.8521;-470.1728;-0.2198378;0.1500614;0;
-217.5426;0;-228.0599;-227.1816;9.82348;3.216876;-197.0774;-197.6496;-0.1546495;0.3448127;0;
-222.1341;0;-228.268;-232.8253;13.36358;5.758995;-199.6905;-204.385;0.1703426;0.4744009;0;
189.6322;0;153.7069;173.1422;4.776339;-1.413844;203.9949;200.4295;-0.02473062;0.2790222;0;
688.8781;0;621.5673;679.1512;3.967256;-0.8095765;696.2299;691.4811;0.1052289;-0.04609492;0;
460.4879;0;420.7308;483.8791;5.705558;0.1959809;472.5799;466.3367;0.04015584;-0.3708853;0;
160.4258;0;141.1984;203.7835;3.287952;0.262767;173.0054;170.4541;-0.2197539;-0.1106433;0;
178.8802;0;152.988;219.3833;12.2606;2.807732;189.0733;189.9604;0.3002056;0.474174;0;
-194.7993;0;-191.7425;-150.214;12.44936;2.403136;-177.37;-177.2335;0.4298387;0.1488608;0;
-670.8016;0;-640.5117;-634.632;14.04444;7.692129;-649.0172;-648.0062;0.03960275;-0.1111581;0;
-491.2176;0;-486.5077;-489.3795;17.31188;9.492939;-474.0776;-471.2561;-0.09037173;0.2137903;0;
-215.7997;0;-231.2094;-234.6406;-1.929251;2.852212;-198.8644;-199.7313;-0.02531358;0.2135755;0;
-215.3954;0;-227.7287;-235.4668;-6.415291;2.71538;-196.2907;-200.655;-0.1552228;-0.1764432;0;
198.4256;0;155.7449;174.8762;-2.054589;-2.645739;210.6396;206.592;-0.2850015;-0.3062006;0;
691.6656;0;619.6052;677.0729;-5.870917;-5.121449;697.8079;691.9528;0.1050889;0.01894379;0;
460.4615;0;414.8977;478.9919;3.646802;-0.7625344;469.3463;462.4351;0.04001594;0.3437615;0;
160.0871;0;136.1832;199.9631;4.446445;-1.230649;168.4007;166.1191;-0.02499161;0.148514;0;
177.2925;0;147.4781;215.067;2.566943;2.588493;183.9111;185.5049;0.5597396;-0.1764719;0;
-197.6972;0;-199.1209;-153.8388;3.70344;4.1265;-182.777;-181.4347;0.2343404;-0.631066;0;
-680.1934;0;-649.8192;-640.6895;-2.730643;3.653473;-658.7914;-656.5135;-0.09073173;-0.8903012;0;
-496.6019;0;-490.1837;-492.1825;-3.062692;4.654545;-478.5948;-476.444;-0.02567323;-0.56457;0;
-212.4955;0;-228.8223;-231.5687;-9.758396;3.846073;-195.5059;-197.855;-0.1555821;0.08567075;0;
-222.5893;0;-232.6528;-241.0187;-12.02577;4.043158;-203.1805;-208.8381;-0.1554258;0.150552;0;
182.9931;0;146.0158;163.2079;-7.057189;-0.2476906;196.0731;190.9209;-0.2852043;0.2153681;0;
685.3067;0;618.1317;674.0371;-6.715306;-3.328535;692.5639;686.8547;-0.09001569;0.3450864;0;
459.1064;0;418.3607;480.5193;-0.4792676;3.506825;471.4788;464.9632;0.2998788;0.08487024;0;
151.1122;0;134.0205;195.8043;1.99946;4.307096;163.7845;160.9611;0.03970812;0.01981761;0;
172.5745;0;150.2526;217.4091;6.75385;-4.940632;182.7353;183.2256;-0.1552338;-0.110137;0;
-194.2271;0;-189.1029;-145.627;9.560102;-6.476275;-176.3304;-176.4029;-0.2200452;-0.239961;0;
-680.7248;0;-644.1215;-639.17;9.81794;-6.134853;-657.1615;-656.3593;-0.08988938;0.3449862;0;
-497.9449;0;-485.7411;-490.7895;11.88516;-6.597569;-478.5906;-476.2275;0.494907;0.2796722;0;
-212.5252;0;-223.0098;-226.5539;3.901635;-5.318264;-193.7526;-193.7657;0.5593771;0.01952182;0;
-215.1228;0;-219.7873;-226.6386;2.290124;-4.375159;-193.7454;-196.507;0.03907627;0.0195022;0;
191.3892;0;158.3061;177.2612;-0.6589382;-2.227431;206.6856;203.7393;-0.4157344;-0.1104521;0;
680.326;0;617.6661;671.4595;-4.275599;-1.756313;690.1723;685.6673;-0.2204146;0.08456095;0;
456.7544;0;421.8311;480.0058;2.828645;7.89075;470.7763;465.0888;0.03967621;0.279378;0;
160.5067;0;146.4204;206.5981;2.558359;11.83482;174.5769;173.3304;0.1046037;0.0192279;0;
175.088;0;153.3323;219.9462;4.498171;2.713366;186.6453;189.0858;0.4293353;-0.04575876;0;
-193.5278;0;-189.6495;-146.4032;6.838176;1.036189;-175.9226;-174.2967;0.2989692;0.08422191;0;
-666.9702;0;-634.3603;-627.3268;-3.015308;3.714343;-644.0729;-641.1992;0.03879943;0.01916993;0;
-492.0751;0;-480.4874;-482.7063;-5.556898;2.170125;-471.4497;-467.2046;0.1686951;0.01915067;0;
-215.0322;0;-222.5715;-223.2265;1.413935;-3.324534;-193.7403;-193.8098;0.1035583;-0.04583591;0;
-213.7542;0;-217.4753;-222.9397;1.747307;-6.603357;-191.0469;-195.3642;-0.2213825;-0.04578986;0;
191.6944;0;156.4928;174.3347;-2.340286;-8.070225;206.2579;202.5697;-0.3510947;-0.3705806;0;
692.8748;0;624.1005;678.4061;-3.208591;-10.00462;700.6771;696.7426;0.1040295;-0.4351755;0;
466.0423;0;423.6988;484.3841;-1.798847;-13.20963;477.0851;472.5923;0.2338596;-0.3048036;0;
151.232;0;132.6691;194.4803;-1.595969;-14.2011;162.2637;161.711;-0.09121208;-0.23953;0;
180.6277;0;155.5243;223.5202;-4.138984;-14.52174;189.5244;191.7209;0.1037816;0.1505148;0;
-180.4974;0;-179.4012;-134.0247;-4.670689;-14.57413;-164.863;-163.0436;0.233612;0.2802982;0;
-674.1303;0;-643.675;-636.3875;-2.054028;-9.401926;-654.0139;-650.4471;-0.0264921;-0.1097875;0;
-495.9172;0;-489.3555;-492.6949;-1.113959;-7.115181;-480.5061;-476.1309;-0.09143282;-0.3045792;0;
-210.9369;0;-226.0584;-226.6459;-0.7116737;-5.500442;-195.6038;-195.7307;-0.1563083;-0.4342079;0;
-217.9713;0;-230.0166;-233.9144;1.165051;-4.02129;-199.8425;-204.1547;-0.4160206;-0.2388695;0;
190.2302;0;147.9621;168.6809;-1.582785;-0.6682252;200.9069;197.2238;-0.3506352;0.1511746;0;
685.4775;0;612.6423;671.2587;-2.117059;0.4711561;689.7093;684.9054;0.2344232;0.1510227;0;
457.4655;0;409.441;474.4328;6.124092;-2.409583;465.2537;458.7056;0.3641223;-0.04403114;0;
157.8437;0;130.7945;194.9089;7.926599;-3.009887;165.3118;163.143;-0.09101497;0.0859478;0;
171.6781;0;140.2208;209.0808;9.325154;-8.767272;177.3895;178.7836;0.03901116;0.02089409;0;
-198.6834;0;-201.4984;-154.634;12.32989;-11.63873;-185.419;-184.4635;0.428776;0.1508078;0;
-671.6834;0;-644.5107;-634.6748;4.882765;-13.03355;-653.1224;-650.5438;0.1035085;0.1506563;0;
-499.4697;0;-496.4997;-496.4188;4.609439;-15.76676;-484.8629;-481.6622;0.1683718;-0.04439716;0;
-225.168;0;-243.6901;-241.8602;5.877605;-14.61221;-211.3255;-212.5008;0.6879414;0.02061479;0;
-219.8817;0;-233.7001;-237.5567;4.598902;-15.73623;-203.7419;-207.852;0.3624134;-0.3042426;0;
187.9468;0;143.2204;163.8554;9.350679;-15.51947;197.6362;194.1549;-0.2876242;-0.4988389;0;
682.6967;0;606.8433;665.7509;7.465273;-15.70483;686.8791;682.1519;-0.09243314;0.1513357;0;
459.2477;0;410.2071;475.3648;16.23266;-15.89;466.7367;460.7025;0.1025618;0.08621632;0;
146.8805;0;120.253;186.5321;17.75659;-15.40515;153.9247;152.2069;-0.09244332;-0.1087724;0;
167.1601;0;135.4994;208.0837;5.481237;-16.52838;172.3233;174.7301;-0.02738309;0.281141;0;
-187.8919;0;-191.6599;-143.2614;3.935488;-15.10513;-175.1753;-173.0833;0.2325138;0.1509238;0;
-673.8962;0;-646.8009;-638.1186;-12.14437;-19.44372;-654.5707;-651.5438;0.2322802;-0.5638686;0;
-501.5554;0;-496.976;-499.2969;-19.56691;-19.89306;-485.4352;-481.2868;-0.2227246;-0.3684;0;
-213.0087;0;-229.5483;-231.2422;-9.901704;-12.43821;-197.4045;-196.9459;-0.2874682;0.1517089;0;
-218.0421;0;-230.8793;-237.1317;-9.490589;-11.28701;-200.2671;-203.1198;0.2325594;-0.04334555;0;
180.2894;0;137.5426;158.0955;-11.48981;-4.577494;190.9251;188.8249;0.102391;-0.043302;0;
683.3553;0;610.6664;668.9298;-8.397781;-1.826716;688.3582;685.1356;-0.02764652;0.02170885;0;
464.3409;0;419.5237;482.601;-3.968714;-3.030452;474.3987;469.1803;0.5570874;-0.2381823;0;
153.5928;0;132.3088;194.6355;-0.8832667;-1.754853;164.0777;163.05;0.2316909;-0.1729757;0;
170.8672;0;143.9199;210.4319;16.26525;-6.307807;178.2806;181.3144;-0.158346;0.02210017;0;
-189.2486;0;-188.0579;-144.1014;23.6163;-6.636384;-173.2219;-170.8783;0.1666498;0.1520127;0;
-671.3785;0;-637.6429;-630.8369;22.31977;-13.5957;-647.3719;-643.5314;0.101515;0.08689258;0;
-498.6029;0;-486.5153;-490.0235;26.31681;-16.79722;-478.1812;-472.408;-0.09348899;0.08680527;0;
-210.8712;0;-219.348;-221.166;21.53494;-12.15864;-190.4701;-188.8256;0.101507;0.1516854;0;
-211.9087;0;-215.317;-221.9433;20.97744;-13.95484;-189.0293;-191.0722;0.03643763;-0.04336906;0;
186.7289;0;154.9633;172.5816;18.00863;-5.501211;202.2141;200.9853;-0.2884357;0.08660921;0;
686.2277;0;624.634;680.4028;15.57963;-3.218263;696.2;693.848;-0.2881459;0.1514895;0;
458.4023;0;424.2942;486.6912;11.67921;-8.238627;472.7374;469.076;0.03698037;-0.1085321;0;
143.2249;0;132.2645;193.5367;6.308842;-7.627503;157.4831;157.636;-0.2878935;0.02151167;0;
174.3153;0;154.4953;221.703;18.35894;-14.45198;185.6856;188.3371;-0.5474736;0.2163921;0;
-178.8699;0;-174.7445;-127.2195;19.2785;-17.51855;-160.6395;-158.6154;-0.2220868;0.281142;0;
-672.6295;0;-637.7736;-627.0278;8.27344;-13.95097;-648.3578;-644.2118;-0.286831;0.08595748;0;
-500.7896;0;-488.1451;-488.4047;6.256371;-14.5398;-479.7283;-474.2121;-0.3515101;-0.04406359;0;
-210.682;0;-219.1021;-217.8622;2.700112;-17.07054;-190.204;-188.504;-0.02632018;0.1508827;0;
-220.5902;0;-225.7535;-229.2;0.8887376;-16.31658;-199.1333;-200.8083;-0.2211958;0.02079642;0;
176.5569;0;139.6023;160.3347;-5.006653;-20.65395;189.3091;188.0106;-0.5458102;-0.04419181;0;
682.3127;0;613.5987;671.7914;-7.948384;-22.10682;688.8677;686.1337;-0.4153271;0.02081993;0;
461.8626;0;421.4534;485.3972;-1.912177;-10.36284;473.6584;469.4279;0.104829;0.02079901;0;
153.6157;0;137.36;200.9897;-1.642812;-7.539144;165.8369;165.4837;0.2346583;0.1507128;0;
172.5768;0;147.217;218.0291;1.50667;-6.325997;181.5998;184.6202;-0.3502836;0.2804961;0;
-192.1634;0;-194.5093;-144.5703;2.845303;-2.970494;-176.028;-173.5728;-0.2849642;-0.04462251;0;
-670.3549;0;-641.5266;-630.3683;2.440302;-8.259039;-647.5516;-644.5991;0.1700935;-0.1745124;0;
-496.7682;0;-489.3956;-489.5554;1.634543;-8.451689;-476.9863;-473.5995;0.03998789;0.2804344;0;
-219.5331;0;-233.9695;-232.0676;5.450318;-6.299865;-200.6457;-200.7605;-0.02501963;0.08525059;0;
-218.3755;0;-228.4245;-232.3342;7.588295;-6.159569;-197.4456;-201.1835;-0.08996183;0.02019758;0;
182.1427;0;142.7435;162.8882;-10.9725;-5.952431;196.5549;192.3834;-0.2198061;0.2150793;0;
674.7745;0;602.6189;662.0985;-16.05267;-5.611536;682.7379;676.759;0.0402841;-0.2399082;0;
456.8306;0;410.2972;476.3388;-10.20939;-4.735119;468.6591;461.3745;0.4300477;-0.2396671;0;
149.2135;0;128.2141;193.5021;-11.73937;-4.395446;161.8422;158.5629;0.2347135;-0.3043936;0;
171.5523;0;145.514;217.1082;-11.39279;-1.644852;181.2947;181.6419;-0.09035901;-0.4340225;0;
-180.0685;0;-183.5294;-132.6843;-12.31934;-0.9733694;-163.5892;-163.4298;0.2345685;0.02118501;0;
-670.7657;0;-645.8;-632.2372;-1.455973;0.2333014;-647.2441;-646.96;0.8190389;0.4759351;0;
-505.2372;0;-500.8487;-499.1685;3.100817;1.237811;-484.3628;-484.0164;0.3634445;0.1506202;0;
-213.251;0;-230.0438;-226.6162;-4.203316;-1.777665;-193.3347;-195.9872;-0.4165288;-0.3043025;0;
-220.1581;0;-232.2489;-233.385;-2.390431;-2.110671;-198.2004;-204.5983;-0.09127355;-0.3039968;0;
174.5523;0;133.9879;157.778;-5.335766;-3.716141;189.7414;183.0375;0.3635896;-0.433626;0;
682.1217;0;608.8021;672.9229;-6.937995;-4.583185;690.6114;683.7269;0.4931589;-0.4981576;0;
459.6103;0;412.5387;482.9669;0.2362718;-4.779529;472.4643;464.2123;0.427696;0.087049;0;
145.5561;0;122.6447;190.3784;0.5034781;-6.248351;160.5211;156.1505;0.1673969;0.1519289;0;
175.0824;0;145.4474;216.3615;2.177912;-0.6826108;188.0959;187.5403;0.232196;0.08680888;0;
-179.8527;0;-182.7838;-133.6801;3.381172;0.6577338;-159.9183;-161.3479;0.6217667;0.151689;0;
-667.052;0;-639.3705;-625.2985;-0.5733644;-2.491003;-640.6409;-640.8197;0.42624;-0.4331695;0;
-495.2802;0;-491.4272;-487.989;-0.2379957;-1.75181;-471.8317;-470.761;0.100975;-0.8225383;0;
-212.9867;0;-229.6897;-225.6302;-7.27133;-5.23304;-189.1245;-192.0528;0.1008736;-0.5618424;0;
-217.5828;0;-227.7722;-227.7773;-11.21614;-6.09856;-190.871;-196.9198;0.1657395;-0.1714739;0;
184.0591;0;145.3317;169.4395;-1.224534;-4.21691;203.6226;198.4545;0.03563832;0.2834698;0;
683.9977;0;616.0115;676.3893;-0.5527425;-4.949485;698.2318;691.9444;-0.1592995;0.3481523;0;
465.6074;0;424.8633;492.1769;-2.896712;-0.5237602;484.3249;477.1068;-0.2241068;0.2828352;0;
161.792;0;142.5781;210.0739;-1.08514;1.151339;180.0534;177.5902;-0.2238816;0.2175836;0;
183.6808;0;157.8021;229.6654;-7.179618;-2.265825;198.9879;200.7125;-0.02875462;0.2823324;0;
-178.5717;0;-177.2506;-128.0732;-6.971334;-1.727807;-156.6584;-155.3103;0.03624161;0.4119833;0;
-668.8333;0;-635.3422;-624.195;-6.897956;-3.668454;-641.4447;-639.5983;0.03620519;0.2816347;0;
-500.8703;0;-490.6512;-488.948;-8.096474;-5.205375;-477.5073;-474.2259;0.2960382;-0.1734197;0;
-207.4518;0;-220.5437;-217.9052;3.83438;0.7612142;-184.7994;-185.2694;0.4906428;-0.2382128;0;
-206.8685;0;-213.3881;-219.248;6.376122;1.765193;-181.5527;-186.1452;0.3602151;-0.1730061;0;
180.3323;0;147.2077;166.7159;6.704508;-2.3894;199.0635;195.1003;-0.2898203;-0.2377996;0;
680.837;0;616.6987;676.4796;8.506433;-2.654931;693.1775;688.4687;-0.3544964;-0.04265862;0;
471.3828;0;433.3584;497.9518;4.679492;-3.924939;487.459;481.2557;0.03566382;0.08731894;0;
157.3168;0;144.0681;207.5347;4.742139;-4.590825;174.4388;171.9899;-0.159274;-0.2376055;0;
176.7738;0;157.1667;227.0037;-6.180965;-4.78716;191.0676;192.1193;-0.2240813;-0.3023341;0;
-175.9766;0;-171.1387;-123.4858;-11.73446;-5.653129;-155.2629;-154.0248;0.03601319;0.02280638;0;
-668.8019;0;-633.047;-624.11;-2.746712;-2.365284;-641.4874;-638.9387;0.035977;0.3476202;0;
-504.7121;0;-490.982;-493.2983;-2.877674;-1.358286;-480.7358;-478.1272;0.1658755;0.4122382;0;
-215.7874;0;-224.0601;-224.5625;-10.57794;-3.634219;-193.0846;-194.2268;0.1007415;-0.1079147;0;
-218.0693;0;-223.1478;-228.8346;-12.04118;-3.228669;-193.6402;-197.7172;0.03567295;-0.3027083;0;
178.3881;0;143.7671;161.8241;-8.880275;-2.890511;195.7337;191.4734;-0.2891996;-0.1075021;0;
681.8307;0;616.6349;673.1544;-8.269115;-2.351743;693.3494;688.0313;-0.4838111;0.02254057;0;
468.7524;0;428.7969;492.506;-5.916282;-1.813638;484.5073;478.6949;0.03641383;0.412322;0;
160.2487;0;142.8221;207.0918;-3.029949;-1.342935;177.0497;174.554;0.1663119;0.281973;0;
180.3275;0;156.3592;225.5618;-10.73006;0.667902;194.3006;194.6184;0.1011775;-0.04314705;0;
-177.9861;0;-175.3188;-129.4865;-14.26926;1.203094;-157.9052;-157.5877;-0.02885887;-0.04310369;0;
-668.2483;0;-633.6622;-625.9193;3.227505;3.479183;-641.2535;-640.1867;-0.3536666;-0.1080277;0;
-507.095;0;-497.2812;-499.7285;5.367716;4.547414;-482.9384;-482.1226;-0.09344185;0.4118196;0;
-222.8531;0;-235.2255;-236.7333;-1.872322;3.136325;-199.4079;-202.341;-0.1583153;0.2814711;0;
-221.3173;0;-227.6178;-234.5589;-0.9988086;3.267018;-196.1466;-201.513;-0.2231236;-0.3035178;0;
173.9565;0;136.3031;156.293;-15.26505;0.6515227;191.4807;186.8069;-0.02799735;-0.1732782;0;
682.0262;0;611.4272;670.5648;-19.00075;-0.7557735;693.9107;687.3675;0.03699813;-0.3030387;0;
475.5069;0;431.9028;495.916;-20.79032;1.321457;491.5648;483.1541;-0.09297373;0.2819718;0;
158.5632;0;137.8039;203.0647;-24.25206;1.11918;174.8548;171.0128;-0.222815;0.4765905;0;
178.6437;0;150.0967;224.5997;-15.52015;-1.159364;192.4202;193.2047;-0.2875585;-0.1735618;0;
-173.4214;0;-175.8279;-123.2637;-14.6339;-1.62708;-153.3494;-152.6906;-0.09236749;0.1514494;0;
-670.1849;0;-640.0428;-627.0116;-5.911659;-1.089581;-643.9487;-641.7288;0.232562;-0.1085722;0;
-506.5934;0;-500.3445;-497.8837;-1.016575;-1.021504;-484.2566;-480.9145;-0.1574757;-0.4982671;0;
-220.7278;0;-238.4107;-234.6405;-2.288351;-1.623324;-200.1625;-201.1342;-0.5471215;-0.1729298;0;
-230.0012;0;-242.8563;-245.3367;2.068205;-2.425366;-207.77;-211.6767;-0.4166371;-0.2377234;0;
170.2163;0;127.9515;149.7738;-7.981557;2.131789;185.1789;181.5884;-0.3512511;-0.1725172;0;
684.1619;0;609.2059;670.2366;-10.98765;3.134391;692.6751;687.5266;-0.2209635;-0.2373112;0;
472.8303;0;423.9991;491.4027;0.6113186;0.9208046;485.3954;478.8778;-0.3506761;-0.1721054;0;
159.9497;0;134.9681;201.6794;1.28029;2.192555;173.8766;170.3639;-0.2853564;0.1529043;0;
176.718;0;147.6385;220.0923;-1.064545;-3.302126;189.0691;189.1832;0.2996364;0.02281595;0;
-177.4691;0;-177.5339;-127.4542;0.008251261;-4.035621;-158.1339;-157.1454;0.5592046;0.2176951;0;
-661.6099;0;-631.3773;-619.2664;-5.21667;-1.218405;-636.7344;-634.4975;0.2987734;0.08754164;0;
-501.6501;0;-494.9362;-492.0827;-6.014735;-1.418129;-480.6727;-477.626;-0.2212655;-0.1724157;0;
-216.5392;0;-230.7589;-224.7224;-4.535799;4.20974;-195.3954;-195.4751;-0.2860106;0.3474963;0;
-220.9442;0;-230.2771;-230.6186;-5.133478;5.143271;-196.5734;-199.4016;-0.0258538;0.4770818;0;
162.3977;0;125.2132;146.4238;0.1629659;9.893769;180.3723;176.8597;-0.3506645;0.02183102;0;
677.0382;0;608.157;668.2643;1.703044;12.29521;689.3726;683.5522;-0.4802469;-0.562897;0;
476.5209;0;433.8208;501.6762;1.701332;7.46021;492.8409;486.3391;-0.414797;-0.302462;0;
154.1414;0;137.721;203.6342;2.972421;8.457336;170.9447;168.1352;-0.2844455;0.47745;0;
176.6626;0;153.5121;225.4185;0.6249092;-2.268065;190.8253;190.9547;0.1056444;0.3470356;0;
-170.9028;0;-167.9182;-116.8861;-0.3127477;-6.820625;-149.6329;-149.4412;0.1705056;-0.4329212;0;
-674.0406;0;-636.5763;-625.1381;0.4908737;1.558973;-646.2953;-644.2922;0.1053669;-0.6923556;0;
-514.9429;0;-498.3183;-498.0735;-1.049861;-0.1171672;-490.5363;-487.0985;0.105261;-0.1719212;0;
-212.3274;0;-218.9578;-215.5273;-0.5129426;5.710344;-188.9448;-189.1961;-0.1547141;0.2180556;0;
-217.174;0;-219.4874;-222.3697;0.02343631;8.986648;-191.1288;-195.5652;0.04034336;0.2828039;0;
165.0397;0;136.117;155.5389;-11.36344;-1.33751;184.3746;180.255;0.1052702;0.347487;0;
678.3033;0;617.3008;675.746;-15.10307;-1.001251;690.4349;685.8197;-0.4145744;0.02230117;0;
475.5359;0;439.0198;504.5278;-7.854224;-2.272799;491.0285;485.1686;-0.2192557;-0.04268858;0;
160.9034;0;148.9118;214.4164;-8.181125;-3.409225;177.0053;175.1492;-0.1540681;0.2172237;0;
175.7342;0;157.5703;229.6932;-7.503319;6.239499;189.7584;191.7148;-0.2188806;0.2819728;0;
-177.6398;0;-171.2978;-120.5492;-7.093637;8.242718;-157.1955;-155.366;0.4310127;-0.1081146;0;
-664.5915;0;-628.0211;-614.4297;-4.809334;11.0476;-638.7329;-635.0937;0.3656123;-0.302908;0;
-504.6288;0;-491.7707;-489.8122;-2.928492;13.38078;-482.4193;-477.472;0.2353102;0.2171351;0;
-223.8876;0;-233.0938;-230.5751;-9.490608;11.35797;-202.2002;-201.6306;0.5599105;0.1519496;0;
-228.2228;0;-231.1105;-233.9666;-10.82024;11.27957;-203.2464;-206.6754;-0.09032551;-0.1730398;0;
167.8076;0;136.1247;157.2595;-5.91925;10.33047;186.1372;182.9616;-0.6749408;0.2169381;0;
677.6326;0;613.248;673.6543;-4.306688;9.449317;688.8224;684.8379;-0.4793606;0.1517528;0;
474.6159;0;435.7208;502.3757;-10.19588;3.947343;489.6675;484.5001;-0.1540422;-0.1082691;0;
158.2978;0;141.8055;207.6438;-10.7215;1.800045;174.3962;172.6698;0.1709493;0.2816438;0;
172.6314;0;148.9094;221.6155;-4.548787;-2.086652;186.7147;188.9255;0.3007122;0.2163934;0;
-173.6805;0;-171.2044;-120.0605;-3.807282;-5.567667;-152.5525;-150.094;0.04054063;-0.1086607;0;
-668.1324;0;-633.5499;-620.6882;2.961698;2.073859;-640.9661;-637.5731;-0.02446744;0.0863505;0;
-508.9782;0;-496.8567;-495.0649;6.039205;2.808588;-486.0246;-481.1982;-0.1543775;0.02129638;0;
-212.2407;0;-224.0568;-219.8305;3.622239;1.600073;-190.9343;-189.8609;-0.2841571;-0.1086597;0;
-221.5227;0;-229.8911;-232.3532;5.762053;3.005107;-197.739;-200.852;-0.08896956;-0.2384852;0;
159.446;0;121.6008;140.1306;-2.147967;0.3227699;176.959;174.4737;-0.3487495;-0.3032129;0;
674.9641;0;603.6113;661.79;-5.02522;0.9922749;686.8373;683.355;-0.6732358;0.2817979;0;
474.4489;0;428.4675;495.2085;6.299335;-2.692662;491.2451;485.5175;-0.2827553;0.4764167;0;
157.8186;0;136.5585;202.8576;9.239766;-5.034359;174.9103;172.999;0.04236553;0.2160686;0;
178.1497;0;151.851;223.5183;-1.419439;5.55376;191.6635;193.5647;0.1722576;0.2808189;0;
-171.9784;0;-172.0763;-122.8448;-3.293046;7.691633;-151.6691;-150.8317;0.5618886;-0.1742347;0;
-666.3695;0;-636.1076;-624.844;7.963395;2.258409;-639.9587;-638.1851;0.4963567;-0.239027;0;
-510.9028;0;-501.7232;-501.6528;9.897777;2.792003;-487.4545;-484.3084;0.1060539;0.08604994;0;
-223.8459;0;-235.7275;-233.5957;9.553039;-0.4929662;-200.3587;-201.3388;0.3008493;-0.1739059;0;
-224.3706;0;-232.6171;-235.8597;11.15005;-2.099939;-198.9705;-203.6352;0.4954491;-0.04379648;0;
165.1591;0;128.4978;148.6216;6.78557;2.72482;183.8496;179.1271;0.1051472;0.4759863;0;
675.9863;0;607.5028;667.6488;4.76902;3.994636;688.9109;681.7569;0.2349762;0.4105407;0;
477.7814;0;434.4166;503.0604;8.113131;-0.4971126;494.3161;486.2323;0.7544788;0.1502588;0;
162.4595;0;143.3137;211.8885;7.435393;-0.6975619;180.2895;176.1493;0.623786;0.2150751;0;
180.6621;0;155.1012;227.6051;1.533424;3.924839;196.1003;195.3376;0.03845321;0.409761;0;
-164.6585;0;-164.3317;-114.2644;-0.2758023;5.39452;-143.0513;-142.9387;-0.2214548;0.2794147;0;
-667.4277;0;-631.9315;-619.0208;-4.093918;5.991946;-638.6584;-636.6719;0.2335391;0.1491992;0;
-514.0838;0;-498.9255;-498.3342;-6.366981;6.588772;-487.4049;-485.1705;0.3632391;0.01911459;0;
-213.0308;0;-221.6883;-219.161;-5.958441;9.328329;-186.816;-188.5193;0.03803745;-0.04587196;0;
-222.312;0;-226.0882;-227.4365;-7.761116;9.452922;-193.8121;-198.9496;0.1679339;-0.04582587;0;
159.3447;0;127.2115;149.6026;-1.792446;8.103888;180.507;175.1249;-0.0921042;-0.1757145;0;
681.8593;0;617.2748;678.4364;-0.7189181;6.957035;696.004;690.4398;-0.2869137;0.2142661;0;
481.7119;0;443.1792;511.4008;-1.856295;3.132017;500.0902;493.907;0.2331133;0.3439855;0;
159.827;0;146.4454;213.6613;-0.1131181;1.387436;178.749;176.1952;0.0379771;-0.2410662;0;
180.5934;0;161.1657;234.7485;-7.547744;-5.847993;196.0606;197.8822;-0.09199575;-0.240824;0;
-166.1014;0;-161.2092;-107.8154;-9.215099;-9.057176;-144.2779;-143.4577;0.2979007;0.01928735;0;
-662.1851;0;-625.6262;-611.4538;-5.187352;-9.449972;-634.1367;-633.3173;0.3625687;0.1492027;0;
-506.9099;0;-491.8145;-490.0251;-4.91372;-11.7179;-482.6378;-480.1326;-0.02759961;0.0840854;0;
-220.3569;0;-227.5155;-223.7913;-4.707712;-6.883473;-197.1086;-197.7293;-0.2224739;0.1489683;0;
-221.1974;0;-224.3508;-225.0033;-3.765952;-6.541642;-195.6612;-199.6546;0.03761901;0.1488186;0;
169.641;0;138.5048;162.5906;-1.417644;-3.386872;189.0921;185.4151;-0.09235348;0.01873434;0;
677.2153;0;615.001;677.2935;0.1249982;-1.039188;690.0877;686.9141;-0.2221954;0.4085196;0;
472.1376;0;434.8484;503.8872;2.736841;-6.329673;487.8706;484.95;-0.02707008;0.2781744;0;
153.8854;0;139.8095;208.4667;4.40903;-6.457279;169.9774;169.746;-0.2219449;0.1479602;0;
177.7812;0;157.1602;230.2461;3.466595;-7.321447;190.921;193.6258;-0.3516566;0.4726483;0;
-162.6014;0;-156.715;-104.9418;2.457758;-8.385818;-141.3539;-138.9642;-0.1564012;-0.1775001;0;
-662.8115;0;-624.7597;-610.1449;8.283413;-6.301042;-634.0891;-631.202;-0.02630937;-0.2422891;0;
-514.0325;0;-498.6325;-496.2138;9.747983;-5.691864;-489.5868;-485.016;0.1686191;0.1477584;0;
-215.6032;0;-224.0817;-220.2911;1.29907;-9.437067;-192.369;-190.6139;0.3633517;-0.1122594;0;
-220.1342;0;-224.9185;-227.0663;1.230416;-10.56629;-195.1117;-197.3564;0.03814989;-0.2420813;0;
153.9615;0;121.5084;142.9135;-8.080594;-6.402858;170.9629;169.0954;-0.2217578;-0.3717727;0;
675.4197;0;608.6414;672.4412;-12.35938;-7.066132;686.7193;683.7916;0.1033017;-0.04656247;0;
481.2757;0;436.8659;508.3477;-0.759038;-3.040178;496.8743;492.1381;0.3630673;0.08341902;0;
153.7066;0;134.0164;201.8657;-1.294139;-1.630603;169.0396;169.2431;0.2327678;-0.3064689;0;
178.9144;0;152.8098;226.088;9.423454;-11.81013;191.8582;195.997;-0.09230281;-0.1112589;0;
-161.9691;0;-164.0596;-113.0313;15.37583;-14.87935;-141.9169;-139.219;-0.3520794;0.1487223;0;
-669.9885;0;-639.6556;-628.3461;0.6246262;-14.4625;-643.8344;-640.0148;-0.09185629;0.0836055;0;
-517.8289;0;-508.8908;-508.7121;0.6239986;-16.59143;-493.95;-488.9474;0.0381707;0.2134562;0;
-222.1444;0;-237.9529;-235.6504;-1.721153;-20.19171;-198.1646;-197.4773;0.1030997;0.3431764;0;
-225.9192;0;-239.6503;-241.723;-5.470468;-22.04694;-200.5892;-202.5887;0.2329308;-0.1119399;0;
162.2378;0;121.4091;143.9512;7.127332;-22.02479;180.5459;179.0481;0.03779469;-0.1118274;0;
679.3148;0;607.1055;669.7297;8.660412;-22.40444;692.1072;688.612;0.03775672;0.2131217;0;
481.981;0;434.4569;503.7024;5.370156;-21.71222;498.8836;494.1425;0.1026861;-0.1119292;0;
160.2832;0;138.9187;206.3454;7.106072;-21.95833;178.7305;177.4924;-0.1572864;-0.176784;0;
177.3635;0;150.2733;223.6918;0.6685709;-16.04189;193.7932;195.2425;0.03777364;-0.04667172;0;
-165.0802;0;-168.6549;-115.9874;-0.001686241;-13.9493;-142.67;-141.3471;0.7523764;0.08330987;0;
-662.2893;0;-633.5642;-618.6181;1.940699;-16.6146;-633.8422;-631.4586;0.6866531;0.4730302;0;
-508.1385;0;-499.6196;-496.5576;1.938748;-15.66015;-483.4056;-479.5876;0.1012571;0.1477182;0;
-218.3358;0;-231.6895;-227.4436;6.558501;-18.18964;-194.4398;-193.8117;-0.158714;-0.4371363;0;
-224.4258;0;-231.3318;-234.7738;8.092152;-17.90343;-196.6183;-200.1761;-0.2884892;0.01807431;0;
162.6678;0;130.0941;148.8319;12.572;-19.42605;184.4503;180.7086;-0.4831014;0.5377949;0;
678.495;0;611.8462;672.9188;15.30603;-19.5405;693.6964;688.5842;-0.3526813;0.3423525;0;
483.3484;0;438.8181;509.0122;15.35703;-15.1671;502.3452;495.2391;0.03747715;0.01717178;0;
159.7127;0;141.4014;208.7764;17.35133;-13.87918;179.0028;175.7769;0.1024068;-0.1777475;0;
176.1689;0;153.1908;225.7455;16.12844;-7.167062;192.1287;193.1539;0.1672713;-0.1126016;0;
-156.0287;0;-154.496;-102.5664;17.38504;-3.408938;-133.6507;-132.9389;0.3620052;0.01744626;0;
-656.3704;0;-622.293;-609.2086;13.81759;-3.070598;-627.8304;-625.745;0.2966741;-0.1774733;0;
-514.6567;0;-500.2913;-499.214;12.59729;-0.05340318;-489.2689;-485.9987;0.03650668;-0.3072296;0;
-216.7891;0;-223.1152;-219.8525;17.5421;-1.326025;-191.8016;-192.7825;0.426274;0.01791577;0;
-219.5697;0;-220.5796;-222.3177;16.51912;-0.9227952;-191.359;-196.2744;0.880617;0.2127998;0;
159.0232;0;129.1538;151.093;23.0666;3.766815;180.8963;176.1732;0.1650915;-0.0472834;0;
675.6036;0;611.3441;672.9288;24.11515;5.169672;690.1459;684.4905;-0.0299764;-0.2421379;0;
479.8978;0;439.8157;508.8348;19.06805;5.097495;498.2986;491.0247;0.2948904;-0.1119599;0;
158.3895;0;143.7099;210.8481;18.84782;7.101861;177.8962;174.4402;0.09969209;0.2779566;0;
177.5331;0;157.1837;229.3143;7.709474;4.281441;193.8968;194.7546;-0.0953101;0.407612;0;
-161.6623;0;-156.6291;-104.7483;3.41482;5.2149;-139.1307;-138.0239;-0.09521434;0.2772678;0;
-663.1852;0;-625.2361;-610.7012;3.478738;8.290875;-634.242;-631.9494;0.03481602;0.01711979;0;
-516.5297;0;-499.5457;-498.4561;-0.007382248;9.287167;-491.3012;-487.6991;-0.09515364;-0.4376688;0;
-221.4713;0;-226.993;-224.7801;5.417633;17.31566;-196.9553;-196.9174;-0.2249927;-0.437229;0;
-227.5581;0;-228.5141;-230.3638;6.751359;19.84349;-200.1307;-202.8415;-0.5496033;0.08294904;0;
155.2908;0;125.2878;145.5538;1.45329;23.44063;175.5692;172.8611;-0.8089205;-0.047069;0;
678.1843;0;615.2281;673.2048;0.9159665;26.29723;691.5083;686.4916;-0.2234016;-0.3068911;0;
486.7238;0;447.0067;513.046;8.751927;21.71609;503.845;497.6464;0.4264963;-0.3715501;0;
161.273;0;143.7097;210.5573;11.4898;21.89521;179.8138;177.9318;0.2961331;-0.3711767;0;
179.2269;0;154.9971;228.8989;7.928281;15.50996;195.1254;196.3687;-0.1589359;0.2788697;0;
-154.0982;0;-153.7535;-100.9779;9.058414;11.87741;-131.719;-130.8518;-0.2237435;0.4085242;0;
-663.8746;0;-630.3594;-616.1799;6.102551;16.08528;-634.3964;-631.656;0.1662854;0.0183096;0;
-521.7161;0;-510.0362;-507.4277;3.618173;14.1936;-496.328;-491.9662;0.2310856;-0.1116435;0;
-211.0978;0;-224.1671;-220.999;11.58514;15.85391;-186.9221;-186.8125;0.1009187;-0.3064333;0;
-218.5693;0;-226.0658;-230.3347;11.5735;16.97669;-192.1066;-195.4953;0.230752;-0.3061254;0;
149.5904;0;114.1779;133.1517;8.011897;7.113385;168.1555;166.6442;-0.09431656;-0.1109158;0;
675.9254;0;606.1284;664.0635;7.936498;3.891056;688.225;686.5278;-0.1591891;-0.04583701;0;
484.7795;0;437.9161;501.9774;-2.988841;12.05894;501.5644;497.5576;0.1008402;0.08414375;0;
155.8949;0;132.9417;195.4393;-6.870604;12.44872;173.2877;172.4708;0.03577152;0.5388306;0;
177.6023;0;149.1748;216.6072;-4.787595;9.890863;192.229;194.9112;0.1656703;0.4733218;0;
-158.095;0;-163.9427;-116.3182;-6.524096;10.55075;-137.7359;-135.0564;0.3604058;0.2129769;0;
-659.8713;0;-635.3535;-624.7582;-4.173993;6.253367;-633.7231;-629.2347;0.3600437;0.08282819;0;
-514.9683;0;-510.0902;-511.8119;-3.164445;5.577254;-491.0952;-485.9242;0.1647799;0.0177776;0;
-223.5971;0;-240.5879;-239.4343;-1.888467;6.643377;-199.9354;-199.3298;-0.03028771;0.3425965;0;
-225.4339;0;-237.9099;-242.567;0.1221862;6.234804;-199.7345;-202.8776;0.0996774;0.2772849;0;
157.3504;0;116.0889;133.8626;0.3904832;9.0417;175.5901;172.6376;-0.1602921;0.1470716;0;
670.2469;0;595.7311;655.0911;0.3900909;9.099598;682.0341;678.085;-0.4849678;0.0169891;0;
481.7303;0;432.7141;501.822;8.561373;12.23865;498.4407;492.9339;-0.2895784;-0.567734;0;
165.7798;0;143.1122;212.0257;11.29846;13.43193;183.9727;182.0321;-0.02941811;-0.5021963;0;
177.3574;0;149.4651;224.7437;3.919717;8.662764;192.4709;195.0301;0.1655135;-0.1118876;0;
-161.4631;0;-165.0895;-109.5642;4.116849;7.381505;-139.6181;-137.5613;0.2303145;-0.1117752;0;
-662.6739;0;-631.5641;-615.9496;-1.178573;5.565549;-634.7914;-631.2999;0.2950504;0.1482065;0;
-516.2687;0;-506.3046;-504.199;-2.919677;3.416503;-493.3493;-488.1122;0.2297866;0.1480576;0;
-209.0292;0;-225.3119;-218.9605;-0.4384968;2.073534;-186.8824;-186.0233;0.09962104;-0.1769279;0;
-219.0015;0;-229.4583;-226.5491;-1.709878;0.3298939;-193.6286;-195.519;0.2294556;-0.04681541;0;
145.5354;0;109.9768;135.6216;6.798306;-2.952479;164.3861;162.8724;-0.09561164;0.2780684;0;
673.2488;0;603.6181;669.2795;8.66651;-5.360898;685.8337;682.1351;-0.09551556;0.3427563;0;
489.0396;0;443.904;517.7454;9.796878;-2.676194;505.4225;500.6656;0.09948243;0.1475099;0;
160.0258;0;142.7342;213.5653;11.99686;-2.874454;177.0169;176.8251;-0.09551955;-0.0475404;0;
182.9784;0;160.6442;235.2147;6.760869;-3.87631;197.0164;200.8227;-0.1603909;0.01747471;0;
-148.3515;0;-145.426;-91.73242;6.820448;-2.465773;-127.0188;-124.4032;-0.03029507;-0.1124775;0;
-656.5719;0;-620.0412;-604.0702;1.254866;-6.549254;-628.2642;-625.2764;0.09967005;-0.04739717;0;
-517.1694;0;-500.6654;-497.3915;-1.024547;-5.671896;-492.3259;-488.7789;0.03460256;0.08258516;0;
-222.9848;0;-227.4869;-223.0294;0.5177004;-4.661452;-198.6036;-198.4334;-0.03039955;0.1474695;0;
-225.2595;0;-225.6341;-225.8038;-1.759995;-5.058666;-198.404;-202.1696;0.09956568;0.4071907;0;
159.8358;0;129.4142;153.9198;7.886339;7.137066;179.2931;174.4069;0.2943677;0.2768469;0;
680.9133;0;616.4768;681.0626;10.95987;9.876073;694.229;688.0983;0.4240066;0.08166667;0;
489.2001;0;449.6909;520.2713;3.446773;12.8134;506.8753;499.314;0.5535152;-0.04835009;0;
171.368;0;157.8855;226.396;3.376937;16.48446;189.2129;185.6572;0.4230244;-0.3081709;0;
188.3747;0;167.8468;242.7851;4.377922;5.549925;203.453;204.0238;-0.09713944;-0.1779265;0;
-154.4548;0;-152.1611;-97.91269;3.502866;4.137707;-132.7076;-133.3867;-0.2919438;0.147089;0;
-655.4227;0;-619.5857;-604.8094;4.637446;-0.08625299;-627.6379;-627.8166;-0.2916505;0.08197383;0;
-509.7121;0;-494.5881;-492.7578;4.03055;-4.172003;-485.3284;-483.7578;-0.3563248;-0.3079126;0;
-207.6015;0;-218.0424;-213.3403;1.949419;1.123719;-184.2419;-185.9212;-0.1610647;0.1471682;0;
-214.6393;0;-220.8218;-220.6847;0.8093609;-0.6189669;-188.8044;-193.7929;-0.2258703;0.5368243;0;
153.2666;0;120.0413;143.0419;1.946648;4.874134;172.0166;168.1575;-0.4855126;-0.2433231;0;
688.1561;0;618.4826;681.9397;3.68698;7.883468;699.4536;694.5989;-0.2901228;-0.308046;0;
509.1793;0;461.5022;533.3288;-7.703579;-1.367976;524.4009;517.3646;0.03500544;0.1470349;0;
170.4626;0;149.3202;219.5754;-11.17944;-0.9647039;187.2307;183.6373;-0.2898664;0.2768219;0;
184.5967;0;157.1662;234.5971;0.6881389;-3.776896;198.7866;198.8825;-0.2895752;0.2115764;0;
-142.2996;0;-145.7146;-87.28948;0.01688606;-6.921299;-121.6272;-121.9686;0.3603892;0.1463964;0;
-647.715;0;-617.6434;-597.8201;9.528689;9.496108;-620.6291;-620.0956;0.1001577;0.081282;0;
-508.5088;0;-502.2055;-495.7704;14.27454;13.10365;-485.9478;-484.2281;-0.09484495;-0.1137017;0;
-208.6483;0;-228.6506;-223.7837;-3.087531;6.392307;-188.109;-189.0771;0.2300871;-0.4384242;0;
-211.812;0;-226.1095;-228.7438;-5.697373;8.060457;-188.0449;-192.4478;0.2948232;-0.2430816;0;
162.2754;0;121.6929;143.2367;-6.227512;1.354187;179.5843;175.3732;0.1645923;0.4718034;0;
679.04;0;605.8897;666.9545;-9.771228;-1.125542;689.9597;685.2532;0.09945956;0.6662314;0;
494.1378;0;443.987;514.1108;-9.225547;4.301085;509.1695;503.0933;0.2292943;0.08085586;0;
175.926;0;149.751;219.1797;-12.36411;3.894865;191.2549;188.6831;-0.0957728;-0.1790948;0;
189.6173;0;157.9714;231.7655;-4.24736;2.283483;202.0572;202.8613;-0.4854806;-0.04898013;0;
-149.278;0;-157.8412;-103.3615;-0.558421;1.678342;-129.8541;-129.2382;-0.03022141;-0.1138983;0;
-654.8738;0;-631.7568;-614.3757;-16.03055;3.819988;-628.0356;-625.7962;0.09974363;0.01615088;0;
-518.7214;0;-515.3677;-510.8726;-17.8231;5.289774;-494.4089;-490.9848;-0.03029127;-0.0488327;0;
-212.1665;0;-231.7422;-225.5025;-12.58028;0.3278436;-188.6906;-188.8306;0.1646412;-0.1787183;0;
-208.2052;0;-222.4514;-221.5278;-14.30993;0.4614801;-182.0042;-185.9547;0.2294431;0.5361021;0;
158.7572;0;118.1636;141.5749;-1.100037;3.609092;178.2477;173.8638;0.1642452;0.9253674;0;
686.7072;0;614.0455;677.7881;3.255325;4.945125;700.306;694.8647;0.3589822;0.3397315;0;
502.297;0;456.1326;526.8076;-4.518454;6.681712;521.1921;514.3193;0.7484255;0.2094555;0;
164.4619;0;145.2053;211.9987;-2.504182;7.076896;185.0246;180.6575;0.6177388;0.3391797;0;
192.8448;0;166.9859;240.6462;-8.262442;14.90654;210.0135;209.5239;0.0973794;-0.05096518;0;
-130.6865;0;-131.2196;-77.06104;-9.794381;16.70011;-107.6629;-106.6528;0.09728155;-0.245816;0;
-649.9191;0;-614.6572;-600.0956;-5.966146;16.54936;-619.9847;-617.0391;-0.1626856;-0.05066697;0;
-515.9581;0;-501.4711;-497.9812;-8.103605;18.27429;-488.7399;-484.5478;-0.1625221;-0.1805507;0;
-209.0311;0;-219.9835;-213.1862;3.357765;7.605882;-182.9647;-182.5875;0.2924126;-0.2453367;0;
-209.5083;0;-216.8264;-215.4708;6.43585;5.186853;-182.2811;-185.5899;0.2271514;-0.2450902;0;
161.6408;0;127.8433;151.5613;-0.5368421;2.904344;181.5942;178.851;0.03202117;0.1449602;0;
681.7169;0;615.8445;678.5191;1.40608;0.02115974;695.3409;691.6634;-0.162913;0.2097819;0;
495.9374;0;454.2441;524.9767;-8.039804;6.183446;513.046;507.6231;-0.09778199;-0.0502983;0;
168.6659;0;152.3142;221.6014;-9.906759;7.449909;185.8197;183.9005;0.03225095;-0.05024777;0;
182.6143;0;160.9068;236.4961;-6.012039;7.710355;197.1272;198.8956;0.1621532;-0.1151646;0;
-147.7782;0;-144.414;-88.95304;-7.479867;8.908178;-125.7212;-124.0795;0.486827;-0.05008156;0;
-647.1287;0;-612.2212;-595.8588;5.120928;15.26248;-618.7844;-616.2699;0.1615011;0.07990346;0;
-509.11;0;-495.7268;-491.4998;8.397336;17.85948;-484.1051;-481.4056;-0.2284652;0.2747252;0;
-208.4368;0;-217.3683;-212.271;7.049728;16.56886;-184.0817;-185.2581;0.1615684;0.4693512;0;
-206.7906;0;-210.2784;-213.0572;8.716608;17.75791;-180.3985;-185.0719;-0.03349596;0.2090102;0;
161.2323;0;131.1364;151.0365;6.430674;14.99376;181.7258;177.0571;-0.358299;0.07886551;0;
684.0574;0;619.9464;680.9308;6.557934;15.11266;698.6583;692.9948;-0.163037;0.208721;0;
504.3976;0;463.027;531.7587;-2.088844;11.61449;521.2951;514.2005;0.03202888;0.01360918;0;
167.8097;0;150.656;218.2567;-5.77044;10.93299;184.0655;180.1015;0.2268987;-0.1163392;0;
184.7575;0;159.9999;235.1538;-4.961335;9.582343;198.1234;198.2863;0.1617034;0.2735818;0;
-134.3304;0;-136.4495;-80.79877;-7.970459;6.826536;-114.1063;-113.8187;0.2914756;0.5331762;0;
-643.9392;0;-612.9478;-596.3959;-4.74727;23.83285;-616.4891;-615.0148;0.4860847;0.5976079;0;
-506.6733;0;-495.8904;-491.4116;-4.608778;29.03345;-480.6876;-478.5276;-0.03414241;0.2072033;0;
-195.8202;0;-209.2235;-201.1884;-8.086772;17.08168;-170.3603;-172.388;-0.3589448;-0.3127436;0;
-206.7429;0;-214.6354;-212.2931;-8.81558;17.26547;-179.8718;-184.521;-0.2286495;0.01240734;0;
158.0941;0;121.6613;145.1781;-4.989305;15.64053;177.7543;173.8593;-0.03351768;0.2072969;0;
695.6649;0;622.4747;686.635;-3.242004;12.27579;708.5588;702.3564;0.161418;0.01218658;0;
516.8055;0;467.6768;540.8305;-10.20497;21.50686;533.6844;526.2388;0.2911905;-0.1827277;0;
184.7653;0;161.548;231.0675;-11.80231;22.95887;202.9391;198.9993;0.1609632;-0.2475114;0;
204.3198;0;175.5661;248.7014;-5.762228;10.67817;219.9765;218.352;-0.3589372;0.1425413;0;
-121.9092;0;-127.0833;-72.19986;-4.818434;7.854156;-99.58399;-101.9565;-0.1636745;0.4672348;0;
-625.9083;0;-600.8424;-582.0585;-5.148385;7.310523;-597.4211;-598.9167;0.421196;0.2718633;0;
-491.659;0;-486.9831;-482.0861;-3.134456;3.95403;-466.0741;-466.4437;0.1609034;0.1416555;0;
-189.3792;0;-207.2592;-200.9303;-8.02045;9.241587;-164.9444;-167.9373;0.1607417;0.2714478;0;
-186.94;0;-199.5547;-199.1042;-9.486259;9.701181;-161.1555;-167.0814;0.2255476;0.2062077;0;
187.3098;0;148.471;169.2233;0.3698853;3.797057;207.009;200.7142;-0.3593852;0.1410332;0;
717.7924;0;645.0721;705.7835;1.909755;3.324362;732.8491;724.8115;-0.4239914;0.1408915;0;
542.0966;0;494.3119;563.8328;-0.1682688;0.7757919;561.6359;551.7947;0.09617338;-0.1840868;0;
214.5912;0;194.1534;261.9178;0.03297111;-0.6316292;235.2978;229.2147;-0.03385794;-0.3138365;0;
233.9907;0;207.0142;281.2072;-2.044143;3.990706;252.0528;250.1612;-0.3586606;0.2711849;0;
-84.64687;0;-88.17053;-34.16693;-2.644325;4.924457;-60.91825;-63.24525;-0.09843088;0.07601038;0;
-590.8074;0;-560.8443;-544.4386;-6.593783;4.584594;-560.4185;-561.6812;-0.03336463;-0.3788374;0;
-462.7777;0;-454.0841;-449.7513;-7.859956;5.584732;-435.4803;-434.9302;-0.1632658;0.2062494;0;
-154.0302;0;-170.0204;-164.0054;-10.12923;5.311188;-128.5718;-132.2076;-0.3580038;0.4009441;0;
-148.6281;0;-158.7926;-157.7186;-11.4592;5.5068;-120.5716;-128.5141;-0.2277094;0.07570456;0;
222.0225;0;186.6933;209.3804;-7.629295;8.850291;243.5541;236.0569;0.09735616;0.07562849;0;
760.4662;0;692.1266;753.2715;-7.487907;10.98485;774.7297;766.4905;-0.03267635;-0.0543822;0;
594.1603;0;547.8783;617.3326;-1.183744;4.87849;611.9702;602.6147;-0.1625782;-0.3141969;0;
271.1003;0;248.6654;316.7381;1.831556;3.667896;289.5796;283.8567;-0.2273822;0.01095549;0;
304.7484;0;276.5264;351.3398;-1.385465;8.888757;320.6478;318.3665;-0.1621864;0.4007486;0;
0.6573719;0;-3.298431;52.63669;0.1561682;8.611894;23.72472;21.00838;-0.2269907;0.2704112;0;
-495.219;0;-464.5008;-447.6647;-1.987442;12.15334;-464.991;-467.1424;-0.29173;0.2701395;0;
-351.5434;0;-338.5346;-334.8964;-2.587682;13.68161;-323.9694;-324.9942;0.3582366;0.269868;0;
-29.66429;0;-40.40666;-34.77308;1.634477;7.974435;-3.055017;-8.451585;0.2279419;0.009727497;0;
-29.38461;0;-35.24364;-35.73763;2.972005;7.028783;-0.1159227;-10.25468;-0.2270585;0.07468508;0;
339.522;0;308.5565;330.5517;-0.7820253;7.490601;362.5769;353.6977;0.2929083;0.07461003;0;
891.3408;0;827.298;889.1886;-1.450825;7.683901;907.6884;898.5682;0.5524834;-0.05539963;0;
720.718;0;681.2273;750.3644;2.971262;2.719565;740.9847;730.312;0.4219936;0.009623376;0;
382.351;0;368.1998;436.2055;2.901904;0.9084156;403.9092;397.2452;0.03176551;0.07458106;0;
402.3316;0;382.6349;456.9441;6.984825;7.404725;421.1819;418.5851;-0.03323374;0.009538767;0;
80.33899;0;85.14973;138.7696;9.053911;7.732078;105.0424;102.3857;0.1617017;0.1394639;0;
-424.3631;0;-387.9481;-372.8002;0.8057915;10.20268;-393.5001;-396.404;0.09657186;0.009389048;0;
-285.6312;0;-269.0553;-267.4784;-0.6015377;10.66131;-258.0476;-260.8236;-0.09842721;-0.2504897;0;
24.9998;0;18.19577;21.45776;-0.7346551;10.65059;51.05648;45.40967;-0.228263;-0.2502381;0;
20.35201;0;17.24046;16.50118;-2.743649;10.90782;49.25605;40.67889;-0.2280336;-0.1200519;0;
385.1482;0;355.3657;376.9284;-0.3290185;2.189326;407.9013;399.2703;-0.09786982;0.2049054;0;
928.8627;0;864.6899;925.2739;-0.8645514;-0.894089;944.0342;934.3499;-0.03280414;0.5295362;0;
756.7654;0;715.0209;784.2896;-0.7299608;-4.443164;775.4824;764.496;-0.4225752;0.3990695;0;
415.3637;0;401.3972;468.0351;-0.1933639;-8.524536;435.9984;428.2714;-0.7469873;0.2687338;0;
439.0592;0;419.8594;492.0525;-2.336623;-6.372639;457.3619;452.891;-0.6163021;0.1385291;0;
122.2146;0;122.9615;178.0906;-1.798412;-7.437963;146.121;141.9045;-0.09594407;0.07342256;0;
-392.7744;0;-360.5441;-343.3888;-5.681371;-8.63606;-362.5202;-366.67;0.4888584;-0.05658592;0;
-260.1962;0;-248.1131;-245.6552;-8.087536;-7.756726;-232.1588;-236.9916;0.4233999;-0.3813658;0;
50.59669;0;39.49175;42.88421;1.900925;-10.49511;78.16862;70.15479;0.2930397;-0.3160152;0;
51.98262;0;47.63545;43.65321;3.440233;-10.41758;81.65079;70.64652;0.6825494;0.07410637;0;
421.9319;0;389.2284;406.6144;2.2977;-3.374028;444.8237;433.0183;0.4219941;0.009064551;0;
953.3032;0;883.2137;941.3743;5.644294;-0.6244599;968.6757;955.1956;-0.03320127;0.1389901;0;
777.1833;0;729.778;797.2504;-8.762341;-0.4898666;795.5389;780.698;0.1617341;0.6585892;0;
441.071;0;419.8876;486.605;-12.70565;1.118216;460.8448;450.829;0.1615716;0.3980581;0;
451.2474;0;423.7136;497.1106;0.9047714;3.729305;468.8775;463.8692;-0.0984601;0.007854061;0;
130.455;0;126.3121;178.8333;1.507075;4.596336;154.0644;148.3115;-0.1633285;0.2677155;0;
-378.108;0;-348.2639;-335.4005;5.725119;6.132325;-347.5883;-353.5229;-0.3580664;0.3324139;0;
-261.5989;0;-251.275;-251.3556;9.47041;7.733631;-234.4208;-239.7247;-0.422674;0.2021452;0;
40.57465;0;27.46251;29.50596;2.22625;0.4919478;65.41416;57.24205;-0.03244523;0.0720074;0;
40.28401;0;32.18253;29.72618;3.162018;-0.4463076;67.90965;56.24751;0.2274567;-0.05799966;0;
394.0032;0;359.0484;378.9583;1.149109;-0.7807738;415.5416;403.6413;-0.09760851;0.007025965;0;
924.9028;0;855.313;913.8085;-0.5260089;-2.588528;938.611;926.5352;-0.5522819;-0.1878831;0;
751.3102;0;705.9032;771.9611;8.315779;5.786817;769.2525;756.1894;-0.1619228;-0.05775965;0;
403.2923;0;385.2922;449.6595;9.379149;6.919712;423.3405;413.414;0.2930112;0.4620371;0;
419.004;0;394.7126;464.8249;10.70987;8.788159;435.8462;429.5528;-0.2270219;0.5915076;0;
102.6793;0;101.6507;151.7025;13.04266;10.58787;125.2516;118.7147;0.09804292;0.3960112;0;
