Fp1;Fp2;O1;O2;POLY3;POLY4;A1;A2;Video;Audio;event;
697.8143;0;0;637.7369;7.08022;8.075962;675.3331;669.731;-0.1622884;0.06262852;0;12:33:00 Глаза открыты;
289.5679;0;0;270.9677;7.073106;8.335779;272.669;269.3215;-0.09715801;-0.0673691;0;
215.0018;0;0;200.2933;0.3672178;17.03494;197.9325;198.7737;-0.2269951;-0.1322688;0;
109.0264;0;0;107.2012;-0.9049729;19.76412;97.09667;97.81209;-0.1617996;-0.0671685;0;
-478.7253;0;0;-452.9999;-2.24421;15.92624;-480.648;-482.2447;0.09823231;-0.1320684;0;
-671.3347;0;0;-667.1869;-4.184338;16.0442;-674.8797;-675.5377;-0.03180109;0.06296638;0;
-296.848;0;0;-333.3715;4.661125;15.42523;-306.2615;-306.7939;0.09816555;-0.06703158;0;
-214.4035;0;0;-253.3265;6.799896;15.20879;-221.3713;-226.5883;0.09806692;-0.2618662;0;
-102.8066;0;0;-150.9358;4.918029;9.768007;-110.6419;-117.4779;-0.4217704;-0.001733761;0;
523.5444;0;0;446.2907;6.453329;7.480895;506.8464;502.0163;-0.2914119;0.19317;0;
701.1164;0;0;641.3065;5.777259;8.344156;683.5605;676.3615;0.03371764;0.3229106;0;
278.0617;0;0;259.2289;6.441039;5.522489;264.9588;257.8919;-0.3561203;0.8423249;0;
204.1943;0;0;188.8786;6.367218;14.49253;189.5428;186.7309;-0.1608604;0.7765111;0;
115.9084;0;0;113.2268;7.097755;16.88923;105.0198;101.8359;0.4240073;0.1260575;0;
-475.9731;0;0;-446.1684;6.689457;5.418424;-475.4191;-480.7862;0.2936465;-0.2638732;0;
-670.3969;0;0;-660.2997;7.15125;3.53758;-668.0318;-672.4565;-0.03148521;-0.1986407;0;
-298.9097;0;0;-327.6156;8.014721;3.199111;-301.9193;-305.8397;-0.3562903;0.1263956;0;
-222.3976;0;0;-250.3251;6.934941;0.7175275;-224.5296;-231.4447;0.2287738;0.06130124;0;
-95.86267;0;0;-136.3183;17.64524;2.458363;-100.3038;-107.8366;0.7482827;-0.2635971;0;
529.1695;0;0;461.2059;20.97641;1.585114;515.3625;509.7738;-0.03207733;-0.1333975;0;
692.4929;0;0;650.7095;11.97938;-3.841974;679.6368;672.3047;-0.2269471;0.1915732;0;
283.1275;0;0;284.3645;11.6999;-7.120155;276.2814;269.2064;0.163085;-0.06848865;0;
213.8777;0;0;217.7371;6.062065;-1.754488;205.6016;203.2189;-0.09694827;-0.1333872;0;
112.5262;0;0;127.5635;1.769066;-1.551776;107.2569;105.5013;0.03308383;0.1266162;0;
-479.0396;0;0;-437.4057;9.805241;-8.717269;-475.3706;-479.3108;0.2279526;0.126489;0;
-667.5883;0;0;-648.6723;9.795388;-9.311357;-664.61;-667.8592;0.1627562;0.1263619;0;
-293.7925;0;0;-313.0014;4.22584;-15.33034;-296.0022;-299.9352;0.2925274;0.1912023;0;
-222.9078;0;0;-241.4727;4.020524;-17.7262;-223.1787;-231.2307;0.1622988;0.1260428;0;
-101.6821;0;0;-133.4093;-1.543222;-11.01022;-104.639;-113.2451;-0.09773369;-0.1989205;0;
532.1015;0;0;468.9221;-4.220989;-9.860568;519.2776;513.7411;-0.2275702;-0.5885247;0;
699.2326;0;0;659.2925;1.811473;-5.028011;687.0463;680.7032;-0.1623742;-0.5879334;0;
275.9924;0;0;280.1953;1.207416;-0.5352242;269.4405;262.2917;-0.2271784;-0.2625059;0;
202.3145;0;0;206.8879;5.827903;-4.486557;192.958;190.0643;-0.6167541;-0.1323075;0;
112.906;0;0;123.4094;9.103601;-3.142391;105.1832;104.2289;-0.2263304;-0.4570112;0;
-475.5992;0;0;-437.2454;-3.49785;6.238133;-473.5067;-476.6464;0.2286684;-0.1317153;0;
-667.712;0;0;-648.8245;-5.504067;9.514029;-664.4971;-667.0715;0.03353665;0.2582211;0;
-295.1655;0;0;-318.7756;-1.14428;8.566709;-297.0763;-298.7735;0.09847029;-0.2617771;0;
-226.5907;0;0;-255.0496;-2.483277;9.696688;-228.1248;-233.6309;0.3582407;-0.1965467;0;
-100.239;0;0;-140.9131;5.155029;9.753928;-104.8949;-111.8323;0.1629787;0.2584222;0;
538.4783;0;0;469.1719;8.164935;9.208385;525.0189;519.7752;-0.4218911;0.3231299;0;
697.2946;0;0;652.4831;1.324228;8.46232;684.7858;677.8607;-0.3564999;0.0629358;0;
279.8659;0;0;279.827;1.523968;7.114159;273.0543;266.6359;-0.09627227;-0.06706213;0;
214.6798;0;0;216.1402;4.469198;4.494676;206.8131;204.8989;-0.2261102;0.5177113;0;
105.269;0;0;116.0357;5.134292;2.882692;100.4711;99.99566;-0.225883;-0.06751495;0;
-485.3524;0;0;-447.4227;7.206214;-1.741905;-482.087;-483.1243;-0.09572137;-0.5222185;0;
-663.8373;0;0;-647.8097;8.605493;-4.754387;-661.1998;-661.4864;-0.3554946;0.3228817;0;
-296.9793;0;0;-321.385;7.324049;-2.673139;-298.2176;-300.5029;-0.29017;0.1276552;0;
-223.3428;0;0;-252.659;7.049245;-4.278043;-224.0176;-230.361;-0.2249111;-0.06737509;0;
-91.37209;0;0;-133.4025;14.00741;-2.063308;-96.16915;-102.4437;-0.02978309;0.06262732;0;
535.1548;0;0;467.1173;17.00745;-0.9225248;520.7424;515.2863;0.2301162;-0.392207;0;
693.2874;0;0;651.0552;9.154452;-7.083906;679.764;672.4392;-0.09495173;-0.002008879;0;
278.0491;0;0;275.7144;8.809485;-7.009805;271.0361;265.3428;-0.6145951;0.3228299;0;
209.4915;0;0;199.1632;13.35596;-9.615095;199.7994;198.7346;-0.6789448;-0.06729858;0;
106.895;0;0;104.0108;14.48064;-11.54782;97.71236;97.33575;-0.2234913;0.06270374;0;
-490.0999;0;0;-460.56;13.66278;-3.029626;-490.84;-493.5901;-0.093332;0.4524448;0;
-677.5129;0;0;-669.1171;12.57733;-2.222786;-679.127;-680.9996;-0.3531076;0.6468922;0;
-298.9596;0;0;-331.4267;21.27223;0.8605402;-305.8818;-307.4403;0.166986;0.1265035;0;
-226.2581;0;0;-262.8155;22.25523;3.739942;-231.6741;-237.5414;0.4266875;-0.3283951;0;
-102.0306;0;0;-152.4193;22.43394;-5.172424;-110.2523;-117.1131;-0.0285126;-0.1981304;0;
534.6894;0;0;456.4904;25.55923;-5.770073;518.2927;512.9379;-0.1584186;-0.327866;0;
695.3211;0;0;640.8763;5.975019;-7.50571;679.3157;671.9048;-0.4830962;-0.5224386;0;
270.7105;0;0;260.1109;0.6113569;-9.507656;258.8441;252.3778;-0.6125454;-0.3270116;0;
202.91;0;0;197.0061;9.719445;-3.536744;190.2434;189.7805;0.3625802;-0.001846327;0;
101.2571;0;0;108.2277;7.901994;-2.863361;92.35131;93.26324;0.7520199;0.2580249;0;
-494.4828;0;0;-457.1594;12.71585;-1.453842;-494.1342;-495.722;0.2964929;0.322733;0;
-673.1458;0;0;-658.0988;13.7748;-0.3137934;-673.4848;-674.0715;0.03632561;0.1275067;0;
-301.0936;0;0;-325.292;15.16748;0.4233342;-306.992;-308.3901;-0.2885476;-0.06752348;0;
-236.0736;0;0;-257.624;17.36304;1.293687;-239.7796;-246.4237;-0.158323;0.1274464;0;
-100.9042;0;0;-134.5519;12.65654;0.2206601;-107.1677;-114.3674;0.03673812;0.06235101;0;
535.5023;0;0;473.6527;12.8449;0.7563019;519.7499;515.556;-0.2231682;-0.002679001;0;
687.2627;0;0;652.2742;11.76026;-2.593483;673.0878;667.4613;-0.02804189;0.4520951;0;
272.9675;0;0;277.3694;11.94952;-2.992774;264.9288;259.4329;0.1668883;0.5815755;0;
214.2851;0;0;214.5597;11.1342;-3.592613;203.8806;202.0759;0.3616226;0.1262197;0;
100.9391;0;0;113.02;11.32409;-4.593748;92.48167;90.49136;0.6211287;0.06112558;0;
-499.9853;0;0;-456.0576;18.47903;3.783613;-497.8146;-502.1767;0.1007658;0.1260315;0;
-672.1461;0;0;-648.5648;21.74299;6.860904;-668.5408;-672.1489;-0.2241722;-0.1989319;0;
-297.2213;0;0;-313.4563;24.86897;4.643573;-298.6172;-302.534;-0.02904488;-0.1337646;0;
-228.3946;0;0;-248.7986;28.46131;6.782361;-228.852;-236.7629;0.100919;0.5160432;0;
-92.92062;0;0;-128.1092;29.83923;6.64158;-97.25062;-104.9661;0.1008176;0.580492;0;
543.2905;0;0;481.5881;30.6799;6.902839;530.2817;525.0727;-0.3540551;0.06017002;0;
697.9166;0;0;662.5755;37.95009;13.52709;686.0453;679.2173;-0.8084707;-0.004857796;0;
270.5548;0;0;277.5405;40.39021;15.85778;263.8179;257.8088;-0.4828217;0.3849511;0;
200.3181;0;0;207.4842;31.50837;11.82299;193.0257;190.8333;-0.09253249;0.4495317;0;
100.6043;0;0;118.008;29.73539;11.94508;95.5057;93.69032;-0.02747217;0.3191453;0;
-492.5112;0;0;-446.9516;24.74804;10.72738;-488.8591;-492.1094;0.1024901;0.4487593;0;
-668.4276;0;0;-646.0897;19.83403;8.506289;-663.4673;-665.59;0.1673545;0.3183737;0;
-291.0078;0;0;-309.9841;25.30646;14.19117;-291.2999;-293.4204;-0.1576504;-0.006782905;0;
-224.4987;0;0;-245.1426;24.20931;14.24389;-224.1034;-230.2197;-0.2224593;0.05819127;0;
-88.279;0;0;-120.8961;16.54917;9.607758;-92.63166;-98.80434;-0.02733377;0.3829695;0;
546.3657;0;0;486.1703;13.58578;9.464138;531.8975;528.9794;0.03766103;0.447552;0;
684.5595;0;0;644.9142;15.84931;0.8140739;672.3547;666.5035;-0.09231149;0.05729828;0;
258.1482;0;0;256.836;15.23017;-2.200854;251.078;244.3582;-0.1571861;-0.007726646;0;
200.0428;0;0;202.9174;11.39745;2.557024;191.1058;189.7025;-0.09206079;0.1222158;0;
93.39534;0;0;107.9486;10.98385;2.353505;87.46576;86.81348;-0.09196829;-0.2027437;0;
-498.9633;0;0;-459.1248;8.226151;3.757782;-496.766;-499.2917;0.2979282;-0.397442;0;
-667.9393;0;0;-651.629;6.945087;4.088921;-666.8062;-667.8925;0.2976288;0.05772874;0;
-298.9532;0;0;-322.5143;12.29674;8.840479;-303.6308;-304.6536;-0.222409;-0.07226396;0;
-231.1868;0;0;-256.161;13.42346;10.50605;-234.2979;-239.5051;0.2975532;-0.2670934;0;
-88.90086;0;0;-128.8425;13.27625;8.285175;-94.4452;-101.1464;0.6220909;0.2529137;0;
544.9324;0;0;474.7337;14.13357;8.477799;529.711;524.8281;0.1017271;0.2526596;0;
688.5624;0;0;643.6715;13.9183;5.321083;674.0435;667.3539;-0.02830976;-0.007463636;0;
264.8956;0;0;263.4655;13.56952;4.913839;256.1384;250.2052;-0.2231833;0.1224786;0;
206.2838;0;0;206.9791;13.22109;-3.262772;196.4109;194.6691;-0.2229591;0.1223555;0;
105.4396;0;0;118.1906;12.2698;-7.747228;97.6381;96.02295;0.4919057;-0.007702147;0;
-491.9286;0;0;-446.8317;10.38146;1.771889;-491.7263;-493.9645;0.8812155;-0.1376291;0;
-666.9086;0;0;-645.0953;9.567725;1.435194;-666.8939;-667.8805;0.5554934;-0.1374908;0;
-290.4274;0;0;-315.7374;4.065755;1.567717;-295.9724;-297.7077;0.2300985;-0.07238531;0;
-225.6055;0;0;-250.8276;1.985565;2.771835;-229.7707;-234.8775;0.03496523;-0.2022473;0;
-88.32275;0;0;-124.3265;1.71515;-3.66119;-93.73306;-100.0841;-0.03003724;-0.07210936;0;
542.5115;0;0;475.1846;-0.631098;-4.729238;529.8602;524.9523;-0.03000706;0.2527998;0;
678.7101;0;0;637.5004;6.068317;-4.389571;667.5084;661.8558;-0.1599116;0.5124152;0;
259.9258;0;0;261.1736;6.664456;-4.519126;254.6074;249.4602;-0.1597509;0.3169983;0;
200.4444;0;0;200.3167;6.725109;-5.452347;193.1948;192.1757;0.100279;-0.008156971;0;
85.55063;0;0;98.66636;8.861805;-5.312902;80.30729;79.72655;0.1651455;-0.008148775;0;
-506.5503;0;0;-461.4013;-3.471959;-2.226349;-502.7928;-504.6224;0.03504493;-0.3329773;0;
-670.5211;0;0;-647.4064;-7.688029;-1.018419;-666.6425;-667.4707;0.2299117;-0.4625774;0;
-300.8453;0;0;-319.2955;-0.04449356;4.207151;-302.0931;-303.6076;0.3596154;-0.2022432;0;
-235.1384;0;0;-254.1323;-1.116176;6.748153;-235.0731;-239.647;0.0993847;0.3176987;0;
-88.35081;0;0;-118.1327;-2.722645;8.549911;-90.53441;-96.10326;-0.03064985;0.7071835;0;
547.356;0;0;489.6181;-2.452465;11.2875;536.3665;531.5529;0.09931564;0.1217669;0;
684.9865;0;0;652.419;-5.329413;6.252559;674.9451;668.1373;0.0342485;-0.3980942;0;
256.9506;0;0;266.3947;-3.716468;5.844379;253.2286;247.1148;0.1641488;-0.2677595;0;
197.9094;0;0;206.2196;-9.942024;8.584806;193.2542;191.9566;0.03404915;-0.07258844;0;
97.13611;0;0;117.0571;-11.27218;8.643164;95.23413;93.8754;-0.1608871;0.1223865;0;
-500.9109;0;0;-451.2124;0.126;9.84005;-494.0654;-497.2343;0.1641113;0.3171656;0;
-672.3837;0;0;-646.9729;0.8628076;10.83491;-665.7324;-667.7113;0.4238158;0.3818142;0;
-287.3387;0;0;-303.2453;12.31614;9.886258;-286.004;-289.3552;0.4883572;-0.008373477;0;
-223.0197;0;0;-239.5974;16.65705;9.809341;-220.3745;-228.8447;0.3579319;-0.2682344;0;
-87.30124;0;0;-118.1676;10.67944;14.55515;-87.90703;-97.99294;0.09770283;-0.1380302;0;
555.0262;0;0;495.7052;13.4144;16.08113;544.8633;537.0364;-0.2921994;-0.007956846;0;
687.5891;0;0;654.627;-6.358677;13.92164;678.186;669.9297;-0.2269384;-0.007948851;0;
260.6124;0;0;270.7243;-13.78703;13.70671;256.7785;249.6549;0.09812629;-0.2028429;0;
207.6271;0;0;219.5404;0.8288612;16.50609;202.4852;199.9914;0.09802769;-0.1376717;0;
88.60316;0;0;108.438;0.4258867;18.0971;85.90273;83.84875;0.1628965;-0.07256605;0;
-505.9371;0;0;-461.8219;-4.196241;9.974103;-500.5763;-503.5653;0.2277002;0.05744156;0;
-665.0359;0;0;-645.0779;-4.727889;7.552817;-660.4302;-661.9794;0.2274714;0.05738384;0;
-300.1758;0;0;-322.4666;-0.5035793;13.23866;-300.7596;-304.1188;0.1622755;-0.1375759;0;
-234.7194;0;0;-260.9234;1.104517;12.08664;-234.6155;-242.9688;0.0971451;-0.3323396;0;
-79.43652;0;0;-118.8575;1.907691;15.95939;-82.76845;-91.36324;-0.2277892;-0.3320057;0;
551.8885;0;0;486.5202;5.187327;17.14904;540.0017;533.7894;-0.7472991;-0.2667048;0;
677.3956;0;0;637.4553;-1.850483;12.1752;666.0829;658.1277;-0.1618421;-0.006567415;0;
247.6181;0;0;249.322;-2.71928;13.03374;241.6267;233.9294;0.2281246;0.1233739;0;
187.7118;0;0;192.1626;6.325783;2.169654;180.3521;177.1602;-0.1619087;-0.1366195;0;
87.13616;0;0;104.0137;7.592224;-2.521209;81.90778;79.34378;0.228058;-0.006547507;0;
-503.9668;0;0;-458.9954;13.07695;9.872801;-500.8816;-504.8798;0.2927962;0.3832631;0;
-673.3126;0;0;-653.4362;16.14527;10.06383;-670.6677;-673.4125;-0.2272367;0.05804132;0;
-294.701;0;0;-319.9469;13.24866;9.115955;-297.681;-300.6729;-0.0970737;-0.2018864;0;
-230.4995;0;0;-259.2808;14.84294;9.508694;-232.1647;-238.7143;-0.03200882;-0.3965856;0;
-88.08934;0;0;-129.5853;9.134597;5.8152;-91.81432;-98.60724;0.1629254;-0.3312197;0;
550.6157;0;0;481.1755;6.848242;4.871596;538.7735;533.799;0.09779432;-0.07101753;0;
677.9981;0;0;637.1758;10.72613;1.182761;668.854;661.5107;-0.2271407;-0.1359135;0;
250.6563;0;0;253.9779;8.639245;-0.09110273;248.268;240.5573;0.03295694;-0.005842269;0;
197.8059;0;0;200.3745;12.24691;-3.975899;192.7963;190.2157;-0.2919129;0.05913096;0;
80.97826;0;0;95.41332;12.16823;-5.378546;76.84826;75.64459;-0.6164563;-0.1358305;0;
-509.244;0;0;-464.9009;5.658295;-5.306159;-504.8741;-509.2;-0.09609812;0.05920802;0;
-656.7829;0;0;-634.7857;3.97767;-6.841312;-653.0421;-657.1762;0.03393312;0.1241159;0;
-290.1819;0;0;-306.9373;0.02253406;3.413707;-292.5043;-296.2595;0.1638337;0.05902382;0;
-237.2293;0;0;-254.655;-0.9154937;5.620591;-239.0496;-246.3617;0.4235384;0.1888992;0;
-80.56952;0;0;-112.6579;-8.885177;4.878131;-86.63588;-93.75323;0.2282109;-0.07115999;0;
554.1924;0;0;492.2763;-12.69464;6.346854;539.2616;534.5876;-0.2267898;-0.1360558;0;
670.8891;0;0;630.8367;0.1114877;0.1781691;658.2847;651.4915;-0.3564967;0.1239503;0;
250.8008;0;0;249.4568;2.121108;-1.898359;243.5813;237.4821;-0.09626907;-0.006108984;0;
202.6979;0;0;203.5415;1.180971;-4.642752;192.9244;190.8918;0.163697;-0.3309396;0;
85.42804;0;0;101.2633;2.251512;-7.317282;77.91328;76.07013;0.03359786;-0.2656397;0;
-509.6712;0;0;-465.616;7.005648;-9.855281;-507.8706;-511.5235;0.0335641;-0.0055034;0;
-664.9557;0;0;-646.3071;10.01272;-11.45285;-662.9071;-665.9941;0.4233344;-0.07046521;0;
-287.7894;0;0;-309.9514;-0.7819608;-13.98669;-291.9896;-294.6987;0.4878764;-0.005427066;0;
-228.155;0;0;-251.6067;-2.321417;-15.58023;-232.2261;-237.6186;0.4224188;0.1245131;0;
-81.62432;0;0;-116.9839;-3.524533;-8.531486;-88.12759;-93.8895;0.03219033;-0.07051407;0;
560.7598;0;0;498.3869;-6.335006;-6.714374;545.7049;541.5729;-0.357646;-0.2653452;0;
685.3835;0;0;647.8107;-1.103728;-6.03792;671.2182;665.2164;0.3573541;-0.2001113;0;
255.2232;0;0;260.3542;-1.973275;-4.424263;246.257;240.9484;0.6818317;0.1249265;0;
204.9918;0;0;212.1792;2.382964;-4.419817;194.3481;193.7299;-0.3583309;0.2547357;0;
87.59476;0;0;107.581;4.255604;-3.946496;80.5224;80.27966;-0.7477748;-0.1353243;0;
-504.6331;0;0;-458.8674;-3.250761;-4.545376;-502.9528;-504.6945;-0.1623174;-0.3300904;0;
-655.6124;0;0;-638.3784;-4.1855;-4.004946;-654.6833;-655.3614;-0.09718699;0.06004534;0;
-295.1345;0;0;-316.8358;-7.530197;-10.69909;-297.5172;-300.0062;-0.2919914;0.1899197;0;
-236.8046;0;0;-256.0478;-10.1346;-12.96564;-236.8736;-243.5455;0.09810609;0.05979418;0;
-71.46218;0;0;-105.2412;-9.521203;-9.737554;-75.02935;-81.38214;0.1629748;0.1896688;0;
566.7888;0;0;502.4966;-11.65509;-11.13441;554.0424;549.2577;-0.2919603;0.4493476;0;
686.3464;0;0;648.9179;-8.160754;-5.027898;674.9246;668.0208;-0.2916669;0.5138634;0;
265.9303;0;0;270.6432;-7.214549;-2.946375;259.9547;252.9954;-0.09647185;0.1885104;0;
217.6872;0;0;218.7722;-12.83435;-8.435893;209.1564;206.0771;-0.486179;0.1233536;0;
92.09397;0;0;102.798;-12.95518;-8.360434;85.50829;83.24417;-0.6805925;0.188197;0;
-512.6946;0;0;-472.0164;-13.3443;-8.75393;-510.0908;-514.8514;-0.03023519;-0.1368288;0;
-664.353;0;0;-647.1414;-13.53099;-9.214015;-662.6888;-666.6949;0.2946319;-0.2016587;0;
-290.6854;0;0;-315.2826;-11.44129;-8.200013;-296.0818;-300.084;0.09943382;0.1233807;0;
-233.6094;0;0;-258.6816;-11.69821;-7.990825;-237.876;-245.6847;0.2942359;0.3831261;0;
-76.51598;0;0;-113.6194;-1.706124;-7.045034;-82.96469;-90.51569;0.1640056;0.2528064;0;
566.7376;0;0;500.3737;3.520503;-5.966351;551.2999;545.2557;0.03390613;-0.07228433;0;
684.2338;0;0;644.1109;-7.066582;-6.094199;670.3109;661.5242;0.4886434;0.057723;0;
253.0752;0;0;258.2198;-5.853056;-5.552334;245.2256;237.3223;0.4231851;-0.2022044;0;
205.1573;0;0;209.7346;-5.579731;-2.264592;195.1293;191.7941;-0.4218155;-0.2020012;0;
83.51222;0;0;96.51816;-7.382786;-1.458521;74.99352;71.59924;-0.3564244;0.3829078;0;
-515.6456;0;0;-475.4789;8.164673;0.8202422;-516.0972;-520.7375;0.2936072;-0.0722483;0;
-656.0566;0;0;-637.2321;11.70644;1.958128;-655.7582;-659.5817;0.09841015;-0.7218491;0;
-280.086;0;0;-296.7001;7.27405;-0.4552252;-283.4736;-288.9799;-0.09659076;-0.5262218;0;
-228.393;0;0;-244.8029;8.137397;-0.3877849;-230.5902;-238.7771;0.09840833;-0.2658237;0;
-71.17987;0;0;-103.9401;3.172728;-3.669437;-77.43538;-85.3642;-0.09659258;-0.1356219;0;
563.4477;0;0;503.0468;0.3565005;-5.206357;547.7657;540.6569;-0.3563649;-0.1354856;0;
676.3245;0;0;643.9702;1.561591;-1.450082;662.6573;654.0564;-0.03117011;-0.3302515;0;
265.0388;0;0;271.6974;1.15788;-0.3770197;256.6952;248.7901;0.2936979;-0.199985;0;
222.5437;0;0;227.0717;-11.43559;-4.261529;211.21;207.998;0.1634681;-0.004882003;0;
88.82473;0;0;106.0293;-15.77835;-4.726128;81.00059;78.85381;-0.1615328;-0.004877097;0;
-509.9636;0;0;-465.6024;-9.198415;1.574895;-509.5965;-513.2404;-0.1613705;0.2549972;0;
-650.3179;0;0;-628.49;-10.52834;3.180903;-651.4504;-653.2165;0.293563;0.1248063;0;
-277.1642;0;0;-292.9019;-2.613534;5.12009;-282.4185;-285.1823;0.2283007;-0.3950579;0;
-222.7879;0;0;-240.1964;1.072787;7.593314;-227.4747;-234.2962;0.09813662;-0.1997589;0;
-63.95622;0;0;-95.09035;-7.703176;3.968727;-72.07409;-77.63941;0.03307067;0.1252785;0;
574.0374;0;0;515.0735;-8.767163;4.031723;557.7443;555.8077;-0.2917993;-0.4595534;0;
682.7806;0;0;648.1763;-3.265998;5.501174;667.2535;665.7562;-0.2265387;-0.524059;0;
250.1242;0;0;255.7844;-3.195367;4.959783;240.7971;239.7386;-0.09637641;-0.1337284;0;
200.7726;0;0;206.9893;-4.464954;6.495407;189.7682;191.9591;-0.03131223;-0.2635287;0;
85.31626;0;0;104.7701;-3.388741;5.953017;76.32192;78.63554;0.2935559;-0.3931986;0;
-504.5355;0;0;-455.2412;-12.36032;6.482899;-505.2125;-505.0251;0.3582283;-0.1979015;0;
-651.0172;0;0;-625.3231;-14.62605;6.409401;-653.3176;-651.8187;0.03303165;-0.26267;0;
-281.4859;0;0;-300.2953;-8.850576;3.053937;-288.4693;-287.409;-0.3568056;-0.3923407;0;
-226.668;0;0;-250.3935;-8.975405;2.983885;-231.8952;-234.8965;-0.161545;0.3876616;0;
-69.20679;0;0;-105.4021;-3.005515;-2.042711;-78.11436;-81.36252;-0.2263501;0.5172068;0;
569.1044;0;0;503.2729;-0.2558292;-3.581266;551.3978;550.3392;-0.7458614;-0.06801899;0;
687.4728;0;0;644.6334;-0.9925064;-0.1616599;671.0958;668.2892;-0.2903405;-0.06795064;0;
262.8076;0;0;263.5518;1.151945;-0.6973609;252.3816;249.7652;0.03478792;0.06205234;0;
208.071;0;0;211.4381;-2.265464;6.805306;196.1561;198.29;-0.03021437;-0.1329121;0;
78.48941;0;0;92.22296;-3.669708;9.343698;69.52255;72.15408;0.35962;0.06212353;0;
-516.4155;0;0;-477.8957;4.371932;5.784336;-516.6277;-515.4356;0.2942913;0.1270285;0;
-647.4554;0;0;-634.0243;6.845785;5.912489;-648.667;-646.4766;-0.03084107;-0.1329686;0;
-274.4295;0;0;-299.6799;-3.945712;5.03577;-280.0127;-279.1363;0.0991246;-0.06786761;0;
-229.6137;0;0;-255.3385;-6.085201;3.82514;-234.0043;-237.4391;-0.1608444;-0.002832081;0;
-64.96561;0;0;-105.2822;-1.72483;1.275945;-72.97498;-78.03057;-0.3555848;0.1271055;0;
572.5292;0;0;504.4547;-2.862172;-0.2659448;555.345;551.7313;-0.09535811;0.4518144;0;
679.5249;0;0;637.8805;0.1548134;-5.490224;662.358;657.6859;0.1646071;0.1265238;0;
257.304;0;0;257.6803;0.2893558;-7.962954;246.9009;241.7963;0.1644417;-0.3283748;0;
208.2575;0;0;209.2581;1.226094;-8.155902;196.8029;195.8888;-0.09559292;-0.1981101;0;
81.73672;0;0;93.98068;3.368316;-10.42513;71.60548;72.25398;-0.2254316;0.0619583;0;
-516.1699;0;0;-476.0148;-6.480706;-2.175873;-517.2955;-518.1469;0.09963167;-0.06803865;0;
-650.4585;0;0;-635.3936;-7.814341;1.376287;-651.9578;-652.1212;0.2294662;0.06196441;0;
-267.4346;0;0;-292.9895;-6.399969;-8.069445;-274.6795;-275.7797;0.294203;0.2568042;0;
-221.2515;0;0;-245.9686;-8.536992;-8.195303;-227.7394;-232.3368;0.1639727;0.06164411;0;
-66.91913;0;0;-104.6673;2.590997;-2.69459;-76.3366;-80.30467;-0.1610288;0.1915169;0;
573.826;0;0;508.3798;4.397054;-2.022053;556.1722;553.7698;-0.2908016;0.2562917;0;
682.1947;0;0;643.4258;5.329665;3.807372;665.808;661.1591;-0.09560741;0.1260996;0;
255.1611;0;0;260.0341;8.539491;6.616707;244.8502;240.7683;-0.030544;0.1259729;0;
205.1172;0;0;213.796;-3.25711;4.265656;193.3799;193.6124;-0.4203174;0.06087893;0;
75.72604;0;0;96.57748;-4.928776;5.601029;66.9366;67.2938;-0.2899604;0.1257851;0;
-510.8677;0;0;-465.3622;-6.0629;3.853967;-510.278;-511.4829;0.1651024;-0.199178;0;
-637.9153;0;0;-617.8177;-9.338362;3.314231;-638.5756;-638.2175;-0.1599002;-0.3938799;0;
-274.9565;0;0;-292.5476;0.1154932;6.592942;-280.9883;-281.88;-0.2247069;0.06128727;0;
-230.8272;0;0;-248.0259;1.655619;6.988215;-235.8536;-240.5549;-0.02957906;0.1911604;0;
-55.99553;0;0;-87.91949;-3.034118;6.847228;-63.95286;-69.14925;-0.3543861;0.126001;0;
576.118;0;0;518.1768;-3.433211;7.510177;560.9224;557.4803;-0.35403;0.1258744;0;
672.0531;0;0;640.157;0.9908682;6.430903;658.3719;654.4336;0.1010972;0.3206499;0;
258.8977;0;0;264.7646;2.597463;6.625391;249.7905;246.7931;0.2309303;0.385295;0;
210.4118;0;0;217.3348;-3.299645;7.422529;198.5651;199.6312;0.1657309;0.1250385;0;
73.33166;0;0;93.80341;-3.296329;7.281105;64.12055;65.93522;0.4904011;-0.2648912;0;
-518.757;0;0;-470.0075;-5.369123;8.814396;-519.4631;-518.7122;0.7497777;-0.459527;0;
-648.2328;0;0;-623.4579;-6.502803;8.336658;-650.9998;-648.8128;0.2292856;0.3205428;0;
-268.0223;0;0;-286.5005;-2.209362;8.127333;-274.9718;-274.0989;-0.09578153;0.9698942;0;
-223.1504;0;0;-244.6085;-2.743005;6.377611;-227.7816;-231.3449;0.3590861;0.3192462;0;
-69.25343;0;0;-104.1207;5.89994;7.710861;-77.87793;-81.37517;0.48866;-0.135846;0;
569.1828;0;0;506.3646;8.909097;8.105011;552.3211;550.8889;-0.1615045;-0.2006768;0;
674.2452;0;0;640.7255;3.808954;-6.639012;659.0872;656.5319;-0.2263095;-0.3953772;0;
252.7793;0;0;263.3336;5.613788;-11.45499;241.8843;239.8314;0.2286893;-0.3300126;0;
211.7958;0;0;222.2145;-4.774329;-7.692558;198.4754;199.7354;0.03355746;-0.134779;0;
79.02459;0;0;100.3649;-8.989091;-9.7613;68.46626;70.34964;-0.0314436;0.06025847;0;
-517.0677;0;0;-474.9468;1.938282;-9.081662;-518.8699;-518.8624;0.2284574;-0.00476943;0;
-641.173;0;0;-629.5167;2.472198;-9.407452;-643.4106;-643.2783;0.03332578;-0.459536;0;
-275.8371;0;0;-300.4867;-2.018265;-5.245179;-281.3208;-281.7508;-0.09664239;-0.4590743;0;
-238.8284;0;0;-262.2039;-3.422756;-2.493608;-241.558;-244.9236;0.1633241;-0.06880896;0;
-60.74031;0;0;-99.2097;0.8675903;-8.18453;-66.52811;-69.57796;0.2281273;0.06119488;0;
580.8732;0;0;515.7684;1.267884;-8.377255;566.4081;564.111;-0.2268733;-0.1337686;0;
674.1799;0;0;634.0654;-5.698639;-5.488694;658.9172;654.5609;-0.2916127;-0.3285363;0;
260.8349;0;0;261.2404;-7.971065;-6.286852;250.1478;246.1706;0.2933864;-0.003369436;0;
219.406;0;0;222.9345;-9.570645;-1.7928;208.7921;208.0673;0.1631569;0.2565033;0;
73.82111;0;0;92.52597;-11.90458;-1.054187;65.27931;65.17995;0.03305831;-0.1335585;0;
-519.8297;0;0;-473.9073;-14.03607;-6.947503;-521.5538;-522.5901;0.2928945;-0.06845693;0;
-639.6844;0;0;-623.4807;-15.16104;-8.347164;-643.0309;-642.5045;0.09769813;0.1265139;0;
-267.6033;0;0;-296.1435;-18.62843;-11.62082;-277.006;-276.9173;-0.03233472;-0.06851526;0;
-225.6679;0;0;-256.4907;-20.352;-13.81958;-233.7493;-238.4708;0.03266511;0.06148828;0;
-62.08574;0;0;-107.5577;-12.56104;-14.00664;-73.84465;-79.74831;-0.2922044;-0.0685082;0;
580.7786;0;0;508.116;-9.668036;-14.39447;559.4738;554.8879;-0.2269435;-0.3932761;0;
684.1427;0;0;640.851;-13.34299;-16.45635;663.484;657.7783;-0.2267154;-0.3279136;0;
254.7958;0;0;254.9632;-12.19051;-17.04266;237.8435;234.6422;-0.6162917;0.1271873;0;
214.3724;0;0;209.917;-7.891353;-11.39909;195.3757;196.7379;-0.6156724;0.5168636;0;
88.65761;0;0;93.8268;-6.610625;-10.0481;73.17822;74.03928;-0.09531506;0.3864096;0;
-514.5034;0;0;-478.4174;-4.394156;-5.014408;-520.9092;-521.3609;0.1646501;0.2560866;0;
-644.1709;0;0;-633.2961;-3.720156;-1.459274;-651.2575;-650.7092;0.09951729;0.3207966;0;
-269.9614;0;0;-297.5157;-1.639337;-5.945664;-283.0379;-283.6771;0.1643846;-0.1342971;0;
-230.21;0;0;-254.9255;0.5721372;-4.600031;-241.9615;-246.4731;-0.03068256;-0.4589989;0;
-55.56637;0;0;-94.0626;-8.135975;-5.198255;-67.86827;-72.99998;-0.4204558;-0.2636357;0;
582.044;0;0;518.9738;-8.730036;-5.059066;565.1318;560.8798;-0.6149353;-0.06846873;0;
667.9157;0;0;633.7694;-9.056057;-2.642597;653.2693;647.335;-0.2245134;0.5163062;0;
255.0768;0;0;258.1336;-10.45445;-2.238044;241.0698;237.2029;-0.1593205;0.645722;0;
220.5877;0;0;216.8323;-0.8647789;3.792546;198.4739;199.5458;-0.4190297;-0.1345349;0;
73.7522;0;0;78.18404;0.4752607;6.735863;49.16188;50.91991;-0.2237067;-0.3293017;0;
-520.9605;0;0;-491.2958;9.182321;4.317709;-539.8415;-538.2726;-0.02857986;-0.1340688;0;
-631.1314;0;0;-629.2325;14.86652;5.720012;-650.9304;-648.551;0.0364162;-0.3938035;0;
-255.3108;0;0;-293.5187;1.857138;5.312367;-280.4622;-279.5221;0.2312816;-0.1335384;0;
-215.7615;0;0;-254.056;0.7171724;4.034475;-240.4504;-242.822;0.2310492;0.3863345;0;
-47.19186;0;0;-101.3149;3.32842;11.8002;-76.66602;-79.78484;-0.09401963;0.2560116;0;
595.595;0;0;511.5414;1.248971;13.19498;554.2189;552.4151;-0.1588925;0.3207217;0;
692.6349;0;0;632.0916;5.802067;5.74674;648.6768;646.2501;-0.02879816;0.3853668;0;
266.9651;0;0;243.9012;6.599545;4.267342;224.8002;223.7503;-0.1587039;0.3200123;0;
229.3406;0;0;202.3644;-0.2386138;0.5791144;181.9708;184.8574;-0.0935771;0.05982134;0;
94.74023;0;0;77.5987;-1.578521;-2.50256;47.66784;51.42611;0.4262557;-0.1351408;0;
-510.1135;0;0;-499.6891;-1.643308;-2.433063;-549.0801;-546.2002;0.36086;0.1248644;0;
-630.7275;0;0;-646.363;-3.918832;-4.708038;-671.0918;-667.4651;-0.02930663;-0.005195793;0;
-250.0348;0;0;-305.0099;3.98836;-4.636324;-297.1051;-293.2947;0.1006575;-0.2000926;0;
-208.0546;0;0;-263.8489;6.596321;-5.502444;-256.5143;-254.8941;0.230491;0.1899125;0;
-32.62108;0;0;-107.7871;-4.461393;-8.84594;-88.46594;-86.4101;-0.224512;0.05978701;0;
601.1556;0;0;498.9538;-5.797057;-10.51162;535.7467;539.5496;-0.7440251;-0.5249791;0;
681.4484;0;0;612.3951;-3.379359;-9.697267;619.4786;621.1537;-0.1585714;-0.2645823;0;
272.0317;0;0;245.339;-3.979176;-10.5583;215.4339;218.2943;0.426294;0.190455;0;
237.2757;0;0;205.6123;0.9813157;-9.609931;178.4859;185.9036;0.0360616;0.1252963;0;
83.67683;0;0;58.91686;3.392203;-7.791736;25.44587;33.35587;0.03602537;-0.004764331;0;
-511.4831;0;0;-511.9804;0.5084067;-18.16602;-565.6576;-558.1304;0.1009565;-0.06972688;0;
-619.0399;0;0;-646.5856;1.110132;-20.69312;-676.4083;-667.5143;-0.09404696;-0.2645589;0;
-244.2309;0;0;-310.417;4.592617;-10.69211;-305.7271;-298.5912;-0.09395245;-0.3292603;0;
-207.3789;0;0;-271.562;4.052139;-9.743606;-264.7528;-261.0598;-0.2237927;-0.3289295;0;
-35.75672;0;0;-111.8692;12.15239;-5.380046;-94.19741;-90.69553;-0.1586005;-0.2636317;0;
600.0846;0;0;498.4365;15.42271;-2.494375;533.5193;537.7048;-0.1584412;0.06146995;0;
689.4989;0;0;609.692;-0.6686894;-5.974858;621.8135;624.3707;-0.158282;-0.003559167;0;
272.1405;0;0;226.7715;-5.088647;-5.031216;205.3353;208.6394;0.1667138;-0.263425;0;
236.0101;0;0;189.1874;2.016413;-6.365697;165.8362;173.5723;0.5563504;-0.1981929;0;
97.65488;0;0;63.37296;1.679594;-6.56025;29.98776;38.65314;0.8156606;-0.4578632;0;
-508.2637;0;0;-516.2119;-6.493767;-9.366941;-569.0538;-561.5215;0.425037;-0.4574031;0;
-626.6307;0;0;-664.9932;-8.429626;-12.17069;-688.859;-680.0225;0.09977325;-0.002172091;0;
-243.381;0;0;-322.6217;-6.14398;-5.594378;-308.9824;-301.4666;0.4245097;-0.06713725;0;
-207.5918;0;0;-280.8809;-7.209533;-6.124498;-269.5041;-265.3692;0.1642138;-0.1970045;0;
-33.15825;0;0;-118.4302;-0.7055543;-5.716568;-97.0074;-91.56479;-0.3556899;-0.1318392;0;
605.9288;0;0;493.3813;0.970094;-3.768319;534.835;542.646;-0.2253979;-0.196674;0;
683.843;0;0;601.0812;-2.11234;-16.82584;615.6942;621.998;-0.03026936;-0.06654175;0;
266.0531;0;0;229.4762;-2.913524;-19.22032;205.2191;212.5786;-0.09520628;-0.001507544;0;
224.6189;0;0;196.0748;-3.044319;-16.8566;165.97;178.2571;-0.160078;0.2583634;0;
67.65952;0;0;56.13555;-4.247684;-18.51424;15.31636;27.40372;0.03498491;0.1931364;0;
-524.4858;0;0;-513.3221;-11.14229;-11.6635;-568.593;-559.1415;0.4247538;-0.1968617;0;
-626.095;0;0;-645.1149;-14.34628;-11.11591;-672.3442;-661.4655;0.229425;0.1281728;0;
-254.8397;0;0;-311.6964;-15.73838;-3.736867;-306.1649;-295.6718;-0.1606096;0.06307667;0;
-219.2889;0;0;-273.7771;-16.39215;0.5536736;-268.8134;-262.8911;0.03445381;-0.3267908;0;
-33.03706;0;0;-100.0892;-24.48001;-8.891232;-84.13599;-79.21912;0.4242232;0.1932763;0;
604.6132;0;0;515.0772;-27.20208;-8.212469;548.5681;554.4795;0.09896027;0.5179188;0;
676.9065;0;0;617.7578;-15.52044;-12.35704;624.3535;628.1351;-0.3559105;0.1925617;0;
262.2469;0;0;239.5144;-13.49512;-14.42109;213.9321;218.4595;-0.2256182;-0.3273705;0;
233.5602;0;0;206.0404;-6.917474;-8.914123;182.6078;191.5659;-0.09545686;-0.5219436;0;
86.21195;0;0;75.58636;-2.087753;-9.641977;39.55862;49.44476;-0.1603283;0.06328695;0;
-520.8196;0;0;-497.639;-7.578011;-2.197306;-555.1822;-546.5554;-0.09519985;0.193158;0;
-637.1125;0;0;-638.5679;-7.034533;0.5510801;-669.0043;-659.4492;-0.09510419;0.1279966;0;
-251.8532;0;0;-292.8497;-4.415496;-3.602293;-288.3981;-279.852;0.03492605;0.3877374;0;
-210.9331;0;0;-251.7634;-3.941569;-2.526947;-246.2544;-241.7148;0.0998583;0.1274784;0;
-39.05743;0;0;-95.02663;-7.62228;-5.337691;-76.52962;-72.36948;0.1647253;-0.06755172;0;
597.8492;0;0;519.3226;-8.015787;-5.66712;553.668;559.0109;0.2944945;0.2573529;0;
672.7106;0;0;627.9334;-9.347879;-7.536948;632.0096;636.0352;0.3591659;0.3220616;0;
255.6814;0;0;250.6168;-9.539557;-9.203948;221.8928;226.6641;0.358805;-0.06806605;0;
226.5015;0;0;219.5055;-8.257174;-2.697478;191.9973;200.5119;0.2285098;0.1918717;0;
66.91652;0;0;75.66964;-8.918463;-1.020194;37.06966;45.82553;-0.03158917;0.2566463;0;
-535.4105;0;0;-499.4299;2.945868;-3.363571;-553.7332;-546.9226;-0.2264595;-0.06844833;0;
-630.8243;0;0;-624.2401;7.028745;-2.489413;-649.0036;-640.3883;-0.3561666;0.2564572;0;
-256.4408;0;0;-287.2819;3.337987;-1.616134;-278.9746;-270.3055;0.16393;0.06129746;0;
-226.4481;0;0;-251.8234;6.01395;-1.681493;-244.7739;-240.7986;0.4236347;-0.4585029;0;
-43.87468;0;0;-81.96809;1.252485;1.602238;-63.93119;-60.64708;-0.2264644;-0.3930748;0;
594.7859;0;0;532.8053;1.251227;2.605372;565.879;570.784;-0.3561715;-0.1977778;0;
668.276;0;0;634.531;-0.09017729;0.2583517;640.1478;643.4861;0.4237944;-0.1975791;0;
248.815;0;0;250.7111;-2.903126;0.6599897;226.9619;231.4214;0.4233686;-0.3273153;0;
212.5206;0;0;213.0405;10.29531;-2.890647;192.1263;200.6417;-0.09679554;-0.002149675;0;
58.44694;0;0;74.77077;12.42842;-3.75852;42.82068;52.07715;0.03323641;-0.06711486;0;
-538.8116;0;0;-492.2694;8.732233;-1.879222;-544.9269;-536.3669;-0.03176433;-0.1320148;0;
-639.4694;0;0;-620.0228;10.66584;-2.413197;-645.3287;-635.5903;-0.3565691;0.06301992;0;
-261.1416;0;0;-284.1933;-1.536013;3.751536;-270.4308;-262.0766;-0.03137413;-0.06697809;0;
-227.0837;0;0;-248.9877;-6.022449;6.292995;-234.0523;-229.8294;0.09859208;-0.1318781;0;
-48.38276;0;0;-81.25925;2.69114;3.205579;-57.40575;-53.68684;-0.2263437;-0.5215496;0;
587.6587;0;0;530.515;2.554714;4.542017;571.7732;576.8002;-0.4210183;-0.5210256;0;
653.5348;0;0;627.3704;-0.8641043;2.728914;640.4139;643.3119;-0.2256932;-0.130698;0;
232.0271;0;0;247.8055;-0.1263018;1.654445;225.0414;228.9984;0.1643376;-0.0006320295;0;
205.5572;0;0;219.1958;-4.881597;6.676381;197.0167;205.53;0.09920514;0.259238;0;
54.17663;0;0;82.85643;-6.618004;6.334757;49.45532;57.83514;-0.03082923;-0.06585922;0;
-546.7008;0;0;-488.0024;0.823385;8.605812;-541.11;-533.988;0.3590058;-0.3906297;0;
-648.2252;0;0;-615.7601;0.1529724;10.20463;-642.7025;-634.3383;0.3586451;-0.06540054;0;
-271.0756;0;0;-275.5621;8.994078;0.01321783;-269.9937;-262.7623;0.1633827;-0.1303022;0;
-231.6978;0;0;-234.7431;13.67409;-1.795213;-226.8065;-223.3305;0.2281858;-0.2601059;0;
-46.24564;0;0;-65.02989;-6.367669;-1.927375;-41.85896;-38.38643;-0.0319128;-0.1948772;0;
582.0475;0;0;537.5451;-10.11232;-3.600011;578.8711;584.0893;-0.09684808;-0.1297141;0;
644.0562;0;0;630.8953;-6.484831;2.565914;643.2568;646.7831;0.2930533;-0.06461639;0;
229.1173;0;0;260.4472;-9.492426;4.77365;234.8779;239.7749;0.1628241;0.1953179;0;
197.1531;0;0;229.8883;-5.062258;3.831215;202.658;211.7979;-0.2271435;0.3900237;0;
37.41015;0;0;82.91853;-5.324615;5.434834;48.1569;55.66351;-0.2918826;-0.1950743;0;
-553.7053;0;0;-482.9429;-6.189921;8.845502;-533.4742;-527.6617;0.03324737;-0.324813;0;
-644.9778;0;0;-601.6477;-6.117329;9.439461;-625.8289;-617.6486;0.3580507;0.2602195;0;
-272.5791;0;0;-266.3364;-8.522079;16.12803;-258.0721;-250.3997;0.03285419;-0.1948134;0;
-241.4457;0;0;-234.0224;-9.25045;18.65717;-224.5795;-221.2876;-0.1620808;-0.5194543;0;
-57.29555;0;0;-65.37192;-9.710646;10.26568;-43.00751;-40.28114;-0.09695064;-0.1940957;0;
579.0672;0;0;547.0734;-9.097676;9.585657;585.7197;590.6922;-0.2917553;-0.258868;0;
642.9529;0;0;643.6;-16.25583;3.078803;653.5967;657.3149;0.03337462;-0.06370586;0;
223.8922;0;0;265.2056;-18.3156;-0.7421958;241.4593;246.2982;0.4231451;0.1312602;0;
198.4924;0;0;239.452;-10.3266;5.956599;215.1673;224.624;0.0329159;0.1960956;0;
38.68567;0;0;96.22074;-8.775002;6.285529;59.90404;68.91391;0.09785017;-0.1939055;0;
-563.9253;0;0;-480.3987;-6.221565;2.729239;-533.358;-526.3561;0.3576212;-0.3236453;0;
-652.5014;0;0;-597.4819;-3.602369;1.788736;-622.5894;-614.5327;0.2922945;0.456288;0;
-274.0356;0;0;-253.3042;-2.46065;8.217178;-248.589;-240.9152;0.2270335;0.3908622;0;
-247.9608;0;0;-224.5015;-0.7832379;9.54858;-220.7281;-215.8106;0.03190335;0.06563274;0;
-61.1179;0;0;-56.48529;-1.854178;7.79743;-37.03606;-32.18595;-0.2279981;0.3254361;0;
573.1872;0;0;553.0151;-3.125112;8.59339;590.061;596.4055;-0.1628016;0.06523979;0;
624.3977;0;0;635.855;1.031214;3.092277;645.4399;649.904;-0.1626381;-0.1297278;0;
212.9144;0;0;261.9038;1.297621;1.548562;239.745;243.8297;-0.2924093;-0.06463011;0;
195.8339;0;0;244.8366;-8.281876;1.41304;221.0759;229.092;-0.1621808;-0.1944999;0;
24.91044;0;0;92.35457;-11.08659;0.2729106;55.24946;63.75732;0.1628188;-0.3892064;0;
-573.0016;0;0;-478.9511;-15.7645;1.612295;-531.9484;-525.5731;0.4225246;-0.323848;0;
-650.1992;0;0;-584.7289;-20.23664;2.146538;-608.8125;-601.5065;0.032296;0.001314087;0;
-282.6053;0;0;-249.5596;-14.45553;1.005672;-245.8204;-238.4593;-0.1626385;0.3911168;0;
-255.4599;0;0;-218.6992;-14.57473;0.5357807;-217.9623;-213.2947;0.1623617;0.5856259;0;
-57.98982;0;0;-40.63136;-16.23502;7.099448;-23.7783;-19.61515;0.03226383;0.4551027;0;
572.0643;0;0;563.5433;-14.27633;8.565939;599.0576;604.5283;-0.1626706;-0.1300606;0;
623.151;0;0;643.2492;-19.0174;6.614827;653.8028;657.9562;0.03239486;-0.3897993;0;
201.6739;0;0;258.7333;-19.13202;6.675163;238.7916;243.8155;0.2922317;0.06536376;0;
177.1085;0;0;234.298;-11.81178;3.185465;213.3144;222.2687;0.03206868;0.2602001;0;
29.1923;0;0;100.0674;-10.66181;1.574674;69.2973;78.80485;-0.09789823;0.130004;0;
-568.4741;0;0;-473.7448;-4.823945;-3.048609;-520.1636;-511.8525;0.03213482;0.3897427;0;
-665.9786;0;0;-597.144;-2.943088;-6.461553;-618.6536;-609.6013;-0.09783215;0.3893511;0;
-282.1895;0;0;-248.1566;-0.9303983;-5.517421;-239.035;-231.1786;0.2920702;-0.1957462;0;
-245.8616;0;0;-209.9888;2.62051;-7.387278;-200.1268;-195.9015;0.2917767;-0.1955495;0;
-62.58155;0;0;-41.4249;-11.44829;-9.054428;-19.26649;-14.04595;-0.2932225;0.06451634;0;
572.662;0;0;569.5596;-12.77694;-10.11706;607.5003;614.4647;0.2268108;0.1294188;0;
627.4338;0;0;655.1315;-12.16089;-11.91531;664.9232;669.132;0.7463217;0.2592235;0;
207.8889;0;0;276.5382;-13.55519;-12.77411;251.4626;256.7916;0.4207351;0.1939957;0;
184.6291;0;0;253.7717;-2.020991;-11.68955;226.7847;236.3562;-0.03445909;-0.001101282;0;
15.15372;0;0;100.8434;0.6603568;-10.67318;62.01456;70.82684;-0.1643592;0.06386718;0;
-583.8104;0;0;-472.3448;6.285771;-14.54735;-527.439;-519.76;-0.03425932;0.1937377;0;
-661.8718;0;0;-580.3157;8.557608;-15.06859;-606.3691;-596.1366;-0.09919223;-0.06632636;0;
-294.1413;0;0;-248.5866;16.31854;-8.891145;-242.8172;-233.4071;0.1607768;-0.2611617;0;
-267.0467;0;0;-219.4138;21.05757;-6.872723;-213.7752;-208.56;0.1606153;-0.1309646;0;
-60.00727;0;0;-29.28882;3.085469;-6.597886;-9.600443;-3.703272;-0.03444816;0.1290363;0;
570.7985;0;0;577.8105;0.3357028;-4.782839;614.0333;621.4237;0.3553905;0.2588414;0;
614.0154;0;0;652.5045;-4.888571;-4.108204;660.8924;665.0271;0.3550334;0.06367926;0;
203.1047;0;0;280.6605;-10.10857;-3.233298;255.057;260.2495;-0.2300294;-0.06631943;0;
182.3484;0;0;258.8268;-4.337638;-0.8856462;231.7498;242.4343;-0.359733;-0.3261222;0;
14.06222;0;0;106.3307;-6.610456;0.1198656;68.16154;78.83533;-0.2294368;-0.2608271;0;
-591.5225;0;0;-470.7986;1.768931;-1.688672;-527.7949;-519.3182;0.09563044;0.3241411;0;
-675.6981;0;0;-582.8939;4.646565;-2.155856;-613.2214;-603.8787;0.030567;0.1289133;0;
-293.8357;0;0;-240.2301;-0.4483181;-1.349894;-235.9196;-227.3359;0.2254383;-0.06611826;0;
-264.3676;0;0;-209.8789;1.026001;-1.482504;-204.1359;-199.2464;0.6799832;0.06388288;0;
-66.38886;0;0;-26.8849;-5.339019;-3.825417;-8.966253;-4.456551;0.1595612;-0.261018;0;
575.7926;0;0;588.7077;-8.146693;-4.491402;625.4739;631.166;-0.1654358;-0.1308211;0;
618.005;0;0;659.2054;-2.779873;-3.013265;670.5099;674.8845;-0.2302369;0.1941471;0;
195.2837;0;0;276.2977;-3.715085;-2.206442;252.9832;259.1025;-0.489875;0.1289847;0;
178.7207;0;0;260.4654;-6.859183;-3.141986;234.3633;244.9116;-0.164546;-0.1310143;0;
5.440645;0;0;104.0322;-8.459882;-2.602965;64.90033;74.81341;-0.09941336;-0.5206867;0;
-593.5137;0;0;-470.5336;-11.19707;0.7486748;-525.743;-518.1512;0.2904906;-0.4551962;0;
-666.6303;0;0;-573.8212;-13.32927;1.551718;-600.1771;-590.7813;0.2901987;0.1299673;0;
-303.0804;0;0;-244.4723;-17.20065;6.372808;-239.3801;-231.0557;-0.1648643;0.06486935;0;
-273.9154;0;0;-215.4287;-20.86803;8.442875;-207.0307;-202.9001;-0.03476395;-0.3249999;0;
-59.56026;0;0;-21.49707;-16.35909;6.023006;3.321719;8.385169;-0.2945984;-0.1947387;0;
568.8088;0;0;584.5324;-15.40465;6.686783;623.0069;629.502;-0.424237;0.06532641;0;
601.9703;0;0;651.8484;-27.11081;2.728194;658.6127;663.2897;-0.2938761;-0.1296413;0;
193.8203;0;0;283.1285;-28.95958;1.385794;256.2778;262.137;-0.1636461;-0.324413;0;
179.7575;0;0;268.5387;-27.38927;3.259923;240.8404;250.6918;0.03142034;0.065717;0;
2.228504;0;0;108.1618;-28.63454;3.189665;66.81078;77.02703;-0.03357857;0.3904877;0;
-602.0325;0;0;-471.2806;-20.03293;2.04775;-528.707;-520.6874;0.09638985;0.1302259;0;
-674.8282;0;0;-576.8788;-18.13679;1.576812;-602.8882;-593.6898;-0.03364169;-0.259709;0;
-292.2796;0;0;-233.0342;-11.55449;3.986613;-224.3474;-215.7829;0.1612941;-0.6492521;0;
-266.7486;0;0;-206.1884;-5.849448;3.178812;-196.261;-192.5777;0.3560341;-0.6485997;0;
-75.57649;0;0;-30.06965;-18.43587;9.069994;-8.595532;-5.290707;-0.0341277;0.0666928;0;
565.7396;0;0;588.5871;-19.08694;10.80231;624.0951;629.6454;0.1608086;0.3914625;0;
612.7722;0;0;667.3308;-13.5754;2.01694;672.8807;677.8632;0.3555491;-0.5184736;0;
182.7474;0;0;276.9811;-13.83018;0.9431867;249.2921;256.2687;-0.09957959;-0.6478873;0;
167.5088;0;0;257.1502;-8.189228;-5.889776;232.6749;243.3301;-0.2294142;-0.1274976;0;
8.232975;0;0;109.1535;-6.104895;-10.10378;75.70734;86.10197;-0.1642164;-0.1273695;0;
-597.2209;0;0;-468.2285;-7.371558;-5.270981;-520.694;-511.934;0.1607854;0.3924972;0;
-677.1429;0;0;-575.1415;-6.292424;-6.940136;-601.3175;-591.8167;0.5504279;0.4570702;0;
-309.6469;0;0;-248.2276;-7.425178;-3.249223;-238.3329;-230.3409;0.2250381;0.1317742;0;
-280.975;0;0;-221.4915;-8.422094;-0.968539;-207.109;-203.8727;0.09487727;0.3265438;0;
-62.23999;0;0;-18.99565;-5.533244;-8.536515;7.116489;11.22418;0.1597493;0.3262157;0;
569.0053;0;0;590.4046;-6.130897;-8.326989;628.9843;635.9614;-0.2951826;0.3258879;0;
597.4814;0;0;652.4674;-6.593251;-9.457332;660.6485;664.8076;0.02995068;0.3255605;0;
187.5868;0;0;281.6853;-5.582248;-11.72513;256.5625;260.9672;0.4197246;0.1952987;0;
173.5928;0;0;264.7856;-15.82442;1.280978;239.8754;249.773;-0.0354685;0.2600698;0;
-8.052935;0;0;99.35262;-17.7509;4.293922;62.28605;72.2361;-0.1653675;0.3247758;0;
-604.4951;0;0;-468.5243;-13.8483;-2.475546;-524.9189;-517.0403;0.1596353;0.2594821;0;
-672.9779;0;0;-564.5051;-13.63331;-2.27211;-595.7931;-585.1738;0.02954024;0.194254;0;
-303.9868;0;0;-233.4165;-7.122879;-4.815178;-232.1269;-221.7057;-0.1004241;-0.0008431986;0;
-270.1357;0;0;-200.3235;-4.436404;-5.948928;-196.474;-191.1857;0.02961146;-0.0008423513;0;
-63.96781;0;0;-11.02972;0.1233808;-8.555285;6.309109;11.40471;-0.100353;0.1290932;0;
569.9653;0;0;598.6749;2.735225;-10.69014;632.9878;639.7025;-0.3601215;-0.0009712183;0;
609.1851;0;0;668.6004;5.278072;-8.870861;675.2676;679.7892;-0.229825;-0.2608396;0;
180.8505;0;0;278.1245;7.080454;-10.00066;252.3639;258.7549;-0.09965935;-0.5204468;0;
165.1766;0;0;258.4173;1.51461;-7.177326;235.4937;246.0012;-0.2294939;-0.4549566;0;
-2.280282;0;0;104.6723;-0.02812923;-5.964421;71.90165;80.71197;0.0955734;0.0002719403;0;
-607.8486;0;0;-474.2669;-6.658557;-11.11599;-525.2455;-517.6934;0.2254121;0.3251084;0;
-677.3901;0;0;-572.7406;-11.34092;-11.90862;-595.8069;-586.6383;-0.2295858;0.06491236;0;
-303.2721;0;0;-233.8977;-7.980618;-8.14573;-226.2688;-218.2337;-0.2293551;-0.1950223;0;
-276.2308;0;0;-203.8027;-8.976977;-6.329006;-198.0555;-193.4018;-0.09919;0.1949778;0;
-62.56055;0;0;-8.69584;-16.20163;-10.81038;11.41335;16.24975;0.03084435;0.4546512;0;
569.8095;0;0;600.0694;-18.93201;-10.46473;635.4007;642.2313;-0.1640887;0.2592924;0;
601.0334;0;0;664.1215;-13.68808;-5.229664;669.5573;674.9442;-0.6836625;0.2590318;0;
186.0753;0;0;286.831;-14.01009;-3.214921;260.3399;266.471;-0.4880736;0.1938042;0;
167.5226;0;0;267.8646;-13.05801;1.476992;240.7755;250.8359;-0.1627464;-0.1312273;0;
-8.74474;0;0;109.3;-12.7101;4.623706;68.30762;77.92069;-0.03264822;-0.1960627;0;
-602.7499;0;0;-458.2121;-14.50599;6.896358;-518.5286;-510.0496;0.227254;-0.0009637059;0;
-671.6718;0;0;-559.0757;-14.29034;9.434779;-588.9719;-578.6274;0.3569603;0.4538087;0;
-306.1178;0;0;-233.6772;-19.56727;9.291333;-227.4365;-218.6641;0.09673225;0.3883853;0;
-276.9497;0;0;-202.458;-20.61933;9.683895;-197.4105;-192.7073;-0.03329963;-0.06677632;0;
-58.21873;0;0;-0.1062;-21.67034;11.61655;17.43;22.56569;-0.03326617;-0.001741881;0;
574.3344;0;0;605.1522;-22.31815;11.53789;642.5358;648.8532;-0.3580694;0.1281946;0;
596.246;0;0;656.2056;-20.95655;7.708394;667.3149;671.502;-0.09784029;-0.06683628;0;
171.2976;0;0;270.8647;-21.87253;5.423229;247.605;252.8499;0.09716004;-0.4565732;0;
158.6943;0;0;255.7874;-12.6745;5.685711;233.4881;242.2885;0.03209507;-0.7159837;0;
-7.756606;0;0;103.2944;-10.92045;4.273479;71.20999;79.50175;0.09703016;-0.455395;0;
-605.7607;0;0;-467.585;-8.832396;1.388919;-518.3777;-510.9064;-0.09796936;-0.06513335;0;
-673.5552;0;0;-564.6286;-4.805033;1.454506;-587.7592;-578.5463;-0.1628383;0.0648668;0;
-297.8169;0;0;-225.7313;-21.88049;-4.307365;-217.2296;-209.2753;-0.03273996;-0.1950678;0;
-276.6531;0;0;-198.3307;-25.5422;-5.575713;-192.2738;-188.8252;-0.1626417;-0.3248065;0;
-68.91694;0;0;-3.104425;-19.68938;1.79789;15.69;19.50994;-0.2274457;0.260226;0;
561.8978;0;0;605.7802;-21.27719;3.604622;640.3602;646.1754;-0.2272171;0.3898992;0;
583.7594;0;0;661.0809;-14.35693;8.758564;663.9546;667.7649;-0.2269888;0.1296381;0;
171.7546;0;0;281.607;-10.9936;11.56292;251.1821;256.7377;-0.1617934;0.3244098;0;
166.9594;0;0;263.3955;-14.53253;15.30223;235.6874;247.2968;-0.03169614;0.2591165;0;
-7.558249;0;0;97.71404;-12.64192;18.2341;59.9138;72.07378;-0.09663163;-0.2608826;0;
-604.5006;0;0;-473.4721;-8.878172;13.46011;-528.6006;-517.8896;-0.03156719;-0.5854571;0;
-666.6741;0;0;-562.7637;-7.932222;12.84374;-592.0373;-579.0883;0.09839921;-0.2600322;0;
-299.376;0;0;-232.6764;1.453846;10.28549;-230.3739;-218.9371;0.033333;0.1300332;0;
-278.4606;0;0;-212.9524;5.470873;7.729921;-209.9026;-203.1624;-0.03166784;0.1948699;0;
-54.98048;0;0;-10.90237;-2.907368;5.779649;5.88743;13.308;-0.1615707;0.06473937;0;
577.5068;0;0;594.117;-3.105518;2.357835;628.1312;637.8557;-0.1614083;-0.1951951;0;
594.98;0;0;643.4949;-2.431836;6.307336;648.1147;656.4551;-0.09627883;0.1298378;0;
184.1509;0;0;270.4105;-2.831534;7.305743;241.8549;251.4362;-0.2910841;0.3246094;0;
178.7809;0;0;260.3312;-2.360174;-3.753538;233.1161;247.1231;-0.2258243;-0.0005535347;0;
2.689729;0;0;95.83969;-2.02301;-5.960081;57.71994;72.52497;0.1642067;0.1293817;0;
-601.6342;0;0;-483.0282;-2.958006;-0.3947531;-539.4754;-525.4349;0.09907433;0.1942191;0;
-665.6847;0;0;-574.6215;-4.831044;0.007541128;-604.7128;-589.4995;-0.1608946;-0.000878134;0;
-289.642;0;0;-233.9651;5.622659;4.093493;-232.6044;-219.2804;-0.1607329;-0.0008772517;0;
-273.9212;0;0;-213.8025;7.49302;6.500643;-213.9424;-204.8172;-0.4204408;-0.3257131;0;
-65.18826;0;0;-21.80911;4.27031;8.101702;-8.955388;0.7228529;-0.6798877;0.06441826;0;
574.4308;0;0;590.0303;6.676917;10.70577;622.1114;634.0288;-0.3543678;0.6490596;0;
599.2158;0;0;644.847;-7.529686;9.958203;649.9095;660.6905;-0.2240771;0.193636;0;
180.324;0;0;265.8893;-10.40251;11.28786;235.4645;247.2341;-0.2888193;0.1284741;0;
171.6471;0;0;256.6891;-9.989914;13.01807;223.6712;238.6774;0.2312097;0.3232471;0;
-9.621867;0;0;92.20123;-14.93637;14.41163;46.16056;61.15166;0.5558141;-0.001914456;0;
-609.1234;0;0;-480.9159;5.976338;14.66496;-543.6519;-528.5509;0.2953862;-0.001912532;0;
-664.3582;0;0;-568.0136;10.9278;15.85592;-600.077;-583.1171;0.4250241;-0.1318453;0;
-299.1864;0;0;-241.7316;0.7354159;17.91646;-239.7173;-225.4607;0.619499;-0.3915822;0;
-276.0847;0;0;-217.001;2.810782;19.43906;-214.1767;-204.1197;0.3590072;-0.1313193;0;
-43.4866;0;0;-0.7041008;-3.622404;21.76381;15.17334;26.59449;-0.2260596;-0.001252718;0;
582.3051;0;0;603.8677;-4.890586;22.81367;632.2229;645.8815;-0.6156365;-0.1961535;0;
586.655;0;0;644.3028;-4.417157;26.27374;638.8965;650.7922;-0.2901812;-0.130989;0;
176.1465;0;0;271.9048;-6.22138;27.11811;233.9577;246.5286;0.03494709;0.1939793;0;
167.1615;0;0;259.6376;0.5500254;26.28707;224.4773;240.9086;-0.03005537;0.1937844;0;
-15.47726;0;0;91.33618;1.219058;25.65781;46.34118;61.88144;0.2948115;0.1286223;0;
-605.3527;0;0;-475.8456;3.696079;20.3405;-535.7878;-522.512;0.229548;0.2584278;0;
-659.4669;0;0;-559.7625;5.367305;16.77009;-592.4707;-577.6465;-0.03055205;-0.2615706;0;
-291.9887;0;0;-225.7427;3.686973;16.41832;-229.6199;-215.4978;0.09941334;-0.5861445;0;
-275.9532;0;0;-206.0256;5.358207;14.59329;-211.0235;-200.6012;0.3591828;-0.1957515;0;
-59.28469;0;0;-11.04151;-5.029653;3.995685;2.768726;13.61779;0.03398519;0.06431455;0;
574.5188;0;0;592.9785;-8.976714;-0.764118;628.5139;641.2261;-0.2908857;0.1941846;0;
587.4348;0;0;640.2961;-0.7950447;3.188643;643.0623;654.3249;0.03424333;0.06405482;0;
166.3684;0;0;261.6552;-2.335463;1.3769;227.1248;239.4382;0.09917627;-0.3258136;0;
161.8284;0;0;255.7076;3.695103;5.126439;221.5868;237.5734;0.03410927;-0.1955515;0;
-15.99491;0;0;90.721;7.710855;7.46569;47.32662;62.67247;0.1640097;-0.1303877;0;
-613.9907;0;0;-486.8924;-11.11849;-0.4456756;-542.3621;-528.7183;0.09887754;-0.2601914;0;
-663.4111;0;0;-566.5504;-15.99744;-1.248901;-593.0413;-578.1619;-0.2260585;0.06490678;0;
-294.8045;0;0;-230.1499;0.02719344;3.775952;-229.0031;-214.8883;-0.2907987;0.3896783;0;
-279.3284;0;0;-210.9282;2.438064;3.839141;-211.844;-200.9917;-0.1605718;-0.06548469;0;
-48.53861;0;0;2.489107;-6.338296;9.05983;15.00491;25.53398;0.09945887;-0.000451549;0;
585.3166;0;0;612.8048;-6.867791;12.13182;640.3005;651.756;0.3592283;0.2594183;0;
590.3506;0;0;651.1695;-3.980502;4.416714;647.903;657.6603;0.03403064;-0.00071176;0;
178.5266;0;0;279.6391;-4.780786;4.211327;241.2686;252.5154;-0.4857423;-0.0007110448;0;
166.0409;0;0;267.6765;0.6500016;6.752447;227.4704;243.7659;-0.3553195;-0.0007103303;0;
-30.2773;0;0;85.31157;2.524383;6.745662;34.52625;50.93026;-0.3549625;-0.260579;0;
-617.5142;0;0;-485.4873;-5.917271;10.62377;-545.342;-530.7036;-0.2896385;-0.1953498;0;
-657.9355;0;0;-559.9618;-8.25585;11.75181;-586.4606;-571.3372;0.360326;0.3895526;0;
-291.6458;0;0;-225.6919;-3.826925;12.40983;-224.428;-210.8815;0.2949966;0.4541285;0;
-279.921;0;0;-210.8474;-3.488287;12.79926;-211.2715;-201.1119;0.09979811;-0.06606657;0;
-59.188;0;0;-9.049411;-12.79553;13.92511;5.456971;16.29354;0.4895019;-0.001032848;0;
579.8628;0;0;606.1505;-16.13158;13.91111;635.8221;648.5219;0.2291407;0.5187069;0;
594.8973;0;0;654.3293;-6.336104;12.89239;653.3616;664.0496;0.2938778;0.5181857;0;
175.5725;0;0;273.3631;-3.315628;13.54927;239.5378;250.215;0.4235172;0.1928284;0;
169.3366;0;0;262.1564;-13.15793;2.550695;230.8638;245.5284;-0.09664712;-0.06723478;0;
-12.30481;0;0;95.66402;-13.68058;-1.537704;53.28352;68.68291;0.09835202;0.06276748;0;
-615.2394;0;0;-480.1427;-4.223334;4.759992;-540.2217;-526.1497;0.4880572;0.1276717;0;
-665.9079;0;0;-562.3062;-1.874565;2.343946;-593.7142;-578.0321;0.1627301;-0.002391236;0;
-292.8635;0;0;-226.7221;0.3381208;9.240588;-226.6769;-211.6352;0.09759928;0.1275459;0;
-276.7646;0;0;-208.3159;1.744301;11.37476;-207.8335;-196.555;0.1624686;0.06245036;0;
-43.66607;0;0;6.722884;7.569697;1.450098;21.32279;32.65238;-0.1625314;-0.002579742;0;
589.5595;0;0;616.5346;10.24141;0.8457947;644.9254;657.9302;-0.03243341;0.3222596;0;
592.0906;0;0;652.0844;0.7202734;-3.508824;649.1499;660.1427;0.1625012;-0.2627703;0;
181.7641;0;0;279.1164;-1.959768;-5.581769;243.0764;254.9328;0.03240323;-0.6523103;0;
167.3386;0;0;260.1578;0.05095743;-3.097792;226.5904;243.4947;0.03237068;-0.3917855;0;
-32.60411;0;0;75.05179;-1.154543;-3.697526;30.71103;48.09814;0.09730549;-0.2614572;0;
-621.4628;0;0;-486.304;-5.707734;1.39677;-549.8405;-534.1575;0.2921097;-0.06629244;0;
-658.8818;0;0;-553.3439;-5.769348;3.203906;-588.9556;-572.6012;0.616653;-0.2611279;0;
-291.5291;0;0;-222.5164;-10.45162;3.401636;-225.7961;-211.2697;0.3561639;-0.3908001;0;
-273.3076;0;0;-204.9266;-12.04871;4.335857;-206.3913;-195.6277;-0.03399797;-0.3254401;0;
-43.52337;0;0;4.986436;1.492727;5.93909;18.51561;29.7682;0.09597088;-0.1951784;0;
589.6396;0;0;616.549;5.108549;6.803901;643.8702;656.0485;0.1608418;-0.1949823;0;
594.9192;0;0;653.848;9.858838;1.371569;652.5935;661.6986;0.03074549;-0.06485173;0;
170.7843;0;0;266.8227;14.6717;-0.3713655;233.4606;243.7435;0.2256166;0.4549522;0;
160.8051;0;0;256.0598;12.17871;-1.777512;221.8567;236.627;0.3553246;0.3245603;0;
-24.95065;0;0;81.39021;13.84142;-3.91918;39.85019;54.48068;0.1600655;-0.2604719;0;
-622.4377;0;0;-496.776;13.02322;-4.853003;-549.831;-536.2147;0.09493737;0.0646266;0;
-657.6693;0;0;-563.1182;12.67535;-6.723526;-587.8841;-572.4699;0.09484197;0.2594637;0;
-285.82;0;0;-225.097;12.79633;-4.171541;-221.2899;-207.078;-0.035188;0.06430095;0;
-281.4724;0;0;-214.7509;12.64975;-3.765452;-213.6962;-204.0589;-0.10012;0.06423634;0;
-43.93382;0;0;3.54273;10.02507;-6.373881;20.08861;29.09157;0.09488264;0.1291391;0;
592.478;0;0;613.7949;8.943274;-5.965701;646.8159;657.9337;0.02981995;0.1939767;0;
586.3854;0;0;641.9138;11.27881;-7.299243;643.6672;653.2747;-0.2950467;-0.001120231;0;
179.9377;0;0;271.0798;10.19575;-7.291909;241.5348;252.0071;-0.03488088;0.2587503;0;
170.8239;0;0;260.9374;16.48117;-3.734608;229.6104;245.0073;0.4848929;0.2584903;0;
-36.05635;0;0;73.70668;18.13955;-1.9893;27.35628;41.98801;0.09460162;-0.3264755;0;
-619.6642;0;0;-489.147;13.56697;-3.259977;-548.3818;-535.5139;0.02953923;-0.1312455;0;
-645.9656;0;0;-549.2501;14.15558;-3.122735;-576.8162;-561.4625;0.2244116;0.06378844;0;
-291.1195;0;0;-229.0463;7.644618;4.315264;-226.7873;-212.511;-0.1006506;-0.001243006;0;
-281.9565;0;0;-219.0086;5.828276;7.057229;-217.3765;-206.8627;-0.2954515;0.1286929;0;
-38.54539;0;0;4.224354;6.157212;3.701113;22.09662;32.59992;-0.03528528;0.06359629;0;
589.1779;0;0;608.8537;4.007571;4.768999;642.4501;653.9423;0.2246195;-0.196337;0;
588.9606;0;0;642.4747;9.965391;3.156738;644.3658;653.9724;0.1594265;-0.3260744;0;
181.8857;0;0;271.7027;9.754308;2.617703;241.4205;251.8296;-0.03563572;-0.1958121;0;
171.2082;0;0;258.9359;13.89672;3.954731;228.4343;243.4556;-0.1655346;-0.2605827;0;
-21.80441;0;0;85.20048;16.42835;2.879031;39.86198;54.99312;-0.03543358;0.0645159;0;
-619.4196;0;0;-488.4718;6.029364;7.497838;-549.0696;-535.5153;0.3544061;0.1294184;0;
-662.2753;0;0;-565.3171;4.885206;8.629014;-594.3698;-579.2675;0.35405;-0.2605157;0;
-286.6109;0;0;-226.7315;0.7944606;4.333436;-223.7086;-210.2456;0.1587922;-0.1952866;0;
-275.0786;0;0;-215.9465;-2.689938;4.128133;-211.3024;-202.1009;0.1586326;0.1297464;0;
-43.48093;0;0;-4.148353;5.216995;2.315568;15.35855;24.23853;0.02853855;0.2595507;0;
596.2412;0;0;613.108;6.082409;1.710395;647.0881;657.8332;-0.2963268;0.2592899;0;
595.6422;0;0;646.225;4.468707;2.646437;650.6233;660.2332;-0.4259638;0.2590293;0;
184.6874;0;0;273.013;5.737014;3.045676;245.173;255.3354;-0.100699;-0.131035;0;
176.4434;0;0;263.056;5.797623;2.104854;233.8072;247.8325;0.02933682;-0.45574;0;
-28.56847;0;0;75.69825;6.327661;1.031012;31.98613;45.99732;0.09427468;-0.06547806;0;
-619.3053;0;0;-491.2179;5.852788;11.21114;-550.9405;-538.0054;0.483984;0.2594244;0;
-647.8559;0;0;-554.0674;3.569731;14.5489;-582.4333;-568.1993;0.09369365;-0.1306403;0;
-285.1369;0;0;-226.3627;11.40303;7.568298;-223.4657;-211.0576;0.09359951;-0.130509;0;
-276.667;0;0;-212.642;12.46329;8.16354;-212.2467;-203.2869;0.6132442;0.2594262;0;
-34.44812;0;0;10.64702;0.7291244;6.480763;25.5971;35.17265;-0.1020128;-0.06567121;0;
596.5818;0;0;616.9565;-1.348689;5.804422;648.0085;657.8243;-0.2968123;-0.1305726;0;
586.9244;0;0;641.8863;-7.441927;6.602386;640.9231;648.9175;0.2232247;0.06446068;0;
181.913;0;0;273.9884;-9.846323;5.18911;240.0428;250.7153;-0.1018363;0.1293633;0;
180.6057;0;0;269.965;-12.1136;11.61413;237.1779;250.8382;-0.2316687;0.06426592;0;
-26.03445;0;0;80.72622;-14.84712;12.87514;36.16552;48.56266;-0.1015012;0.06420135;0;
-625.7693;0;0;-494.3159;0.1046232;9.780989;-555.5734;-542.689;-0.03643188;0.2590389;0;
-649.066;0;0;-549.3538;4.39045;10.17306;-582.6887;-567.6309;-0.1013626;0.1288439;0;
-273.04;0;0;-208.2854;3.783802;5.943034;-211.5395;-197.8711;-0.1662281;-0.1311549;0;
-270.5168;0;0;-203.391;7.196251;4.396455;-207.5788;-196.9851;0.223743;-0.1310232;0;
-35.92526;0;0;6.770312;9.265125;4.793935;22.82652;33.15975;0.1585508;-0.06592417;0;
600.9782;0;0;615.645;12.1362;3.717513;651.9249;662.7474;-0.03651052;-0.06585792;0;
590.1295;0;0;640.2637;8.439338;3.378863;643.0864;652.4614;0.2883629;-0.2606938;0;
178.868;0;0;265.8082;9.235142;1.968826;236.2694;246.6344;0.4180078;-0.1954645;0;
176.6892;0;0;261.5432;8.221484;4.980958;231.9715;246.1367;0.4825551;-0.0003660607;0;
-32.13343;0;0;73.5622;8.078525;4.90897;27.40366;41.49214;0.1572336;-0.06533303;0;
-626.6772;0;0;-498.4742;12.96053;3.028637;-558.6418;-545.6295;-0.2327285;-0.1302347;0;
-645.2879;0;0;-551.6964;14.0856;2.958611;-580.0695;-565.446;-0.297462;0.1947329;0;
-274.2632;0;0;-216.81;18.22464;-1.867011;-214.7949;-201.8103;-0.3621304;0.2595045;0;
-267.1785;0;0;-211.6572;18.87591;-3.003844;-206.0833;-198.1717;-0.1668645;-0.1305603;0;
-29.84174;0;0;6.883256;25.42103;-4.407468;27.5689;36.09723;-0.2316642;0.1944076;0;
596.0612;0;0;614.5084;27.67364;-5.206834;645.1058;656.3117;-0.2963988;0.2591796;0;
582.2189;0;0;635.7549;19.87532;-2.723234;633.6505;643.0336;-0.4260356;-0.3257869;0;
173.5265;0;0;264.49;19.38684;-1.782737;230.2787;240.7143;-0.6205096;-0.3904269;0;
172.4776;0;0;259.6015;6.44026;1.367131;227.3612;242.0966;-0.230082;-0.4550019;0;
-28.65721;0;0;72.43461;-0.3313656;2.906364;29.35717;44.14027;0.03001851;-0.3895774;0;
-619.4564;0;0;-496.2898;9.849397;8.194974;-553.5668;-539.923;-0.03497899;0.1305528;0;
-642.0098;0;0;-552.3253;9.303637;10.73197;-578.2479;-563.5558;0.09499083;0.390291;0;
-271.6756;0;0;-214.3774;4.807286;8.778802;-212.4755;-199.0475;0.4197321;0.1300295;0;
-264.8434;0;0;-201.8556;5.404692;9.104774;-204.6408;-194.7871;0.6142124;-0.2599052;0;
-27.75882;0;0;15.48804;1.849288;6.885311;27.57321;38.16666;0.5486279;-0.3895788;0;
600.8281;0;0;620.4184;0.5082592;5.538733;648.6708;660.7529;0.02833787;-0.32422;0;
586.2939;0;0;640.0349;9.349008;2.050178;636.7747;646.2209;-0.1016253;-0.1939595;0;
174.9113;0;0;264.83;10.61241;-0.6311997;228.8396;239.7755;0.6131176;0.001137381;0;
172.0494;0;0;258.3795;14.15172;0.03926389;223.5497;239.5346;0.4825668;0.3909403;0;
-30.02201;0;0;73.4627;18.55813;-0.7645708;25.79932;41.70575;0.1572452;0.3905475;0;
-618.0712;0;0;-492.0144;5.47769;-2.907134;-553.6854;-539.6689;0.2870219;-0.194551;0;
-635.1913;0;0;-545.6803;4.467808;-2.703264;-572.6192;-558.367;-0.1680379;-0.06442086;0;
-269.4241;0;0;-215.4852;6.138258;-3.571326;-210.6005;-197.6745;-0.03793433;-0.06435613;0;
-271.902;0;0;-213.2697;3.319051;-3.299806;-210.6388;-200.7242;0.2869405;-0.3891282;0;
-29.81281;0;0;8.520723;18.58734;1.191244;26.20394;36.04605;0.02678281;-0.1938352;0;
601.5873;0;0;616.7689;21.71649;1.725911;649.1769;659.0092;-0.1031788;-0.128673;0;
583.6165;0;0;634.0777;16.20231;8.958089;635.5312;642.5424;-0.4279118;-0.06357641;0;
184.6678;0;0;270.5605;16.7219;11.49444;240.4034;249.5315;-0.2325798;-0.06351253;0;
185.4193;0;0;267.9148;14.29322;5.990411;237.0384;251.3423;0.09249058;-0.2583507;0;
-38.02976;0;0;62.81105;14.34621;5.582494;17.59791;31.45012;-0.2324391;0.1966803;0;
-627.3828;0;0;-504.2795;2.743869;2.495792;-562.9405;-550.6639;-0.1672382;0.456352;0;
-634.1237;0;0;-544.3774;-2.416452;1.555523;-572.1824;-558.1066;-0.1021028;-0.19378;0;
-275.6664;0;0;-218.9937;6.22714;-5.010245;-218.5349;-205.8476;-0.1669675;-0.3235199;0;
-273.2654;0;0;-214.9631;4.948085;-7.55044;-214.6922;-206.7027;0.2230043;0.00164184;0;
-23.24141;0;0;12.88848;8.425738;-4.729692;31.27502;39.13154;0.09284552;-0.3881639;0;
604.0916;0;0;615.8849;11.02924;-6.533357;651.3069;660.5923;-0.1021498;-0.7126105;0;
587.9299;0;0;635.8182;1.439965;6.400548;637.9714;646.123;0.02788753;-0.3870578;0;
181.6681;0;0;267.4267;-0.1017236;11.21677;235.7822;246.1745;0.2227615;0.1980372;0;
173.0523;0;0;254.7892;6.195018;3.904477;224.3009;239.6178;0.3524724;0.5226749;0;
-40.20197;0;0;60.50575;6.523586;5.977025;14.68078;29.79487;0.1572162;0.2622804;0;
-630.9271;0;0;-506.645;5.176885;3.157858;-567.9786;-554.5039;0.02712354;0.1970495;0;
-645.0358;0;0;-556.0483;4.770517;2.283907;-585.2739;-570.8132;0.02709629;0.06691682;0;
-271.4501;0;0;-216.7849;5.100516;6.903312;-216.8707;-204.3611;0.0920364;-0.3229545;0;
-265.8675;0;0;-208.571;5.095391;6.695427;-209.0316;-200.4076;0.02697658;0.1321414;0;
-27.09524;0;0;8.779375;0.7360148;10.57359;26.1228;35.86258;-0.2978872;0.002073951;0;
598.0552;0;0;609.7809;-0.7385932;11.83564;642.6616;654.7029;-0.4275226;-0.4526995;0;
577.7767;0;0;622.7864;-0.4020824;9.211411;624.5872;634.8672;-0.03728897;0.2623961;0;
176.0228;0;0;256.4694;-1.273311;9.871985;227.5963;238.5532;0.09268318;0.6519365;0;
178.2198;0;0;257.2112;-1.941616;5.1064;227.9923;243.4359;-0.102312;0.2614774;0;
-41.16163;0;0;56.42858;-3.077765;3.761611;12.93369;27.92455;0.1576602;0.06631264;0;
-631.6984;0;0;-511.8425;1.814471;5.097489;-570.6609;-557.3718;0.1575018;0.1961807;0;
-635.374;0;0;-549.3716;4.157173;3.953658;-576.4594;-562.3715;-0.0375585;0.2609509;0;
-276.5406;0;0;-225.3572;-3.281744;9.710095;-220.9335;-209.1087;0.02744658;0.1957214;0;
-280.0109;0;0;-225.0058;-3.613239;11.77681;-223.5226;-215.3328;0.222321;0.06559002;0;
-21.79667;0;0;13.85036;-1.332433;7.880088;29.20004;38.31864;0.1571303;-0.32428;0;
606.2845;0;0;620.8438;-2.000679;8.475017;648.9217;659.9052;-0.1678643;-0.4538888;0;
580.6879;0;0;631.6517;4.699136;9.069225;626.9054;635.8163;0.09217373;-0.1935634;0;
182.4918;0;0;266.3878;6.368378;8.859163;233.4104;242.6248;0.1570485;-0.3233036;0;
184.7447;0;0;263.3091;4.955459;12.86924;233.051;246.1291;0.09192332;-0.387946;0;
-33.95611;0;0;63.89462;5.754763;14.59774;18.42456;31.4896;0.481635;-0.2576216;0;
-633.9954;0;0;-512.6298;2.199008;9.760424;-573.6713;-561.2441;0.4161837;-0.127428;0;
-645.1649;0;0;-558.3415;1.125071;9.14777;-587.1503;-572.9865;0.09092882;0.2625041;0;
-272.4536;0;0;-218.0762;1.458733;12.35376;-218.4329;-206.4072;-0.03909723;0.3272077;0;
-272.6796;0;0;-215.1709;1.524616;12.20738;-216.7142;-208.6986;0.2857788;-0.1278925;0;
-23.15592;0;0;10.18209;-2.964894;13.46779;27.81826;36.32557;0.6752957;-0.06279666;0;
608.8622;0;0;619.0533;-4.503132;13.58822;651.6017;661.1625;0.4147477;-0.06273356;0;
581.3264;0;0;626.7396;0.9273759;12.50284;626.6467;634.6986;0.02452696;0.06726418;0;
183.3171;0;0;263.9169;1.060166;12.4233;233.4019;242.82;-0.235367;0.521968;0;
186.1938;0;0;266.8376;6.752528;7.655148;235.7911;248.9478;-0.1051959;0.001704755;0;
-47.06361;0;0;51.98986;9.827202;5.035121;7.168951;19.6878;0.2847139;-0.4530683;0;
-636.7823;0;0;-518.0884;4.257622;7.910328;-575.6078;-565.163;0.2194605;0.002158287;0;
-633.5813;0;0;-548.1149;4.990278;6.964619;-575.7166;-564.2828;0.1542726;0.3269928;0;
-273.0631;0;0;-221.728;3.243952;4.144338;-220.8787;-210.4559;0.1541176;0.5865337;0;
-264.293;0;0;-211.3853;2.168965;3.470344;-210.8492;-204.06;-0.04093929;0.520977;0;
-3.658295;0;0;30.39323;5.448339;-1.087861;46.04616;53.32825;-0.1058655;-0.1941873;0;
610.849;0;0;622.6899;4.907001;-3.02915;652.2576;661.4689;-0.04079178;-0.2589595;0;
580.6876;0;0;627.0618;8.050879;0.9257642;625.6778;633.3806;0.02421655;-0.1287646;0;
187.3015;0;0;270.1108;8.979818;1.728629;237.8063;246.7507;-0.04077513;-0.3885046;0;
190.0494;0;0;272.2757;5.621893;-0.3495786;237.6298;251.1879;0.1541679;-0.1932122;0;
-33.40438;0;0;68.66678;5.549871;-0.2152615;18.43856;32.29541;0.4138823;0.0668513;0;
-633.1318;0;0;-509.9864;2.462836;3.000135;-571.8458;-560.3142;0.2835318;-0.06315057;0;
-636.931;0;0;-549.7662;1.187563;3.733811;-578.3926;-566.3729;-0.04158983;0.06684758;0;
-261.7292;0;0;-209.3221;1.722233;4.935752;-208.1222;-196.9891;-0.1714827;0.3266498;0;
-264.902;0;0;-209.2992;0.8498467;5.131742;-209.3499;-201.9136;-0.04137573;0.4562562;0;
-16.51056;0;0;15.86052;3.460961;6.265295;33.80084;41.85432;-0.04133416;0.06599374;0;
614.0641;0;0;619.0414;4.261767;7.397709;655.8292;666.061;-0.1712273;0.0009600765;0;
580.4012;0;0;621.6677;2.315101;0.6251221;625.6851;634.4073;0.2837161;0.4557305;0;
178.832;0;0;257.9131;1.642214;-0.1793012;228.3183;238.4686;0.3483984;0.1304359;0;
190.1466;0;0;265.8373;4.990442;-1.719607;236.9594;251.6597;-0.1067231;0.0003701291;0;
-40.49115;0;0;57.86213;5.252872;-2.856589;10.58496;25.02061;0.02331885;-0.1945323;0;
-637.213;0;0;-514.4708;2.903069;2.63876;-578.1922;-565.7076;0.02329542;-0.3892388;0;
-632.4498;0;0;-546.1877;2.967501;2.971024;-576.4244;-563.64;-0.17163;0.06592369;0;
-275.0561;0;0;-221.2395;-1.991974;10.001;-223.8346;-211.9376;-0.04152288;0.1308248;0;
-270.407;0;0;-212.9587;-2.726907;12.60329;-217.5502;-208.1015;0.08845353;0.065726;0;
2.102908;0;0;36.8798;-5.001342;9.241477;50.65865;59.91053;0.153332;0.1306273;0;
614.418;0;0;622.4858;-6.804978;9.299174;654.7416;663.6718;0.2181453;-0.064406;0;
568.9482;0;0;608.6171;0.4355282;6.007789;612.9169;619.4644;0.02302405;0.1305608;0;
182.5704;0;0;257.8065;0.6361614;4.394161;230.6803;239.9074;-0.1069338;0.06546222;0;
186.6973;0;0;258.8593;5.659364;-1.102732;231.1982;245.6633;0.02310836;0.0004290932;0;
-44.68657;0;0;44.08206;7.261268;-3.981768;3.830045;18.15569;-0.0418822;0.3252654;0;
-634.9699;0;0;-524.1766;3.636649;-4.513631;-578.5685;-565.007;-0.2367421;0.1950039;0;
-639.3918;0;0;-561.6933;4.236208;-6.183669;-586.358;-571.748;-0.366439;0.2597753;0;
-268.4355;0;0;-221.7995;-7.222252;-5.172711;-219.7653;-207.8562;-0.3011034;0.1295796;0;
-264.6676;0;0;-211.5192;-11.23348;-6.038292;-214.4221;-206.2105;0.0890032;-0.0004853325;0;
-16.33883;0;0;17.20351;-9.480884;1.268793;29.296;38.12396;-0.1059883;0.3243519;0;
614.423;0;0;625.5054;-11.81588;4.482577;652.5782;662.4593;-0.2358164;0.6488627;0;
582.5714;0;0;630.3117;-8.789899;-2.28696;624.1865;632.3085;0.08925721;0.5832434;0;
176.5648;0;0;258.0527;-7.976784;-2.01673;222.1361;231.8116;-0.04076716;0.4527226;0;
181.4473;0;0;258.543;-7.902396;-0.7421498;224.3491;237.9505;0.02424115;0.2573657;0;
-49.74387;0;0;45.07788;-6.822729;-0.7414041;-1.950146;11.38767;0.3490535;0.06220508;0;
-640.7718;0;0;-529.2413;-1.122446;0.130119;-584.5928;-572.5803;0.5436048;-0.3926288;0;
-631.7571;0;0;-556.8203;2.428655;0.3309371;-578.2583;-565.2583;0.1532545;-0.522169;0;
-274.1768;0;0;-232.1113;-1.056409;1.938195;-225.042;-214.2415;-0.04180149;-0.1968076;0;
-276.1501;0;0;-231.1909;0.7533134;2.874008;-224.7534;-218.7114;0.3480446;-0.001707839;0;
-2.884886;0;0;24.16316;2.42652;2.536206;43.96244;50.43573;-0.0421092;-0.3915102;0;
619.7426;0;0;629.0223;4.366465;3.27047;659.1715;667.5748;-0.3019363;-0.5860188;0;
568.4578;0;0;614.5223;6.640229;4.941635;611.7827;618.6783;-0.3666002;0.06424346;0;
177.5203;0;0;258.6459;8.241147;6.611243;224.1125;233.0002;-0.2362972;0.4539829;0;
189.8357;0;0;268.6933;14.59588;3.657351;234.4445;247.5711;0.02380963;0.3235921;0;
-47.54835;0;0;46.4099;16.65732;2.916986;2.200547;14.87669;-0.106149;-0.00156976;0;
-635.3301;0;0;-523.8501;18.31552;7.669721;-577.9476;-567.0957;0.08885971;-0.1315029;0;
-627.7577;0;0;-550.3726;17.89497;6.724253;-573.5562;-561.0911;0.02380308;0.06353131;0;
-267.4952;0;0;-221.8595;20.95845;12.67886;-218.4082;-205.8306;0.1537138;-0.3913039;0;
-268.9755;0;0;-218.4507;21.00377;14.74247;-216.7519;-207.8727;0.4783961;-0.6507801;0;
-9.335645;0;0;23.52233;7.318632;3.474763;39.39972;48.58237;0.02314401;-0.1303875;0;
615.5471;0;0;628.632;2.555856;2.198718;655.1756;665.5984;0.1530554;0.1945803;0;
572.3875;0;0;618.3802;-2.403206;-4.836577;616.0991;623.3255;0.217869;0.3892868;0;
175.0118;0;0;253.442;-6.420255;-9.05152;224.5515;233.0201;-0.6269253;0.5188303;0;
188.4541;0;0;265.806;-11.70509;2.648828E-05;235.1954;247.9033;-0.3014587;-0.001429775;0;
-44.61816;0;0;52.39603;-15.77917;0.9377875;5.449468;18.64433;0.1536156;-0.521167;0;
-639.087;0;0;-522.8675;-4.84497;0.0660671;-581.6359;-569.2039;0.02352654;-0.1308393;0;
-634.1345;0;0;-555.2631;-3.032417;0.8697959;-579.6772;-567.4451;-0.04146444;0.2590962;0;
-273.7407;0;0;-226.6825;-1.421779;5.89252;-224.4605;-213.7399;-0.3012922;-0.001033541;0;
-267.4062;0;0;-216.2724;0.9241741;7.695138;-216.239;-208.4652;-0.1710547;-0.2609019;0;
3.414051;0;0;32.50751;2.128694;6.414731;50.96913;58.86001;0.1539539;0.1941317;0;
617.352;0;0;625.6142;4.404707;7.145097;656.9258;666.2455;-0.04110285;0.3238713;0;
564.7578;0;0;609.5558;-1.627939;0.7076781;607.1654;615.2889;-0.1060289;-0.001290838;0;
175.0734;0;0;251.9353;-1.492581;-2.24016;220.9366;231.1759;-0.04095501;-0.1312242;0;
189.9525;0;0;260.6152;-4.839984;1.312064;232.7711;246.998;-0.04091386;0.1937443;0;
-45.80749;0;0;44.8991;-5.639404;1.578678;1.9656;15.0538;-0.04087275;0.453419;0;
-632.0293;0;0;-517.3634;-2.485906;-7.264411;-576.3082;-564.1077;0.02413566;0.1281267;0;
-623.7106;0;0;-542.0809;-2.683502;-9.601515;-571.1064;-556.0447;0.08907875;-0.5216754;0;
-271.8229;0;0;-224.1957;9.040841;-2.625764;-223.2697;-209.5348;-0.1059128;-0.6510859;0;
-268.6762;0;0;-222.2213;13.05024;-1.819331;-218.2352;-209.6366;0.02412832;-0.1956603;0;
2.70745;0;0;28.06378;14.30993;2.938164;48.03782;56.19049;0.2190061;-0.06552905;0;
620.894;0;0;625.1729;18.31404;6.753117;657.3707;667.1394;0.02388402;0.0644715;0;
568.9209;0;0;608.1155;11.19569;3.26334;607.6099;617.0564;-0.04110732;0.1293741;0;
166.2389;0;0;242.8128;10.24644;4.733564;209.6366;221.5724;-0.3009354;0.06427672;0;
178.2532;0;0;253.126;10.63828;8.47973;220.8577;235.655;-0.2356657;0.1291795;0;
-50.37354;0;0;42.04013;7.613482;10.01182;-3.251667;9.531783;0.08940785;-0.3906891;0;
-642.2754;0;0;-528.0281;12.16116;11.34142;-588.3918;-576.1834;-0.300486;-0.4552639;0;
-626.9499;0;0;-546.8628;11.07721;11.66493;-576.2438;-561.3616;-0.4301188;0.1298997;0;
-258.9421;0;0;-214.3551;8.051972;14.26543;-212.7223;-200.2912;0.1550195;0.1297692;0;
-264.6789;0;0;-218.0128;8.378675;14.65299;-216.1942;-208.9605;-0.2999077;-0.0002959232;0;
6.076088;0;0;33.51742;-4.155675;11.22226;49.8894;57.17826;-0.6894104;-0.06526297;0;
625.821;0;0;633.1823;-8.103615;9.737357;662.3439;671.2496;-0.2989136;-0.1301647;0;
562.4112;0;0;605.6221;-1.798832;6.646481;603.645;610.9176;-0.2336459;0.1948028;0;
171.6047;0;0;248.8801;-2.9361;4.2954;216.2954;225.6846;0.1563929;0.5194438;0;
186.6122;0;0;262.3106;1.889621;0.7411101;228.3844;241.3873;0.2861704;-0.0008169374;0;
-58.76459;0;0;35.9732;3.495312;-2.273745;-11.5996;-0.6087015;-0.03895382;-0.06578346;0;
-641.2877;0;0;-529.7786;4.831947;-0.2620939;-587.5484;-576.756;0.02605266;0.5839561;0;
-621.4655;0;0;-546.3002;7.841202;-0.3288135;-571.7157;-558.3729;-0.1039082;0.4534346;0;
-268.8305;0;0;-222.7261;0.1975127;-5.352081;-222.8163;-211.4859;-0.2337385;-0.06675974;0;
-269.31;0;0;-218.9416;-0.606969;-6.619379;-221.6554;-214.4593;0.09133309;-0.326562;0;
4.760513;0;0;32.08979;1.403373;-3.397547;47.30721;54.12126;-0.1686281;-0.00139718;0;
622.1329;0;0;627.1334;-0.2056276;-3.929996;657.2656;665.4471;-0.3633606;0.3234409;0;
569.4714;0;0;610.199;4.14786;1.231516;608.1295;616.2403;0.4166126;0.06324659;0;
176.7214;0;0;252.0156;2.938243;3.37361;218.7764;228.8156;0.611096;0.1281504;0;
191.5363;0;0;263.5689;7.423269;-0.8495821;230.613;243.8904;0.2206779;0.5178257;0;
-44.53764;0;0;43.60202;9.760335;0.8928278;-0.6276456;11.76194;-0.0394132;0.1924686;0;
-638.4443;0;0;-530.7781;-7.329754;-6.47607;-585.7704;-574.2678;-0.5591123;-0.3274635;0;
-629.4945;0;0;-556.1693;-11.6093;-8.478929;-579.0599;-566.1946;-0.6235179;-0.1322324;0;
-269.6051;0;0;-229.5868;-9.186734;-0.1647694;-223.1566;-212.9904;-0.4279893;0.1277698;0;
-268.0848;0;0;-221.8598;-11.99054;-0.09762088;-218.747;-212.589;-0.03775524;-0.06726062;0;
7.046424;0;0;33.79718;-9.432899;8.676997;51.77441;59.55045;0.2221521;-0.3920297;0;
629.1641;0;0;632.6497;-9.959284;12.75424;665.289;674.0567;-0.3627772;-0.1967338;0;
571.8104;0;0;614.0231;-8.811177;5.57437;611.2098;618.0947;-0.5573148;0.2582353;0;
178.6207;0;0;255.9607;-8.06539;5.970667;221.6037;230.7305;-0.03701601;0.1280411;0;
194.5582;0;0;269.0718;-7.655144;4.42406;234.8118;247.1153;-0.1669135;-0.3268589;0;
-50.88905;0;0;44.03944;-6.039861;2.812146;-5.116158;6.05058;-0.0368111;-0.06666114;0;
-642.4155;0;0;-530.4036;-9.181624;6.225328;-588.8801;-577.787;0.3530299;0.2582425;0;
-624.1539;0;0;-548.5488;-8.16802;7.089851;-574.4203;-560.9647;0.0278385;0.06308106;0;
-266.3313;0;0;-223.4107;-12.91524;1.590249;-220.8956;-209.5773;-0.2970262;-0.1318844;0;
-261.8158;0;0;-218.1263;-15.7153;0.7178726;-213.4897;-207.2428;-0.166793;0.06315019;0;
19.11867;0;0;41.96228;-1.768033;4.936954;63.21081;69.7638;-0.03669076;0.2579888;0;
632.9784;0;0;636.059;0.5109195;4.86501;668.9053;676.5762;-0.1016212;0.06282751;0;
570.1861;0;0;611.6193;-1.900491;11.08941;609.5752;615.6141;-0.4263558;-0.197105;0;
179.6842;0;0;258.1196;-0.08992056;13.55652;223.6563;232.4379;-0.2959928;0.06296243;0;
190.6855;0;0;266.4185;-7.390848;11.53353;232.1772;244.5731;-0.3606627;0.3227685;0;
-58.19358;0;0;34.64214;-8.85729;13.66527;-13.18286;-1.674019;-0.1004309;-0.002392513;0;
-641.0296;0;0;-530.6086;-12.86688;7.355389;-589.0676;-578.0701;0.3544414;-0.1323248;0;
-615.7104;0;0;-541.882;-17.60937;6.142306;-565.2999;-553.6887;-0.0357188;-0.06722449;0;
-259.0207;0;0;-217.4378;-6.473243;10.62387;-211.8468;-203.0583;0.02928443;-0.1970916;0;
-256.8864;0;0;-212.3468;-5.060219;10.47923;-209.3226;-203.354;-0.03571234;-0.3268283;0;
20.98218;0;0;44.48762;-15.50398;16.16212;63.25087;70.83755;-0.2305785;-0.06663051;0;
633.0909;0;0;638.1445;-16.96227;18.69111;668.6954;677.2115;0.1594573;0.2582732;0;
563.8643;0;0;606.8312;-16.54309;15.18934;603.556;609.3773;-0.03560499;0.322981;0;
167.6216;0;0;243.0915;-16.45912;15.17408;210.8341;217.7116;-0.1005366;-0.1970823;0;
190.3791;0;0;262.2125;-19.99353;18.10608;231.1744;241.9805;0.02949915;-0.8465577;0;
-53.25231;0;0;39.43586;-20.97782;17.95392;-6.813355;3.856956;-0.1004652;-0.1960336;0;
-643.5271;0;0;-529.1305;-11.71334;17.19907;-589.4511;-578.6041;0.2244725;0.5837715;0;
-617.4557;0;0;-535.9701;-8.285316;16.98084;-567.9319;-554.722;0.09431224;-0.001521206;0;
-263.263;0;0;-213.1561;-9.683511;11.67225;-218.1617;-207.4014;-0.2955866;-0.3263564;0;
-265.6222;0;0;-216.6275;-7.664049;10.11991;-217.5052;-211.5033;-0.0354202;0.06377561;0;
17.565;0;0;40.96077;-4.575865;8.569138;59.94894;66.75694;-0.295254;0.2586136;0;
633.0505;0;0;635.3083;-4.503918;7.622888;666.2089;674.6967;-0.1000553;0.06345166;0;
565.6354;0;0;605.8719;2.533205;7.548246;602.7586;609.0515;0.614686;-0.1964815;0;
177.5119;0;0;251.566;4.875185;6.134019;219.8451;227.2561;0.354199;-0.001382022;0;
196.7613;0;0;266.1807;-6.181776;15.10332;236.4907;248.4545;0.09397374;0.1285541;0;
-54.74762;0;0;33.59253;-7.984226;17.09764;-10.93516;0.8291606;-0.03605536;0.3233269;0;
-640.3982;0;0;-528.7836;-12.99907;14.20019;-588.9461;-577.9432;-0.3608558;0.1930674;0;
-620.3895;0;0;-540.5585;-16.87077;14.92274;-571.8626;-559.1217;-0.03565655;-0.261898;0;
-276.3137;0;0;-229.484;-12.03203;9.080347;-230.5843;-220.9171;0.1592813;-0.1317002;0;
-275.8487;0;0;-226.005;-12.48845;6.793926;-227.3541;-222.1319;0.09415392;0.3232035;0;
12.65861;0;0;42.39976;-11.5379;6.988048;54.35786;61.44886;-0.2307774;-0.001957948;0;
633.9586;0;0;643.1177;-10.45458;6.311197;667.1827;676.2031;-0.3604802;-0.4567274;0;
566.6676;0;0;614.1107;-10.57779;0.5444455;604.9183;611.993;0.2895554;0.0634703;0;
171.0468;0;0;248.7395;-10.23237;-1.46559;213.5693;221.7615;0.4191992;0.3882432;0;
195.6749;0;0;265.6685;-7.275331;2.822669;235.5936;246.9634;-0.2308955;0.1279837;0;
-47.71194;0;0;44.69994;-6.598435;2.217108;-2.461131;7.58541;-0.03576143;0.1928225;0;
-644.8013;0;0;-531.118;-9.605915;10.18561;-590.7255;-582.1883;0.4190459;0.06269407;0;
-620.228;0;0;-543.9527;-10.86906;13.25646;-568.8301;-559.3644;0.2886901;0.1275984;0;
-264.1584;0;0;-216.9452;-12.39838;8.956358;-216.9976;-209.478;0.02853071;0.06250286;0;
-271.7016;0;0;-219.9131;-14.12723;10.55495;-222.964;-218.3255;-0.0364653;-0.5872334;0;
18.42573;0;0;45.7994;-17.93143;4.516001;61.61715;67.37542;0.02853868;-0.4567086;0;
636.9713;0;0;643.1406;-19.8558;1.966234;672.8729;679.8748;-0.1014247;0.1284564;0;
560.5568;0;0;603.389;-20.50543;7.054839;600.8577;606.041;0.02861192;0.1932946;0;
174.0626;0;0;249.6478;-20.48483;5.574126;218.6333;226.0602;0.1585179;0.1931004;0;
192.6283;0;0;266.0135;-22.74142;7.377064;234.9678;246.5101;-0.3613802;-0.001995667;0;
-69.18378;0;0;23.30562;-22.78592;7.302669;-22.1392;-11.73287;-0.166115;-0.1319283;0;
-649.2601;0;0;-539.2476;-15.52838;2.271733;-595.4538;-585.6826;0.418758;0.1930409;0;
-610.0022;0;0;-534.8326;-12.96816;1.599621;-559.8105;-548.1127;0.2884025;-0.06702241;0;
-267.686;0;0;-221.8273;-9.136733;-4.497311;-220.9806;-211.9181;0.02824336;-0.2618571;0;
-269.7284;0;0;-220.8548;-6.448235;-6.636246;-221.4457;-216.1405;0.1581497;-0.3915287;0;
27.51838;0;0;52.79219;-4.16458;-4.62009;69.13085;75.99248;-0.03691127;-0.5860373;0;
639.8079;0;0;641.8805;-1.6148;-4.950362;673.4451;681.2993;-0.3617109;-0.3905464;0;
567.5136;0;0;607.2526;-7.507676;-1.395415;605.1149;611.6494;-0.2963801;-0.1302846;0;
174.1408;0;0;250.8838;-8.77293;0.146595;215.7023;225.1038;-0.3610496;-0.1301537;0;
192.5815;0;0;264;-8.161879;3.294523;231.6025;244.3678;0.1590519;-0.06505557;0;
-51.80181;0;0;37.16109;-9.761268;5.300701;-7.884964;3.368304;0.2238594;0.3248138;0;
-644.7017;0;0;-534.0891;-9.817832;7.371846;-592.2083;-582.4656;-0.03623489;0.2595201;0;
-613.944;0;0;-539.0497;-11.08076;8.971907;-565.2515;-554.5815;0.2886382;-0.2604794;0;
-254.57;0;0;-210.3605;-10.19897;7.489389;-211.5486;-201.7639;0.02847883;0.1945538;0;
-264.9338;0;0;-214.6469;-10.05501;7.88364;-219.9567;-213.2428;0.02845022;0.519195;0;
25.62394;0;0;53.24675;-13.3938;3.053069;65.74586;73.07767;0.09338897;0.3237713;0;
640.3517;0;0;646.9573;-14.38472;1.040635;672.5623;681.6358;0.02832779;-0.1962928;0;
554.1887;0;0;601.0175;-13.36589;3.584819;590.24;596.8682;0.4181034;-0.5209323;0;
169.5749;0;0;249.9647;-14.42419;3.313285;209.4005;217.4588;0.1578139;0.3241666;0;
193.6424;0;0;269.766;-13.27062;3.242973;231.7413;244.4767;-0.2971161;0.5837103;0;
-67.73343;0;0;28.80341;-13.92687;4.244459;-23.98813;-11.76533;-0.2318502;0.06338501;0;
-642.7513;0;0;-530.1321;-14.71716;3.905279;-592.4283;-581.9044;0.09321949;0.1282887;0;
-596.1285;0;0;-523.0402;-14.43395;4.772133;-549.7292;-539.1534;0.02815848;-0.196677;0;
-258.5739;0;0;-214.3571;-22.05526;8.853175;-216.0942;-207.2782;-0.1018045;-0.06654466;0;
-268.6839;0;0;-220.0762;-24.17655;10.51885;-224.4353;-218.6891;0.2231345;-0.1314451;0;
37.68219;0;0;62.75289;-21.54029;12.51777;77.01381;83.25398;-0.03695907;-0.7160191;0;
646.9006;0;0;652.7682;-21.51865;13.37585;679.446;686.3671;-0.2967913;-0.1955609;0;
554.3593;0;0;597.5773;-21.6981;14.30017;590.8076;595.3478;-0.03662371;0.3893417;0;
164.0607;0;0;239.7813;-21.74364;14.41977;203.5333;210.9426;-0.1665216;-0.0008536326;0;
187.6963;0;0;261.3419;-15.55888;10.72134;225.1303;237.6546;-0.296289;-0.3256895;0;
-59.18076;0;0;36.62967;-13.80193;8.969009;-16.03728;-4.087814;-0.03612188;-0.06549286;0;
-637.3931;0;0;-522.5636;-11.44354;4.874161;-587.2965;-575.484;-0.1660203;0.2594097;0;
-599.7088;0;0;-526.8486;-8.351557;1.78817;-553.0358;-540.0483;-0.2957881;-0.06568771;0;
-249.3445;0;0;-211.5399;-17.51922;0.9825785;-205.7169;-196.3031;0.2242478;-0.2605237;0;
-264.5862;0;0;-221.3848;-19.24293;-0.8939309;-218.0039;-213.0974;0.1590551;-0.3252293;0;
27.15816;0;0;50.57604;-16.14213;-2.299674;68.50871;74.40987;-0.4907781;-0.4548372;0;
646.9443;0;0;650.4112;-18.13564;-2.900088;679.6951;687.152;-0.1004809;-0.1945108;0;
560.8372;0;0;601.3445;-9.543605;-4.169849;597.3032;602.6287;0.09452208;0.0005866695;0;
173.1558;0;0;247.9801;-5.64925;-4.567557;214.0204;220.9023;-0.2304096;-0.389218;0;
192.3471;0;0;268.2206;-19.24123;0.3936471;232.1711;243.4189;-0.03527606;-0.5187616;0;
-74.33726;0;0;23.57393;-20.62842;2.469723;-28.61869;-18.63158;0.09469407;0.001498422;0;
-645.1631;0;0;-533.5447;-14.24468;0.9936164;-592.5565;-583.3915;0.1595663;-0.06347042;0;
-596.414;0;0;-523.6383;-14.76623;2.064345;-547.7333;-536.2662;0.2243733;-0.2583087;0;
-257.5473;0;0;-212.0186;-4.703706;2.531151;-212.726;-203.3944;0.02924579;0.326657;0;
-263.0356;0;0;-214.6791;-0.5457937;1.590847;-215.8856;-210.249;-0.1007183;0.3263287;0;
39.13945;0;0;63.70931;-7.913612;8.153332;81.05719;86.87556;-0.1655844;-0.2587053;0;
645.5453;0;0;652.5368;-7.369797;10.08764;679.1126;685.6747;0.02948399;-0.193478;0;
556.7535;0;0;602.7808;-7.764533;-0.2376194;593.348;598.6542;-0.230415;0.001618474;0;
169.201;0;0;248.6653;-9.364322;-2.313852;209.3195;216.6194;-0.2301835;0.06658421;0;
191.6447;0;0;269.7173;-4.33107;-2.37851;229.9737;241.5141;0.4197212;0.196452;0;
-61.48326;0;0;36.87564;-3.456063;-4.117554;-18.07032;-6.479072;-0.0354719;0.3911566;0;
-646.0651;0;0;-529.8765;-7.337356;-5.252126;-596.199;-585.494;-0.555175;0.4557309;0;
-605.2487;0;0;-528.2197;-6.258256;-7.457286;-559.4932;-547.7369;-0.09984576;0.06546894;0;
-243.0722;0;0;-203.4769;-12.21381;-1.220502;-201.1108;-191.2404;0.09515659;-0.06453153;0;
-254.3222;0;0;-214.5793;-14.00923;-0.2145316;-210.3415;-203.6045;-0.03487371;0.1954027;0;
31.66472;0;0;49.81605;-6.42669;-3.764289;70.79115;78.02116;-0.3596754;0.000304308;0;
651.3214;0;0;648.5275;-6.822374;-3.358609;683.0372;690.4474;-0.4892487;-0.3895001;0;
566.3969;0;0;602.0864;2.093089;-7.441194;601.579;606.9827;-0.5537244;-0.5190433;0;
175.6488;0;0;246.8472;5.239794;-8.974202;215.106;222.3783;-0.358266;-0.1287178;0;
198.0235;0;0;267.8385;-1.866394;-7.089785;234.6924;246.5801;0.03189805;-0.0636211;0;
-69.91589;0;0;22.19268;-0.5917207;-7.015678;-29.28584;-18.1597;0.1618007;-0.1934918;0;
-645.4313;0;0;-537.0485;-11.44212;-9.754807;-597.7831;-588.2924;0.09667076;0.456376;0;
-591.5596;0;0;-525.327;-15.18166;-11.08466;-548.2071;-536.477;0.09657363;0.1960481;0;
-255.946;0;0;-221.2018;-9.673078;-4.643286;-217.01;-205.9788;0.03150925;-0.1289856;0;
-263.4974;0;0;-225.1649;-11.60672;-3.098013;-222.9138;-215.2671;-0.03348975;0.5208174;0;
48.29823;0;0;64.10356;-6.906005;-5.104388;82.46926;90.17083;0.1614459;0.2604247;0;
650.572;0;0;647.246;-7.100137;-3.759601;677.0875;684.4689;0.03134902;-0.06467369;0;
554.9035;0;0;587.2505;-2.738746;-8.712438;585.3904;591.0778;-0.1635845;0.06532599;0;
168.1026;0;0;234.0876;0.344489;-10.84714;202.2445;210.8622;0.1614166;0.0002929909;0;
186.0496;0;0;252.5305;-11.04271;-3.937118;219.0327;231.6398;-0.03364765;0.1951947;0;
-67.26015;0;0;20.95555;-11.23171;-3.129367;-28.25068;-16.46839;-0.2934832;-0.1298381;0;
-642.6533;0;0;-534.5988;-17.65079;-6.94425;-596.4367;-586.228;0.2265504;-0.584479;0;
-603.0272;0;0;-530.376;-21.71889;-7.004255;-561.2298;-550.5316;0.4861921;-0.06415303;0;
-252.7845;0;0;-210.4411;-7.630893;-7.867873;-215.4644;-206.526;0.1608669;0.1957808;0;
-261.0887;0;0;-216.6014;-6.284054;-7.324226;-220.3078;-215.1266;0.03077059;0.1306168;0;
31.83906;0;0;49.91986;-1.38762;-9.594165;67.76885;74.19428;0.1606744;0.2604202;0;
645.1238;0;0;641.8846;3.837711;-9.986422;672.4593;680.0651;0.09554557;0.06525649;0;
559.1434;0;0;597.6366;-6.011782;-4.751841;590.512;595.2366;-0.1644198;-0.06474377;0;
168.4027;0;0;242.027;-4.934015;-4.14422;204.2999;210.8939;-0.4890913;0.06525598;0;
191.8467;0;0;259.8997;-4.393194;1.28544;225.4589;236.9188;-0.4236325;0.1301578;0;
-67.02858;0;0;19.19693;-4.991992;3.494463;-29.45213;-18.0662;-0.09837014;9.226937E-05;0;
-644.5459;0;0;-542.1027;3.720562;1.816501;-599.8858;-589.7607;0.03166338;-0.1948099;0;
-590.7375;0;0;-526.0034;5.591857;3.489127;-548.9958;-537.0693;-0.09830312;0.19519;0;
-250.3772;0;0;-213.5066;9.47198;-5.020967;-211.8633;-201.6979;-0.228139;0.9746019;0;
-267.4294;0;0;-223.2871;12.54295;-7.762101;-226.3306;-220.4232;-0.09797511;0.843688;0;
43.1833;0;0;67.60368;8.578228;-3.400533;78.68113;84.89489;-0.09787666;-0.001735231;0;
651.5841;0;0;656.6146;9.172821;-4.468843;679.8624;686.3822;-0.09777831;-0.2616028;0;
551.0421;0;0;594.1735;4.876696;-2.789779;584.3519;588.6163;0.09722196;0.1934314;0;
171.8037;0;0;247.1255;1.188101;-2.251235;208.5158;215.0249;-0.03281041;0.3231717;0;
199.9919;0;0;268.9286;8.822717;-4.05739;233.6686;244.4814;-0.2926468;0.1929123;0;
-66.76263;0;0;22.8445;8.277988;-4.187279;-28.49705;-17.3203;0.09745129;0.1277511;0;
-647.716;0;0;-538.7712;0.3654408;-3.580225;-602.3674;-591.8891;0.2922554;0.1925901;0;
-593.6545;0;0;-525.7361;-2.246895;-3.710593;-551.1002;-539.7578;-0.03287497;0.1274293;0;
-246.0449;0;0;-209.9288;-6.665267;-5.716353;-206.5943;-197.6996;-0.03284194;-0.1975355;0;
-263.7887;0;0;-222.3365;-9.941099;-7.385182;-223.1908;-218.6153;-0.1627436;-0.2623044;0;
41.63551;0;0;58.87064;-14.41811;-4.36353;75.88329;81.01637;-0.2925148;0.1927306;0;
658.1588;0;0;654.9493;-18.62416;-4.02423;684.9384;691.5656;-0.09731883;0.5173737;0;
562.0454;0;0;598.1945;-14.31854;-11.79008;592.6711;597.73;-0.09722105;0.1920171;0;
174.3627;0;0;245.1455;-14.70532;-14.1895;208.5809;216.0709;-0.227058;-0.003077881;0;
194.24;0;0;264.3894;-17.97307;-12.16588;226.9245;238.9672;-0.1618626;0.1268599;0;
-72.19637;0;0;22.55767;-16.88328;-13.22526;-31.54871;-20.64257;-0.09673256;-0.003202258;0;
-649.8959;0;0;-534.1852;-24.36841;-13.01102;-598.5445;-588.7113;-0.1616027;0.191703;0;
-598.0811;0;0;-523.9658;-26.82217;-12.66303;-550.9667;-539.894;-0.09647299;0.6462818;0;
-254.2777;0;0;-216.0313;-13.93449;-14.99471;-215.7688;-208.0805;0.09852597;0.2558283;0;
-268.0776;0;0;-232.3684;-10.63894;-15.58249;-232.2311;-229.1732;0.1633943;0.06066925;0;
47.40832;0;0;53.22163;-12.7717;-11.481;75.59764;79.08972;0.03329545;0.6453143;0;
662.0517;0;0;650.1181;-9.54369;-10.33075;683.0288;687.1421;0.228164;0.3847966;0;
557.0639;0;0;586.7464;-13.08407;-10.32037;583.4547;585.2525;0.4228368;0.05957323;0;
173.1968;0;0;233.709;-13.47307;-8.769394;202.1223;206.7919;-0.03235948;-0.1353887;0;
199.9468;0;0;256.2752;-4.818367;-11.97576;225.0951;235.1947;0.03264038;-0.6549913;0;
-68.55676;0;0;10.0788;-3.87552;-12.29864;-37.3118;-28.2843;0.4224116;-0.2645292;0;
-645.9476;0;0;-547.5261;-0.723794;-9.004123;-607.925;-599.9061;0.09715048;0.1255407;0;
-589.2018;0;0;-529.3597;1.687831;-8.928092;-556.6521;-547.142;0.03208552;0.1903819;0;
-250.9045;0;0;-221.6073;-8.2942;-6.172943;-222.448;-215.0713;-0.0978814;0.2551579;0;
-268.5808;0;0;-234.1907;-10.42834;-5.22898;-237.4043;-232.9087;-0.1627504;0.2549016;0;
49.15444;0;0;59.45967;-11.22215;-7.701972;75.17722;80.7928;0.1622498;0.2546454;0;
657.4868;0;0;649.4158;-14.49243;-8.09613;675.7373;682.1593;0.09711948;0.2543896;0;
552.1912;0;0;585.3577;-9.722442;-6.011647;575.0461;579.5876;0.4218586;0.449036;0;
172.6394;0;0;238.3811;-9.780022;-3.661203;200.906;207.1921;0.3564674;-0.006186636;0;
193.0181;0;0;255.6328;-12.98538;-15.11136;220.7566;230.0348;-0.1636295;-0.2660498;0;
-82.03773;0;0;0.3791214;-12.16804;-18.11029;-49.01725;-41.37251;0.1613716;0.383891;0;
-657.1661;0;0;-559.09;-18.45246;-4.561904;-617.6197;-610.045;0.4860461;0.1886032;0;
-590.6639;0;0;-531.7917;-20.51002;-2.94973;-554.593;-544.6522;0.1607211;-0.2013904;0;
-241.6206;0;0;-212.4801;-10.7775;1.139071;-209.3964;-202.0893;-0.0993098;0.1886161;0;
-262.6171;0;0;-227.6963;-8.422144;4.219019;-228.8012;-226.3115;-0.03424267;0.3183612;0;
46.55398;0;0;58.82605;-11.56151;1.334635;74.52639;78.51283;0.4855305;-0.006795392;0;
657.3252;0;0;652.4061;-10.94766;2.405021;678.0231;683.4423;0.4850426;-0.1367233;0;
549.9683;0;0;587.9701;-7.8552;-2.620993;575.518;579.1827;-0.1001508;-0.006651184;0;
166.5457;0;0;239.1793;-7.311444;-4.359916;195.8178;201.7901;-0.03508287;-0.2665139;0;
189.804;0;0;256.2428;-6.433441;-4.489501;216.7354;225.8876;-0.100015;-0.2012787;0;
-85.24852;0;0;-4.696174;-5.488972;-6.293529;-51.90992;-44.26616;-0.2948165;0.3836296;0;
-657.2503;0;0;-560.537;-10.43995;-5.014529;-615.8243;-608.6879;-0.2295529;0.1233748;0;
-587.812;0;0;-526.0534;-11.10002;-5.545354;-550.3006;-541.7347;-0.1643549;-0.2015859;0;
-248.1418;0;0;-215.6181;-14.37042;-4.334089;-214.1664;-208.1702;0.03071225;0.1234533;0;
-268.3197;0;0;-231.9556;-17.23637;-3.659905;-232.0671;-230.0125;-0.1642206;0.1882966;0;
52.66373;0;0;64.87839;-7.841928;-6.268562;83.25774;86.05987;-0.2939903;-0.1367293;0;
653.059;0;0;647.4578;-5.958038;-7.6018;676.6882;680.0498;-0.2287276;-0.006657208;0;
544.2697;0;0;580.5281;-8.966162;-4.781001;572.4979;573.7946;-0.3584324;0.3831536;0;
178.7188;0;0;244.8007;-6.612628;-5.914907;210.3543;213.5862;-0.2281376;0.1878665;0;
195.3432;0;0;255.9865;-11.42875;-6.913707;224.8856;231.9873;-0.03300632;-0.07219163;0;
-86.21163;0;0;-0.204576;-11.3509;-7.308536;-51.32668;-43.54494;-0.4227772;-0.2670211;0;
-655.2764;0;0;-548.179;-6.382999;-15.47299;-614.3046;-607.0305;-0.5522871;-0.5915895;0;
-593.961;0;0;-526.8885;-5.639651;-17.06503;-556.9659;-549.3867;-0.2268954;-0.3311257;0;
-245.9763;0;0;-212.7043;2.202896;-22.80817;-211.9543;-206.4442;-0.1617001;-0.07092363;0;
-262.3458;0;0;-225.8588;4.947349;-26.33535;-225.6719;-224.0403;0.09833173;-0.1358197;0;
41.70263;0;0;56.47631;6.549968;-17.80218;72.96738;75.40937;-0.2266038;-0.0707159;0;
650.2923;0;0;647.5599;9.62387;-17.98524;673.1548;677.7808;-0.6161801;-0.1356122;0;
546.5032;0;0;583.1288;2.17946;-9.996442;573.5282;576.7127;-0.03085492;-0.1354759;0;
165.6452;0;0;231.7192;1.105543;-5.565646;196.8909;201.7589;0.03414343;-0.2003071;0;
194.7766;0;0;255.9116;1.305503;-15.94216;223.6795;231.1663;-0.1607929;-0.07017118;0;
-76.0331;0;0;7.404253;-1.040333;-15.99313;-41.34962;-35.86938;-0.290566;0.254736;0;
-651.1051;0;0;-548.3239;3.984554;-16.37896;-609.5225;-603.2981;-0.2902741;0.3844148;0;
-586.7953;0;0;-519.4122;4.382692;-17.70203;-548.6902;-540.1608;0.4246584;0.3190612;0;
-247.1887;0;0;-209.983;-0.04234116;-13.93333;-211.9954;-206.6604;0.4242317;0.2537732;0;
-265.7433;0;0;-225.6391;-0.9129547;-13.38346;-230.2106;-228.1919;0.09896869;0.05861622;0;
52.05158;0;0;70.62637;0.695553;-15.91537;80.67703;83.88068;-0.03106544;-0.2662794;0;
653.7593;0;0;652.4504;1.430812;-17.50684;674.7348;678.7473;-0.2909036;-0.3309792;0;
541.1587;0;0;579.5811;-4.330426;-8.982662;566.0486;568.2455;-0.09570926;-0.2656793;0;
175.2985;0;0;245.6038;-6.202085;-6.897166;204.5988;208.1678;0.2292236;0.1243917;0;
202.8585;0;0;267.4085;-1.373081;-14.05729;230.1302;238.4433;0.03409126;0.3191688;0;
-89.1362;0;0;-2.662101;-2.443429;-13.97618;-57.33161;-48.33979;-0.03091033;0.05897871;0;
-659.5099;0;0;-557.8804;4.793671;-19.18668;-620.0536;-612.2578;0.2289901;-0.006047906;0;
-581.3237;0;0;-518.5268;8.405201;-21.17689;-544.7806;-535.4933;0.03385798;-0.006041829;0;
-239.3487;0;0;-202.7267;-6.874865;-17.60552;-206.9652;-198.8117;-0.09611072;0.2538336;0;
-260.0352;0;0;-220.7639;-10.01579;-17.58783;-225.0606;-221.1631;0.03392053;0.3835132;0;
50.82001;0;0;65.06439;-4.71444;-15.15889;80.44961;83.65601;0.09885379;0.2531932;0;
658.0262;0;0;654.2653;-6.920506;-14.47383;679.6301;683.5204;0.2286891;0.3179061;0;
550.7936;0;0;585.0798;-2.09078;-6.488563;576.2488;579.6979;0.163492;-0.07221735;0;
165.9333;0;0;229.1706;-0.748533;-1.860221;194.4864;200.5557;0.0983604;0.05778991;0;
190.1918;0;0;247.5559;-7.982426;-9.293335;215.9051;225.4666;0.09826156;0.3825685;0;
-84.67372;0;0;-5.753103;-8.108127;-7.676406;-54.05128;-45.12407;-0.03177186;-0.007619921;0;
-658.4877;0;0;-562.0302;-10.4445;-8.539472;-621.0245;-612.8558;0.09819475;0.05735509;0;
-584.3629;0;0;-524.7339;-11.30467;-9.468652;-550.3732;-540.7759;0.09809609;0.05729746;0;
-241.6353;0;0;-207.0536;-8.54664;1.592802;-210.803;-202.5273;-0.2268392;-0.3325642;0;
-259.5084;0;0;-221.3383;-8.872846;4.471345;-226.7706;-222.4387;-0.356546;-0.07236065;0;
63.84;0;0;76.3596;-1.094398;3.060333;89.86073;93.93838;-0.1612857;-0.1372553;0;
657.3525;0;0;653.1179;1.51867;4.597744;675.9133;680.2368;0.1637131;-0.2670521;0;
541.8747;0;0;573.6263;0.3790445;4.72709;564.9771;566.8599;0.09858127;-0.07188169;0;
181.5111;0;0;238.4681;2.789561;5.19122;208.3384;211.4686;0.03351487;-0.07180946;0;
200.8814;0;0;255.2199;-6.12185;2.841724;226.5573;233.2451;0.2283832;0.2530994;0;
-89.737;0;0;-11.0278;-9.732045;1.432227;-58.08992;-51.72114;0.1631864;0.3827798;0;
-654.0507;0;0;-556.8674;-1.484219;1.497771;-615.4388;-609.6387;-0.0318796;-0.2023109;0;
-577.8689;0;0;-517.5773;-2.755526;-0.1783078;-542.5443;-535.3132;-0.2267496;-0.3970097;0;
-232.649;0;0;-202.3404;-2.952852;-0.780975;-201.1705;-196.3204;-0.03161973;-0.0068067;0;
-254.9039;0;0;-221.6273;-1.811785;-2.119727;-221.9578;-221.3605;0.1633141;0.1881022;0;
52.13551;0;0;62.39025;-13.53161;-4.127085;80.11352;81.20997;-0.03175205;0.5777172;0;
657.2789;0;0;649.5948;-15.05826;-4.993716;677.9825;680.5146;0.09821454;0.5121694;0;
543.113;0;0;574.7294;-15.98113;-9.610399;568.1061;568.8241;0.1630832;-0.1380187;0;
160.5094;0;0;223.5157;-17.70638;-12.34692;189.9126;192.6288;0.09795198;0.1219894;0;
194.1436;0;0;254.6504;-7.106022;-6.44026;221.4558;228.792;0.1628209;0.5116709;0;
-80.85086;0;0;2.333688;-4.955429;-5.295079;-48.5686;-42.05185;0.2276246;0.381222;0;
-656.855;0;0;-556.8876;3.154852;-11.92083;-618.2334;-612.4104;0.1624286;0.5107737;0;
-579.9833;0;0;-520.6584;8.644038;-12.84661;-545.0237;-538.0821;-0.487408;0.2503911;0;
-236.7603;0;0;-208.292;1.468057;-9.81959;-205.8338;-202.0226;-0.5518857;-0.1396646;0;
-257.3869;0;0;-224.4495;2.270865;-9.74274;-224.9922;-224.6206;0.2932443;-0.3344263;0;
64.14771;0;0;73.68878;2.402305;-7.187599;91.38743;93.3204;0.357917;-0.1391882;0;
655.2861;0;0;649.2004;1.127093;-5.37196;675.5644;677.9952;0.4225247;0.2507557;0;
536.1247;0;0;570.5248;2.465132;-8.782569;560.1932;561.3722;0.1622308;-0.07433297;0;
179.2027;0;0;240.2423;1.793069;-8.840728;207.1825;211.1714;-0.4226383;-0.1392256;0;
203.8851;0;0;259.0538;-3.165226;-5.281871;229.8379;237.5084;-0.3572462;0.2507184;0;
-95.41943;0;0;-17.44264;-5.907735;-4.7407;-64.80759;-58.08183;-0.09701794;0.1205317;0;
-660.2271;0;0;-562.2762;-2.821316;-2.927397;-622.3372;-616.4927;0.1629489;-0.1394588;0;
-579.9787;0;0;-516.3591;-3.75551;-1.718763;-544.8755;-537.6626;-0.03211684;-0.2692533;0;
-246.938;0;0;-213.5547;-5.359327;-1.851002;-215.3683;-211.0363;-0.486856;-0.1390481;0;
-258.0592;0;0;-223.8973;-5.555013;0.2272066;-225.3968;-224.7547;-0.2264974;0.05599368;0;
69.84789;0;0;78.1135;-8.162375;-5.064551;96.73038;98.62119;-0.09633513;-0.07399728;0;
667.1025;0;0;656.2444;-7.349891;-5.930241;687.2113;690.0372;-0.3561077;0.2509138;0;
546.6799;0;0;577.4992;-14.10766;1.309753;570.8914;571.903;-0.1608479;0.6404657;0;
163.9476;0;0;227.5945;-16.57173;2.045249;191.3833;194.5802;-0.2256536;0.5098875;0;
192.1437;0;0;252.6032;-2.221464;9.009175;217.8026;226.0562;-0.4203289;0.05460377;0;
-83.91074;0;0;-1.585508;1.465439;12.88513;-52.90529;-44.84736;-0.03010246;0.1195162;0;
-661.9733;0;0;-559.9907;-0.8141848;6.709878;-624.5648;-617.8268;0.2297972;0.4442329;0;
-582.4103;0;0;-516.0748;1.598507;7.841846;-549.2247;-540.6194;0.03466422;0.2488845;0;
-231.9385;0;0;-195.0299;1.998066;5.623529;-202.0346;-195.7493;0.09959673;0.1186997;0;
-257.0052;0;0;-218.7594;2.465549;4.345203;-225.0699;-222.5391;-0.03043802;0.4434171;0;
63.65446;0;0;74.43814;2.865213;11.10599;89.43574;93.2759;-0.03040744;0.5079389;0;
662.4145;0;0;654.5092;1.254744;12.23354;680.7361;685.0097;0.1645251;0.3125265;0;
537.7487;0;0;569.7689;3.932801;11.14952;559.5502;562.1953;-0.1604769;0.3122125;0;
174.7656;0;0;236.3012;4.330014;11.00435;200.1058;205.3095;-0.2902503;0.4418335;0;
199.2651;0;0;256.9907;-5.4536;13.67261;223.268;231.7773;0.09984537;0.5063568;0;
-104.3451;0;0;-24.87597;-6.787292;14.32858;-74.80661;-68.17995;0.09974505;0.310946;0;
-665.6456;0;0;-570.7016;-11.3358;8.62088;-628.9529;-624.5817;0.03467748;0.1806989;0;
-574.1474;0;0;-517.4047;-13.80266;6.870661;-540.9898;-534.9364;0.2295447;0.3754194;0;
-243.3615;0;0;-213.5372;-7.090005;6.46186;-213.7979;-208.875;0.3592487;0.5049768;0;
-264.4812;0;0;-230.0018;-7.753442;5.316657;-233.7604;-231.9034;0.228953;0.2446001;0;
69.86662;0;0;80.1985;5.115072;2.498154;94.12227;96.91441;-0.4209504;-0.08048243;0;
668.308;0;0;661.3882;9.59791;1.289951;686.23;688.832;-0.3555601;0.1794678;0;
538.3265;0;0;575.0792;3.560046;2.963228;560.9781;562.453;0.4244052;0.3092222;0;
168.034;0;0;237.5458;5.833645;2.692319;193.6613;198.8203;0.3590115;0.1789768;0;
203.3473;0;0;267.6043;-6.027586;5.837689;226.5751;235.0397;-0.161088;0.1787969;0;
-85.96169;0;0;1.90637;-10.24206;6.568636;-57.69733;-49.67843;0.1639106;-0.01628475;0;
-663.2726;0;0;-557.8142;-5.676445;7.164882;-628.1026;-620.5915;0.2287132;-0.3411051;0;
-581.4594;0;0;-517.5237;-8.417408;7.827512;-549.5107;-542.1321;-0.42119;-0.3407623;0;
-238.3598;0;0;-203.7861;-4.323113;4.00162;-209.6291;-205.4438;-0.7456035;-0.2104853;0;
-262.0458;0;0;-223.0091;-2.777552;2.591079;-231.9696;-231.4742;-0.679887;0.1795303;0;
62.24213;0;0;73.69098;-11.01378;0.8469197;86.47851;88.03542;-0.3543671;0.3092846;0;
659.5668;0;0;652.6384;-11.94072;-1.096436;677.1572;679.8994;-0.09414168;-0.01586291;0;
534.5916;0;0;571.5855;-6.837533;-2.501854;556.0997;557.34;-0.2889491;-0.1457817;0;
176.6091;0;0;241.6767;-5.758935;-3.63805;201.9687;204.3946;-0.4185935;0.04926687;0;
207.541;0;0;264.4223;-4.346629;-5.509917;231.3134;236.2356;-0.09333615;0.3740541;0;
-98.13901;0;0;-20.20042;-3.337884;-6.241193;-69.51791;-65.35026;0.4264964;0.3087109;0;
-662.5067;0;0;-570.9658;-1.659591;-4.426382;-627.4176;-623.6914;0.03626378;-0.2113381;0;
-569.4499;0;0;-518.9804;-1.32313;-3.61814;-538.3941;-533.1099;-0.223642;-0.276093;0;
-241.9171;0;0;-217.5477;-0.9206353;-2.810709;-213.8909;-209.799;-0.09348263;0.1789558;0;
-263.7254;0;0;-232.0092;-1.053432;-2.205038;-233.0413;-232.5142;0.03654598;0.2437433;0;
73.80755;0;0;81.87875;-3.062106;1.414134;99.40088;99.36525;0.1664439;-0.1463057;0;
667.7473;0;0;657.4446;-2.589538;2.48444;686.256;686.845;-0.2235273;-0.01622398;0;
536.7043;0;0;566.0172;-10.75861;3.352722;559.6922;558.9064;-0.4831721;0.04875967;0;
175.1591;0;0;234.6772;-12.35539;4.68889;201.3097;202.8985;-0.2877846;-0.1461914;0;
205.9675;0;0;260.116;-9.328865;-3.018615;228.5936;234.8659;-0.1575607;0.3736943;0;
-93.33913;0;0;-18.19313;-9.654284;-5.560934;-65.55088;-59.65966;0.2324016;0.6331881;0;
-661.5222;0;0;-564.9625;1.206407;-3.277926;-625.8908;-620.6927;0.2321681;-0.2120235;0;
-571.0276;0;0;-509.1101;5.357405;-4.949206;-539.3676;-532.5505;-0.3527713;-0.2767778;0;
-233.1859;0;0;-201.1906;4.0802;-3.336643;-205.6806;-201.6814;-0.1575148;0.5680757;0;
-257.5018;0;0;-224.6016;5.013129;-2.66346;-228.0876;-228.3403;0.03754554;0.6324723;0;
74.09043;0;0;77.78474;12.91232;-7.952314;98.10277;98.41253;-0.4822309;0.1770654;0;
672.1528;0;0;656.728;15.77974;-8.614153;688.9572;689.7664;-0.416779;0.1119201;0;
537.7322;0;0;565.801;2.367294;-7.53377;559.0173;557.7643;-0.2864256;0.176775;0;
169.5017;0;0;229.4013;-1.117709;-8.731893;194.576;196.6351;-0.2861378;-0.1482393;0;
202.877;0;0;258.2812;-2.590455;-2.024948;226.1771;233.6688;0.2338885;-0.2780251;0;
-94.48998;0;0;-16.52784;-6.406245;-0.8843254;-65.15388;-58.8566;0.5584902;-0.2777457;0;
-662.0472;0;0;-566.4848;-5.863945;-1.955042;-625.9315;-621.702;0.6878637;-0.2124993;0;
-570.5526;0;0;-512.9422;-7.063501;-0.1446601;-539.0334;-533.7462;0.0374991;-0.2122858;0;
-239.6454;0;0;-208.9543;-10.13786;-9.186967;-210.9689;-207.811;-0.3523426;-0.3420072;0;
-262.518;0;0;-226.7978;-11.33313;-10.71834;-231.3716;-231.9649;0.1677501;0.1780752;0;
76.26315;0;0;90.27081;-6.365244;-10.57361;100.3818;101.2258;0.0376469;0.112929;0;
670.7626;0;0;666.8278;-5.152423;-12.70632;686.6111;688.4539;-0.2222603;-0.2769886;0;
535.1565;0;0;565.8331;-4.54501;-2.914283;555.4244;554.9539;-0.02713494;0.04812647;0;
172.4258;0;0;230.1206;-3.066575;-0.1651767;195.7968;197.5756;0.102827;-0.2117913;0;
207.9221;0;0;260.2491;-1.322181;-5.322575;228.6459;234.5459;0.03775634;-0.1466111;0;
-93.63531;0;0;-18.68485;2.02805;-5.786107;-67.3102;-62.66551;-0.222151;0.373275;0;
-663.0674;0;0;-570.826;-7.016318;-0.7566951;-630.0222;-626.0693;-0.09199306;0.1779979;0;
-572.0716;0;0;-519.0907;-8.282065;-0.2870542;-542.6827;-536.6724;-0.2868026;0.04788432;0;
-240.2883;0;0;-214.5344;0.3000718;-5.109415;-213.5526;-209.4223;-0.4814165;-0.4069352;0;
-258.6;0;0;-229.2488;0.2324214;-6.644766;-229.0176;-229.0769;0.03880597;-0.731363;0;
77.61598;0;0;82.44994;10.48094;-11.12595;101.7963;102.2368;0.03876698;-0.3408241;0;
668.1161;0;0;658.7024;14.42253;-13.92793;684.651;686.2155;0.23363;-0.01564492;0;
530.6385;0;0;564.2127;6.704875;-16.45928;550.5302;550.6563;0.6881667;0.1143055;0;
164.4767;0;0;228.6891;6.765487;-19.32289;187.5341;190.0965;0.1677365;0.2441253;0;
199.2314;0;0;258.3818;2.605503;-16.08842;220.7039;227.0743;-0.2222361;0.1789127;0;
-102.5672;0;0;-23.98601;-0.2775029;-15.53639;-75.24417;-70.44196;-0.02711078;-0.2110711;0;
-669.4292;0;0;-577.4337;0.7945029;-19.00377;-634.6373;-631.7765;-0.3519202;-0.5356957;0;
-570.9932;0;0;-517.1335;-0.9476077;-19.05165;-539.9219;-535.7521;-0.6764033;-0.2752881;0;
-236.7747;0;0;-207.8941;-5.300912;-15.41555;-209.4828;-206.7539;-0.2859196;0.0498252;0;
-257.2763;0;0;-224.052;-8.376069;-13.85946;-228.2003;-228.2228;0.169139;0.04977513;0;
81.87435;0;0;90.70258;-2.339432;-12.23794;105.0491;106.4634;0.2339364;-0.2751116;0;
670.1213;0;0;660.5125;-0.7294914;-9.948346;685.6517;687.5643;0.168734;-0.01496581;0;
526.4574;0;0;554.5892;-10.97751;-11.74677;546.22;545.3821;0.1685645;0.4398206;0;
165.6095;0;0;223.8229;-13.31003;-11.33319;189.6001;190.0749;-0.3513436;0.1795093;0;
203.2991;0;0;257.2061;-6.46513;-5.963288;225.7039;230.3636;-0.4809253;-0.01557308;0;
-100.0653;0;0;-23.91114;-5.587978;-4.21574;-72.3732;-67.96807;0.104264;-0.1454921;0;
-661.3076;0;0;-567.3015;-6.988883;-3.675641;-626.4594;-623.6829;-0.1557101;-0.2752806;0;
-561.443;0;0;-507.2613;-5.910133;-1.461511;-530.1281;-525.7926;-0.2854883;-0.01513463;0;
-235.355;0;0;-211.1502;-6.105266;-5.813933;-207.8821;-205.1127;-0.1552668;0.1148153;0;
-255.4832;0;0;-227.6796;-5.228475;-6.611764;-226.7261;-228.3324;-0.2200781;0.3096019;0;
92.6611;0;0;95.44933;-4.888429;1.097673;115.2674;114.225;0.1699471;0.2443235;0;
676.2746;0;0;660.1945;-4.94989;2.972092;692.7363;691.9448;0.03984163;0.1141433;0;
523.7964;0;0;547.3375;-1.32857;0.7586687;544.6143;542.6367;-0.5449045;0.373898;0;
164.9502;0;0;219.4521;-0.991466;1.092821;187.6212;189.0189;-0.2195202;0.1786203;0;
208.6374;0;0;261.3354;-1.392611;2.833279;228.7244;233.8689;0.2354717;-0.4062653;0;
-92.92078;0;0;-15.78799;-1.793354;2.227586;-67.1068;-62.84209;0.3002025;-0.4058571;0;
-661.0418;0;0;-568.6817;-3.331793;5.373424;-627.3203;-625.0588;0.4298355;-0.01564522;0;
-563.3014;0;0;-512.7006;-3.194724;7.042597;-532.8621;-529.4785;-0.2202698;0.1143052;0;
-228.216;0;0;-206.9639;-13.90878;-2.341846;-200.7433;-199.4246;-0.6098526;-0.01574435;0;
-249.9756;0;0;-224.1222;-18.18172;-3.746134;-220.719;-222.7749;-0.2844031;-0.08069587;0;
87.7309;0;0;91.81929;-10.59401;-4.546165;109.8368;109.7195;-0.4790193;-0.1455821;0;
673.973;0;0;665.5011;-11.11923;-6.818895;689.9348;689.6301;-0.02376659;-0.3403379;0;
527.1193;0;0;561.0096;-9.299393;3.837999;548.0625;545.1345;0.4310287;-0.0151592;0;
168.0824;0;0;228.5502;-7.012873;7.183167;192.003;191.8266;-0.2190778;0.3746601;0;
208.643;0;0;263.5529;-10.95794;0.879676;230.2282;234.2999;-0.1538904;0.3742836;0;
-98.16255;0;0;-18.94508;-9.540411;0.7448263;-72.28865;-67.84631;0.1061336;0.4388749;0;
-656.7206;0;0;-562.4653;-8.190679;7.643198;-624.1261;-620.5627;-0.2837771;0.2435319;0;
-554.9865;0;0;-502.2426;-6.775929;8.908194;-524.986;-520.9265;0.04134479;0.04838517;0;
-237.963;0;0;-214.4449;-2.282118;5.081215;-211.116;-209.3719;0.1712379;0.2432386;0;
-255.4025;0;0;-228.7221;-0.6722346;3.736573;-226.4585;-228.5268;-0.2187382;0.1130595;0;
100.1131;0;0;103.2159;6.093595;2.460143;123.2808;122.2766;-0.4134204;0.04797854;0;
677.972;0;0;668.0782;9.168931;0.649132;693.8076;694.3661;-0.2830703;0.2428323;0;
522.1812;0;0;555.838;7.418406;-4.375118;542.0614;540.8077;0.1070182;0.177621;0;
164.1487;0;0;225.5703;8.41533;-6.64802;186.1329;187.8165;0.1069106;-0.1473942;0;
206.8997;0;0;260.5134;3.584103;-11.93287;225.2386;232.1679;-0.4129355;-0.2122134;0;
-95.0315;0;0;-19.10792;0.5663916;-15.93986;-71.33877;-66.0406;-0.477488;-0.3419349;0;
-665.4617;0;0;-570.6865;4.585287;-9.627565;-633.1721;-630.2531;-0.2171388;-0.08172193;0;
-565.0932;0;0;-508.2066;3.977467;-10.01979;-535.7096;-531.9814;0.1728834;0.3731316;0;
-224.0715;0;0;-197.6019;-2.188472;-11.41636;-198.8404;-197.1149;0.3676117;0.437724;0;
-247.1472;0;0;-222.3907;-2.588414;-11.20394;-220.8794;-222.4665;-0.0225617;0.3073495;0;
88.80743;0;0;87.11475;-7.341236;-14.27378;109.739;108.9655;-0.2174411;0.372008;0;
674.6736;0;0;658.9897;-8.271864;-14.19245;689.4622;690.0014;0.1725815;0.3066669;0;
521.6973;0;0;547.9456;-3.30706;-18.33101;540.2191;538.4465;0.04247339;0.1114567;0;
161.1666;0;0;215.7492;-3.37011;-19.25035;182.1685;181.3971;-0.5422754;0.04637738;0;
203.046;0;0;253.076;10.29731;-16.28388;222.2153;225.3177;-0.1519264;0.1112981;0;
-111.5625;0;0;-36.65778;14.90866;-15.59769;-86.66537;-83.75348;0.1730629;-0.1486831;0;
-673.0431;0;0;-580.0353;11.81222;-13.03667;-641.5493;-638.4529;-0.08698033;-0.08356635;0;
-564.1088;0;0;-509.9249;14.21125;-11.95184;-536.957;-531.6773;0.04304175;-0.08348238;0;
-245.1395;0;0;-218.3713;6.56116;-6.849252;-221.4507;-218.8625;0.2379005;-0.2783005;0;
-258.6363;0;0;-230.4582;4.344741;-5.234901;-232.535;-235.0719;0.3026288;-0.3429882;0;
103.879;0;0;105.667;1.99585;-3.354119;123.6447;121.4852;0.3023247;-0.1477416;0;
673.051;0;0;662.0936;-1.824548;-1.274278;686.6124;684.7675;0.2370536;0.1122763;0;
513.3297;0;0;543.675;-0.4152192;-9.712725;532.687;528.72;-0.02305393;-0.01777125;0;
168.7368;0;0;224.8512;-2.692954;-10.77469;190.1362;189.7963;-0.1529655;-0.08272074;0;
207.6102;0;0;259.1704;-2.019686;-13.17513;225.8646;228.8359;0.2369923;0.04729708;0;
-105.816;0;0;-28.88286;-1.883935;-15.23836;-80.45849;-79.11434;0.2367542;-0.2126198;0;
-669.5513;0;0;-574.5171;-6.704813;-10.4004;-636.5981;-635.0054;0.1715489;-0.4722756;0;
-567.6794;0;0;-514.2823;-6.831798;-10.25599;-539.1945;-535.9793;0.1713766;-0.2119316;0;
-236.5876;0;0;-215.0407;-7.89666;-4.016389;-210.8176;-209.667;-0.3485344;-0.1467513;0;
-261.8371;0;0;-237.3133;-8.089797;-0.7303119;-234.0314;-235.7556;-0.2832168;-0.08163656;0;
84.87688;0;0;86.38757;-3.326246;-4.01162;105.5956;105.4349;-0.4128669;0.3732169;0;
683.3032;0;0;671.4442;-2.117455;-2.935862;697.1921;697.1565;-0.7372888;0.1779398;0;
528.5067;0;0;559.0756;1.434646;-1.593253;548.5659;545.7817;-0.2168092;-0.2770104;0;
161.5348;0;0;216.4983;2.639629;-1.256738;184.8223;184.2897;-0.08665668;-0.1467973;0;
210.3479;0;0;256.8228;4.713082;-1.456424;230.6759;233.4548;-0.08656961;-0.08168248;0;
-101.5818;0;0;-29.22905;5.712724;-1.588926;-74.83992;-72.87595;0.3033214;0.2432363;0;
-672.3178;0;0;-581.5471;1.889567;-2.190176;-638.3564;-635.1451;0.3030166;0.6977633;0;
-564.0714;0;0;-512.747;2.288834;-2.388924;-534.7667;-529.4971;-0.08709188;0.04738877;0;
-242.3535;0;0;-218.9417;-7.961245;-3.391268;-216.5141;-214.9355;0.1078977;-0.01762621;0;
-259.1014;0;0;-232.9021;-11.2348;-3.722775;-230.9142;-234.7719;0.0428219;0.7619996;0;
105.4133;0;0;108.9102;-5.731153;-1.642563;127.4503;125.4705;-0.6068946;0.1115605;0;
679.2064;0;0;670.5809;-6.127536;-0.5693079;694.1623;694.3709;-0.281448;-0.343323;0;
515.9807;0;0;545.8445;-0.3606032;-1.506375;535.5442;533.2538;0.1736062;0.1767608;0;
173.5091;0;0;223.7701;1.849586;-1.23693;195.7391;195.2627;-0.08643764;0.04664847;0;
212.7524;0;0;256.966;4.594394;1.644457;233.3359;236.5456;-0.08635079;-0.0833331;0;
-113.5474;0;0;-39.64325;6.263741;1.843754;-85.80073;-83.46883;0.108638;-0.01828203;0;
-669.6537;0;0;-577.6454;9.137835;7.133431;-635.0009;-633.296;0.3034309;-0.1481983;0;
-555.5379;0;0;-503.7894;11.47318;10.34132;-524.4806;-521.778;0.3680933;-0.2130168;0;
-232.9541;0;0;-207.4943;1.749734;-0.654026;-206.2383;-205.1001;0.2377888;-0.01790071;0;
-257.0827;0;0;-228.2753;0.005687678;-2.260837;-230.7062;-233.2547;-0.1522542;0.306954;0;
95.49847;0;0;97.1656;-3.074801;0.6215786;116.1639;113.7429;-0.6068726;0.04677621;0;
687.1675;0;0;671.5292;-6.621685;-1.522378;701.1906;700.3337;-0.4113608;-0.3430749;0;
528.3691;0;0;555.8498;2.493671;6.51686;547.4379;544.8328;0.433628;-0.4726648;0;
161.7097;0;0;218.2731;5.036761;8.251868;184.1952;183.4667;0.2382902;-0.3422552;0;
204.0259;0;0;252.7239;-1.666105;2.014286;222.2409;226.1358;-0.2167206;-0.01707459;0;
-110.5211;0;0;-37.94656;-1.46336;1.476398;-86.51485;-83.43594;0.3682033;0.1778446;0;
-671.2532;0;0;-582.1349;3.963118;-1.003332;-639.5873;-637.636;0.1729313;0.2426333;0;
-556.8234;0;0;-507.7745;4.092858;-2.944829;-530.1869;-527.0505;-0.2170466;-0.407284;0;
-240.4851;0;0;-214.9113;12.26042;-3.142818;-216.4991;-216.2394;0.3029103;-0.4718421;0;
-257.9221;0;0;-227.7513;14.86104;-4.412336;-231.2115;-234.6378;0.04273653;0.04837077;0;
112.2137;0;0;115.0554;4.196191;-5.47963;131.8384;129.9148;-0.3471105;-0.01664519;0;
681.1274;0;0;670.5355;0.3735817;-5.876021;694.3607;692.8138;-0.08689231;0.3082083;0;
514.7762;0;0;546.6112;2.985175;-5.803134;533.2436;530.8862;0.04312968;0.1779639;0;
171.7437;0;0;228.9714;0.9734192;-4.926525;193.1909;193.8344;0.3029557;-0.08208431;0;
203.1178;0;0;255.3529;-10.54911;-6.261111;222.5445;225.9984;0.237684;0.1129002;0;
-119.112;0;0;-42.87889;-14.02114;-6.388786;-94.58234;-91.81907;-0.1523589;0.2427215;0;
-667.2792;0;0;-576.0677;-19.70047;0.04775091;-636.5273;-633.7044;0.0426962;0.4373796;0;
-553.2282;0;0;-501.5886;-23.76652;1.320379;-526.6926;-522.4357;0.4324574;0.2420381;0;
-236.6437;0;0;-212.0424;-14.70031;4.936008;-213.633;-211.7542;0.2371208;0.04689285;0;
-261.0185;0;0;-234.0681;-13.54646;8.213212;-235.9071;-237.8407;-0.08795419;0.1118131;0;
104.7475;0;0;104.1222;-11.38939;-1.038441;123.5869;123.1544;-0.2827678;0.04673338;0;
690.7852;0;0;674.7307;-10.30622;-1.908176;703.2338;703.3015;-0.02261434;-0.1482156;0;
517.4903;0;0;545.5548;-3.263269;-0.4997389;535.3612;533.1176;0.5621145;-0.2780014;0;
154.7774;0;0;212.4238;0.4237052;-1.704808;175.9412;176.0735;0.3666476;0.112082;0;
202.7227;0;0;256.3757;-8.015838;3.789384;221.7413;224.1849;0.1064098;0.3068714;0;
-107.5751;0;0;-28.55136;-6.266471;4.857181;-83.45324;-82.88617;0.3012049;0.04669372;0;
-668.3101;0;0;-571.5622;-20.92858;4.651352;-637.7158;-636.7744;0.3009023;0.2415488;0;
-554.1956;0;0;-499.4614;-27.20419;5.316507;-527.1302;-524.5032;0.1056979;0.3712408;0;
-233.1749;0;0;-206.7939;-8.891128;6.114961;-209.385;-208.947;0.2355264;-0.148871;0;
-257.8655;0;0;-227.8254;-8.480053;6.64468;-232.0381;-234.5366;0.1703224;-0.4735581;0;
106.8354;0;0;107.1728;-1.640005;3.891825;127.1396;124.831;-0.02475077;-0.3431476;0;
682.8759;0;0;666.9087;4.122419;3.352051;697.2252;694.1069;0.04024145;0.1119686;0;
515.7734;0;0;542.3633;-11.28707;0.3344509;535.2307;530.179;0.1051684;0.2417908;0;
173.427;0;0;227.5388;-12.81694;-1.675251;195.9882;193.6277;0.04009534;0.1116132;0;
209.8593;0;0;261.0432;-6.775843;2.010371;231.086;232.4135;-0.02491229;0.04653368;0;
-121.0603;0;0;-45.56508;-7.036479;2.075334;-93.04588;-92.90661;0.2999494;-0.3433172;0;
-671.287;0;0;-581.4999;-4.483813;0.1977269;-637.0539;-638.1017;0.1697134;-0.2780048;0;
-547.237;0;0;-496.9578;-2.536924;0.06356239;-518.4731;-518.2079;-0.1552939;0.1770459;0;
-229.659;0;0;-205.0424;-9.233156;1.269191;-205.1093;-205.9689;0.1696989;0.176868;0;
-254.728;0;0;-225.8259;-12.03692;2.540592;-228.2665;-230.9993;0.104561;-0.2131138;0;
109.0952;0;0;114.1678;2.912005;0.1936363;129.5331;128.1774;-0.2853481;-0.5377363;0;
686.6327;0;0;677.9571;6.057887;0.930254;699.304;698.9492;-0.220094;-0.2123593;0;
514.2791;0;0;543.0933;-2.589365;0.25949;530.5608;528.8945;0.2348985;-0.0172439;0;
159.3155;0;0;210.4021;-1.983551;-1.415222;178.3295;179.6008;0.3645972;-0.2121286;0;
203.5081;0;0;250.0457;-8.746712;11.17863;220.7539;226.5217;-0.09054057;0.3078233;0;
-114.6616;0;0;-40.87199;-11.28352;14.51642;-90.99885;-86.11138;-0.1554169;0.4374487;0;
-670.267;0;0;-580.3722;-5.846197;5.25843;-640.5686;-636.4357;0.364478;-0.08272962;0;
-550.7783;0;0;-501.5159;-4.969666;4.18142;-525.8573;-520.0419;0.3641118;0.0472882;0;
-232.9468;0;0;-209.471;-4.161366;3.574494;-210.9869;-207.6136;0.2338112;-0.1476614;0;
-258.2;0;0;-231.8117;-2.08108;1.963312;-234.2007;-235.3909;0.2985436;-0.2124803;0;
109.3749;0;0;109.3748;0.8687484;-1.521651;126.7908;126.9136;-0.02659309;0.2425046;0;
687.0995;0;0;671.1075;2.742909;-3.596593;697.8763;699.748;-0.3514031;-0.1475431;0;
514.6829;0;0;536.2506;12.45304;-4.999621;530.8837;530.0049;-0.2860826;-0.2123622;0;
164.1542;0;0;213.3738;17.66447;-6.803014;184.0868;184.5832;-0.09089316;0.6324266;0;
201.9077;0;0;250.7031;10.94891;-4.250949;219.6963;223.8154;0.1041002;0.3069544;0;
-124.5687;0;0;-51.33465;11.27271;-4.313661;-100.9883;-98.18521;0.2988976;-0.01819073;0;
-673.8549;0;0;-588.7629;17.35695;-4.510275;-643.6765;-642.0631;0.4934993;0.5015663;0;
-550.1771;0;0;-506.7122;19.28189;-4.907641;-524.8392;-522.5402;0.3630688;0.1762256;0;
-236.5941;0;0;-218.1604;11.42563;-4.835727;-214.3426;-214.982;-0.0271001;-0.2787229;0;
-259.7821;0;0;-235.9946;7.86418;-5.56768;-234.1797;-238.3791;-0.09204022;-0.01857344;0;
113.2915;0;0;110.9432;18.63992;-5.629068;133.371;129.738;-0.1569151;-0.01855477;0;
686.1397;0;0;666.4275;18.82226;-4.484703;699.14;694.6986;-0.3516594;-0.01853613;0;
508.6017;0;0;529.9511;15.32072;-16.87167;526.2116;519.4008;-0.2213714;0.3712866;0;
157.4544;0;0;209.3295;16.84557;-20.60576;177.8577;174.4895;-0.221149;0.6307828;0;
194.5899;0;0;245.6009;2.025539;-10.67183;213.9732;214.2941;-0.4807961;-0.08449173;0;
-124.5078;0;0;-49.68512;-2.062333;-9.522396;-98.64722;-100.2008;0.03942572;-0.7990476;0;
-669.6711;0;0;-582.8047;4.905964;-7.436357;-638.2144;-639.7663;0.2992555;-0.1485713;0;
-543.0615;0;0;-496.0124;3.561864;-3.945895;-515.9467;-515.3732;0.03908541;0.4362841;0;
-224.1759;0;0;-199.6003;10.32344;-4.41081;-199.712;-201.0755;0.1689808;0.1759763;0;
-253.7482;0;0;-225.5741;12.32182;-2.128959;-228.1844;-232.0453;-0.02609099;0.3057342;0;
114.5093;0;0;114.3568;11.90828;0.1504781;133.1134;130.4432;-0.4158688;0.3703943;0;
691.1669;0;0;676.8966;12.90069;-0.3185537;704.1301;701.0253;-0.415451;-0.08474924;0;
511.0626;0;0;539.1603;12.82038;11.5375;529.7598;525.5338;-0.0901968;-0.1496314;0;
161.412;0;0;215.4686;13.67815;15.07588;182.8391;181.3035;-0.02513883;0.3052903;0;
202.4167;0;0;253.8576;4.689425;2.066411;221.386;223.2251;-0.1550483;0.1750489;0;
-124.9973;0;0;-45.99685;1.603255;0.05484642;-101.112;-99.21221;0.04000956;-0.2149311;0;
-668.4109;0;0;-577.371;0.1951242;-3.495182;-640.4268;-637.9042;0.3648061;0.1101216;0;
-536.2429;0;0;-490.3968;-4.493145;-6.773712;-513.8466;-509.3275;-0.02536454;0.6297497;0;
-223.3611;0;0;-204.485;4.486351;-6.900871;-203.0487;-201.2828;-0.4151431;0.4991823;0;
-250.9977;0;0;-229.3919;5.151428;-8.501528;-227.8321;-229.6287;-0.08988926;-0.08602542;0;
123.0042;0;0;118.4763;-0.1450338;-6.684446;140.2744;139.8539;0.1700704;-0.4107757;0;
693.2814;0;0;676.3268;2.266009;-6.342815;703.4128;704.6794;0.1049322;-0.08552624;0;
509.6767;0;0;535.4053;-12.2036;-2.786468;523.9209;524.6864;0.1697941;0.1744291;0;
169.4603;0;0;221.2749;-15.67494;-1.109095;187.1884;189.2026;0.2995582;0.3041885;0;
207.0211;0;0;253.6612;-1.593021;1.370266;223.0447;227.4931;0.1043552;0.04401349;0;
-129.5179;0;0;-58.24956;-0.05020287;3.244411;-107.9506;-103.7566;0.03928296;-0.3458348;0;
-668.6791;0;0;-582.8023;7.518309;0.7627826;-639.8248;-637.0092;0.1042108;0.04431675;0;
-537.3229;0;0;-491.3874;11.53022;0.4271014;-511.8084;-508.6833;0.03913877;0.3691089;0;
-226.4391;0;0;-205.7245;11.65235;1.565382;-204.136;-202.8257;0.1040668;-0.215968;0;
-250.8866;0;0;-229.3183;13.91782;2.50157;-227.2941;-229.1086;-0.0909398;-0.1507837;0;
121.6783;0;0;116.6133;9.684278;-5.672739;139.0002;138.1871;-0.3507178;0.1092372;0;
694.0183;0;0;679.5881;8.13333;-7.944337;705.8881;705.7004;-0.285398;-0.02080726;0;
511.5373;0;0;542.0366;9.933819;-1.974995;529.5171;528.0178;-0.3500786;0.1741157;0;
161.5115;0;0;219.154;11.53143;-2.441891;182.1593;184.2223;-0.1548248;0.3038754;0;
202.3911;0;0;256.165;-8.841994;4.928441;219.6449;226.5158;0.1701674;0.4984721;0;
-128.0837;0;0;-50.12602;-16.80469;8.272635;-104.7254;-98.92329;-0.02490557;0.822808;0;
-678.8032;0;0;-588.0552;7.593496;3.173742;-647.972;-643.4876;-0.2197826;0.4321771;0;
-545.0005;0;0;-496.3851;9.93039;4.376124;-518.6981;-513.5935;-0.0246597;-0.08799586;0;
-228.0494;0;0;-203.4709;9.854039;4.304744;-204.772;-202.4836;0.3651691;-0.1528748;0;
-252.9951;0;0;-223.5687;15.40287;5.372145;-227.6171;-228.2046;0.1049328;0.1071482;0;
127.5679;0;0;128.1667;1.121124;3.826262;146.4237;147.2111;-0.2849767;0.2369752;0;
690.6566;0;0;676.6372;-0.4212198;3.219571;703.1217;704.0957;-0.219723;0.3017044;0;
499.4334;0;0;528.8438;7.081292;12.1918;516.9459;516.3572;-0.4793715;0.3663687;0;
166.2863;0;0;221.5291;6.404591;15.12668;186.8421;188.6279;-0.5438572;0.3010332;0;
204.5999;0;0;255.7892;13.36438;12.23134;222.6363;227.6062;-0.02357202;0.365698;0;
-139.3704;0;0;-62.12068;15.15864;12.15207;-115.605;-112.3892;0.3012884;0.4952652;0;
-674.6487;0;0;-583.1088;13.60316;16.69457;-644.1606;-641.4478;0.4309203;0.2348982;0;
-538.6014;0;0;-486.6961;15.46551;16.6778;-513.2039;-508.2449;0.36552;0.03976019;0;
-238.2109;0;0;-211.0329;6.139216;13.379;-215.7124;-214.1943;-0.02465134;0.1696549;0;
-261.8346;0;0;-234.0592;3.051589;11.95891;-237.2348;-240.0285;-0.08959391;-0.1553523;0;
123.36;0;0;122.7468;8.608228;5.784588;141.9381;139.8344;0.1703655;-0.3500982;0;
696.7603;0;0;681.4675;7.326781;3.233547;710.0099;707.5334;0.1701943;-0.2198117;0;
510.4035;0;0;534.9186;7.989004;-3.065976;528.8871;523.9769;-0.2197808;-0.2845582;0;
158.6297;0;0;209.6069;7.847255;-6.679852;178.9064;176.3749;-0.1545926;-0.08937025;0;
200.6991;0;0;249.1263;5.361124;-2.9892;217.9569;219.1136;0.2353668;-0.02431311;0;
-129.5242;0;0;-54.47154;5.489459;-3.990941;-107.0363;-105.8183;-0.02473906;-0.2191907;0;
-684.0527;0;0;-594.2704;0.05893517;-0.7048891;-656.1527;-654.0614;-0.08968154;-0.3489051;0;
-547.1214;0;0;-500.5327;-1.950856;-0.1013344;-524.1219;-520.1586;0.04034325;-0.4784892;0;
-218.8614;0;0;-199.993;1.467356;1.171443;-198.6337;-197.298;0.04030271;-0.2181391;0;
-247.6269;0;0;-225.5291;0.5952252;1.974061;-224.8583;-227.2096;0.1701969;0.1069168;0;
122.6859;0;0;120.0864;6.019635;-0.4393079;139.4971;137.9602;-0.1548108;-0.02312531;0;
694.6501;0;0;680.3715;8.961323;-0.1039518;704.6353;703.9745;-0.2845899;-0.1530368;0;
508.0455;0;0;536.5098;1.583952;-7.672675;522.456;520.7339;0.1055001;0.1069864;0;
166.8938;0;0;222.5658;1.984502;-9.674453;183.726;185.1291;0.2353287;0.1718462;0;
202.9579;0;0;255.5755;3.791169;-8.860937;217.2745;222.6116;0.1701249;0.1067062;0;
-144.1342;0;0;-67.4566;3.853733;-9.45488;-123.4602;-119.815;-0.1548827;0.2365337;0;
-678.5332;0;0;-588.8767;7.668254;-6.565114;-651.8829;-648.6787;-0.4145965;0.1063613;0;
-530.6129;0;0;-481.0264;6.990963;-6.089758;-508.1124;-502.9124;-0.4791472;-0.4784516;0;
-230.4179;0;0;-205.8062;14.48505;2.757986;-209.814;-207.4303;-0.1538291;-0.7378402;0;
-262.795;0;0;-235.0845;15.74329;6.640102;-240.8375;-241.7046;0.1711622;-0.3472948;0;
124.3996;0;0;125.3456;10.1014;2.882509;140.463;140.159;-0.02391179;-0.02210914;0;
694.5505;0;0;681.0028;10.22497;3.214527;704.6631;703.36;-0.2837571;-0.3469236;0;
507.1339;0;0;533.3299;-3.315614;6.024458;520.6098;518.7457;-0.1535373;-0.4115424;0;
165.5458;0;0;215.8283;-7.464492;6.487285;180.8197;184.3298;-0.02344837;0.04364254;0;
205.7967;0;0;252.4055;-6.318892;-0.1504217;219.1811;226.2484;-0.3482615;0.04359869;0;
-130.6161;0;0;-57.75486;-7.920133;-2.360585;-110.4985;-105.6872;-0.02307487;-0.1513472;0;
-680.4584;0;0;-591.9283;-3.223125;-2.693128;-653.3646;-648.683;0.301785;0.04370696;0;
-537.2838;0;0;-488.2603;-1.813367;-3.762149;-514.2776;-508.6013;-0.08832226;-0.08627166;0;
-212.1571;0;0;-188.4827;8.905725;-6.57153;-191.7352;-189.9377;-0.2181682;0.1736844;0;
-243.2407;0;0;-217.6535;14.85765;-7.971568;-219.7784;-222.9176;-0.1529816;0.563314;0;
133.0647;0;0;128.7037;14.91007;-1.734268;150.444;147.9325;-0.08786058;0.1729439;0;
701.3952;0;0;683.6078;18.91357;-0.5939373;711.1984;710.3137;-0.1527396;0.04283541;0;
511.5355;0;0;538.9933;20.56951;2.219943;525.2643;523.6309;-0.3474882;-0.02217498;0;
178.5636;0;0;229.9818;22.82602;4.695959;194.1527;195.5819;-0.2821717;-0.1520874;0;
215.4906;0;0;260.4228;21.26284;0.739369;228.1904;234.1784;0.1079159;0.1079348;0;
-137.1738;0;0;-64.80053;21.10678;0.5376773;-118.3648;-112.7577;0.1727748;0.3027284;0;
-672.2045;0;0;-585.5986;20.95185;0.8720517;-646.168;-642.5655;-0.2172029;0.2374569;0;
-525.1026;0;0;-478.3138;19.52427;-0.2675344;-502.653;-498.6169;-0.281952;0.1722509;0;
-227.5368;0;0;-202.9714;22.98728;0.8044613;-207.671;-205.8253;0.04316806;-0.0228242;0;
-250.484;0;0;-224.1942;23.09888;1.004602;-228.3268;-230.0437;0.108092;-0.02280126;0;
145.0065;0;0;145.5954;20.19528;-4.020006;161.2694;160.1789;-0.2168533;0.237091;0;
702.2681;0;0;694.2982;19.77285;-5.154676;713.3298;711.116;-0.3465701;0.3667875;0;
505.1612;0;0;540.1152;14.79649;-5.082514;522.8959;516.4989;-0.4761565;0.1065496;0;
166.8234;0;0;226.0426;11.1643;-6.751858;186.9141;183.522;-0.6056128;-0.2833616;0;
207.1979;0;0;261.1727;18.18665;1.962463;223.4578;225.9412;-0.2152002;-0.1531422;0;
-132.777;0;0;-52.55718;18.03466;4.974601;-111.9732;-109.7422;0.2397874;0.1718484;0;
-678.6816;0;0;-581.4885;10.11231;-1.326549;-652.3391;-649.7355;0.3694812;0.4965125;0;
-525.2015;0;0;-469.5851;7.75762;-0.2536108;-503.1957;-498.3459;0.04427321;0.7558829;0;
-203.5227;0;0;-175.261;5.205206;-0.9900463;-183.4131;-181.6915;-0.02073862;0.2353847;0;
-244.1726;0;0;-215.0648;2.989173;-1.591898;-221.7094;-224.175;0.1741842;-0.3495579;0;
131.1342;0;0;132.914;-0.5638041;4.839819;147.0781;145.7394;-0.1508275;-0.1543046;0;
699.2168;0;0;690.7499;-3.041484;6.241598;708.6479;708.0602;-0.345578;-0.08918225;0;
503.3623;0;0;539.7564;1.24848;5.699462;517.5316;515.3203;0.174508;-0.2839947;0;
166.0883;0;0;226.2464;2.921188;6.02865;183.0544;182.9693;0.3692347;-0.02383994;0;
206.7134;0;0;257.6282;-3.779552;7.027337;222.4756;225.6389;-0.02094037;0.04115137;0;
-142.5688;0;0;-68.21703;-4.780132;7.422174;-119.3887;-117.9152;-0.150854;-0.02385734;0;
-672.3467;0;0;-586.6379;5.606171;2.056203;-643.4427;-642.7829;0.304069;0.1061013;0;
-517.811;0;0;-473.6674;8.480927;0.04464886;-493.996;-490.963;0.3037634;0.1709621;0;
-219.6278;0;0;-195.8933;7.400678;-0.2903107;-198.2106;-196.5549;0.2384909;0.1058229;0;
-245.394;0;0;-217.8104;9.402973;-2.165419;-222.6241;-223.0315;0.4331532;-0.02421809;0;
144.7815;0;0;144.8513;8.924035;-0.7567236;161.0319;161.6244;0.1728487;-0.02419376;0;
694.1099;0;0;680.374;9.384559;-0.1531169;703.9096;703.0023;-0.02222705;-0.2190715;0;
496.8862;0;0;524.6432;10.17844;-4.640697;511.2988;509.143;-0.02220472;-0.02394932;0;
